Timestamp,OriginalTimestamp,EEG.Counter,EEG.Interpolated,EEG.AF3,EEG.F7,EEG.F3,EEG.FC5,EEG.T7,EEG.P7,EEG.O1,EEG.O2,EEG.P8,EEG.T8,EEG.FC6,EEG.F4,EEG.F8,EEG.AF4,EEG.RawCq,EEG.Battery,EEG.BatteryPercent,MarkerIndex,MarkerType,MarkerValueInt,EEG.MarkerHardware,CQ.AF3,CQ.F7,CQ.F3,CQ.FC5,CQ.T7,CQ.P7,CQ.O1,CQ.O2,CQ.P8,CQ.T8,CQ.FC6,CQ.F4,CQ.F8,CQ.AF4,CQ.Overall,EQ.SampleRateQuality,EQ.OVERALL,EQ.AF3,EQ.F7,EQ.F3,EQ.FC5,EQ.T7,EQ.P7,EQ.O1,EQ.O2,EQ.P8,EQ.T8,EQ.FC6,EQ.F4,EQ.F8,EQ.AF4,MC.Action,MC.ActionPower,MC.IsActive,PM.Attention.IsActive,PM.Attention.Scaled,PM.Attention.Raw,PM.Attention.Min,PM.Attention.Max,PM.Engagement.IsActive,PM.Engagement.Scaled,PM.Engagement.Raw,PM.Engagement.Min,PM.Engagement.Max,PM.Excitement.IsActive,PM.Excitement.Scaled,PM.Excitement.Raw,PM.Excitement.Min,PM.Excitement.Max,PM.LongTermExcitement,PM.Stress.IsActive,PM.Stress.Scaled,PM.Stress.Raw,PM.Stress.Min,PM.Stress.Max,PM.Relaxation.IsActive,PM.Relaxation.Scaled,PM.Relaxation.Raw,PM.Relaxation.Min,PM.Relaxation.Max,PM.Interest.IsActive,PM.Interest.Scaled,PM.Interest.Raw,PM.Interest.Min,PM.Interest.Max,PM.Focus.IsActive,PM.Focus.Scaled,PM.Focus.Raw,PM.Focus.Min,PM.Focus.Max,FE.BlinkWink,FE.HorizontalEyesDirection,FE.UpperFaceAction,FE.UpperFaceActionPower,FE.LowerFaceAction,FE.LowerFaceActionPower,POW.AF3.Theta,POW.AF3.Alpha,POW.AF3.BetaL,POW.AF3.BetaH,POW.AF3.Gamma,POW.F7.Theta,POW.F7.Alpha,POW.F7.BetaL,POW.F7.BetaH,POW.F7.Gamma,POW.F3.Theta,POW.F3.Alpha,POW.F3.BetaL,POW.F3.BetaH,POW.F3.Gamma,POW.FC5.Theta,POW.FC5.Alpha,POW.FC5.BetaL,POW.FC5.BetaH,POW.FC5.Gamma,POW.T7.Theta,POW.T7.Alpha,POW.T7.BetaL,POW.T7.BetaH,POW.T7.Gamma,POW.P7.Theta,POW.P7.Alpha,POW.P7.BetaL,POW.P7.BetaH,POW.P7.Gamma,POW.O1.Theta,POW.O1.Alpha,POW.O1.BetaL,POW.O1.BetaH,POW.O1.Gamma,POW.O2.Theta,POW.O2.Alpha,POW.O2.BetaL,POW.O2.BetaH,POW.O2.Gamma,POW.P8.Theta,POW.P8.Alpha,POW.P8.BetaL,POW.P8.BetaH,POW.P8.Gamma,POW.T8.Theta,POW.T8.Alpha,POW.T8.BetaL,POW.T8.BetaH,POW.T8.Gamma,POW.FC6.Theta,POW.FC6.Alpha,POW.FC6.BetaL,POW.FC6.BetaH,POW.FC6.Gamma,POW.F4.Theta,POW.F4.Alpha,POW.F4.BetaL,POW.F4.BetaH,POW.F4.Gamma,POW.F8.Theta,POW.F8.Alpha,POW.F8.BetaL,POW.F8.BetaH,POW.F8.Gamma,POW.AF4.Theta,POW.AF4.Alpha,POW.AF4.BetaL,POW.AF4.BetaH,POW.AF4.Gamma
1725710426.954639,1725710426.955724,188.0,0.0,4251.794922,4249.871582,4414.743652,4315.641113,4203.974121,4257.179688,3893.205078,4214.487305,4233.205078,4204.358887,4518.589844,4496.538574,4373.974121,4443.077148,3436.0,1.0,15.0,15.0,1.0,1.0,0.0,4.0,4.0,4.0,4.0,4.0,4.0,4.0,4.0,4.0,4.0,4.0,4.0,4.0,4.0,100.0,,,,,,,,,,,,,,,,,,,,,,,,,,,,,,,,,,,,,,,,,,,,,,,,,,,,,,,,,,,,,,,,,,,,,,,,,,,,,,,,,,,,,,,,,,,,,,,,,,,,,,,,,,,,,,,,,,,,,,,,,,,,,,,,,,,
1725710426.958543,1725710426.959628,189.0,0.0,4254.615234,4250.641113,4414.743652,4319.871582,4207.563965,4256.794922,3893.076904,4215.641113,4234.230957,4204.615234,4516.922852,4494.487305,4370.0,4439.871582,3941.0,1.0,15.0,,,,0.0,4.0,4.0,4.0,4.0,4.0,4.0,4.0,4.0,4.0,4.0,4.0,4.0,4.0,4.0,100.0,,,,,,,,,,,,,,,,,,,,,,,,,,,,,,,,,,,,,,,,,,,,,,,,,,,,,,,,,,,,,,,,,,,,,,,,,,,,,,,,,,,,,,,,,,,,,,,,,,,,,,,,,,,,,,,,,,,,,,,,,,,,,,,,,,,
1725710426.962448,1725710426.963532,190.0,0.0,4258.846191,4251.666504,4414.358887,4325.0,4211.794922,4257.563965,3893.846191,4215.641113,4233.589844,4202.179688,4518.205078,4492.94873,4367.05127,4436.282227,2905.0,1.0,15.0,,,,0.0,4.0,4.0,4.0,4.0,4.0,4.0,4.0,4.0,4.0,4.0,4.0,4.0,4.0,4.0,100.0,,,,,,,,,,,,,,,,,,,,,,,,,,,,,,,,,,,,,,,,,,,,,,,,,,,,,,,,,,,,,,,,,,,,,,,,,,,,,,,,,,,,,,,,,,,,,,,,,,,,,,,,,,,,,,,,,,,,,,,,,,,,,,,,,,,
1725710426.966352,1725710426.967336,191.0,0.0,4262.307617,4252.820313,4414.102539,4328.333496,4215.384766,4258.846191,3895.0,4214.871582,4232.436035,4199.487305,4521.922852,4494.487305,4367.436035,4435.256348,3149.0,1.0,15.0,,,,0.0,4.0,4.0,4.0,4.0,4.0,4.0,4.0,4.0,4.0,4.0,4.0,4.0,4.0,4.0,100.0,,,,,,,,,,,,,,,,,,,,,,,,,,,,,,,,,,,,,,,,,,,,,,,,,,,,,,,,,,,,,,,,,,,,,,,,,,,,,,,,,,,,,,,,,,,,,,,,,,,,,,,,,,,,,,,,,,,,,,,,,,,,,,,,,,,
1725710426.970256,1725710426.971241,192.0,0.0,4263.974121,4254.230957,4413.846191,4328.717773,4217.307617,4260.256348,3895.641113,4214.871582,4232.179688,4199.102539,4526.666504,4499.358887,4371.410156,4437.692383,3436.0,1.0,15.0,,,,0.0,4.0,4.0,4.0,4.0,4.0,4.0,4.0,4.0,4.0,4.0,4.0,4.0,4.0,4.0,100.0,,,,,,,,,,,,,,,,,,,,,,,,,,,,,,,,,,,,,,,,,,,,,,,,,,,,,,,,0.0,0.0,1.0,0.0,2048.0,0.0,,,,,,,,,,,,,,,,,,,,,,,,,,,,,,,,,,,,,,,,,,,,,,,,,,,,,,,,,,,,,,,,,,,,,,
1725710426.97416,1725710426.975145,193.0,0.0,4263.846191,4256.666504,4413.205078,4327.436035,4217.179688,4261.538574,3894.230713,4216.538574,4233.333496,4200.641113,4531.153809,4505.256348,4376.538574,4441.666504,3941.0,1.0,15.0,,,,0.0,4.0,4.0,4.0,4.0,4.0,4.0,4.0,4.0,4.0,4.0,4.0,4.0,4.0,4.0,100.0,,,,,,,,,,,,,,,,,,,,,,,,,,,,,,,,,,,,,,,,,,,,,,,,,,,,,,,,,,,,,,,,,,,,,,,,,,,,,,,,,,,,,,,,,,,,,,,,,,,,,,,,,,,,,,,,,,,,,,,,,,,,,,,,,,,
1725710426.978064,1725710426.979049,194.0,0.0,4262.820313,4260.128418,4412.436035,4326.538574,4214.871582,4262.436035,3890.256348,4219.230957,4234.102539,4202.05127,4535.0,4509.230957,4380.128418,4444.615234,2905.0,1.0,15.0,,,,0.0,4.0,4.0,4.0,4.0,4.0,4.0,4.0,4.0,4.0,4.0,4.0,4.0,4.0,4.0,100.0,,,,,,,,,,,,,,,,,,,,,,,,,,,,,,,,,,,,,,,,,,,,,,,,,,,,,,,,,,,,,,,,,,,,,,,,,,,,,,,,,,,,,,,,,,,,,,,,,,,,,,,,,,,,,,,,,,,,,,,,,,,,,,,,,,,
1725710426.981968,1725710426.982853,195.0,0.0,4262.307617,4263.717773,4412.05127,4326.538574,4211.025879,4262.436035,3884.871826,4221.153809,4233.333496,4201.410156,4538.461426,4509.871582,4381.153809,4444.871582,3149.0,1.0,15.0,,,,0.0,4.0,4.0,4.0,4.0,4.0,4.0,4.0,4.0,4.0,4.0,4.0,4.0,4.0,4.0,100.0,,,,,,,,,,,,,,,,,,,,,,,,,,,,,,,,,,,,,,,,,,,,,,,,,,,,,,,,,,,,,,,,,,,,,,,,,,,,,,,,,,,,,,,,,,,,,,,,,,,,,,,,,,,,,,,,,,,,,,,,,,,,,,,,,,,
1725710426.985872,1725710426.986757,196.0,0.0,4262.692383,4265.641113,4412.692383,4327.179688,4207.05127,4261.282227,3880.256348,4220.769043,4231.410156,4199.487305,4540.769043,4507.94873,4380.128418,4443.589844,3436.0,1.0,15.0,,,,0.0,4.0,4.0,4.0,4.0,4.0,4.0,4.0,4.0,4.0,4.0,4.0,4.0,4.0,4.0,100.0,,,,,,,,,,,,,,,,,,,,,,,,,,,,,,,,,,,,,,,,,,,,,,,,,,,,,,,,,,,,,,,,,,,,,,,,,,,,,,,,,,,,,,,,,,,,,,,,,,,,,,,,,,,,,,,,,,,,,,,,,,,,,,,,,,,
1725710426.989776,1725710426.990661,197.0,0.0,4263.205078,4264.358887,4414.102539,4327.94873,4204.230957,4259.102539,3878.205078,4218.461426,4229.871582,4198.205078,4541.153809,4505.897461,4378.589844,4442.820313,3941.0,1.0,15.0,,,,0.0,4.0,4.0,4.0,4.0,4.0,4.0,4.0,4.0,4.0,4.0,4.0,4.0,4.0,4.0,100.0,,,,,,,,,,,,,,,,,,,,,,,,,,,,,,,,,,,,,,,,,,,,,,,,,,,,,,,,,,,,,,,,,,,,,,,,,,,,,,,,,,,,,,,,,,,,,,,,,,,,,,,,,,,,,,,,,,,,,,,,,,,,,,,,,,,
1725710426.99368,1725710426.994665,198.0,0.0,4263.205078,4260.128418,4414.743652,4328.333496,4203.589844,4256.794922,3878.718018,4216.153809,4230.0,4199.102539,4539.102539,4505.641113,4378.205078,4443.974121,2905.0,1.0,15.0,,,,0.0,4.0,4.0,4.0,4.0,4.0,4.0,4.0,4.0,4.0,4.0,4.0,4.0,4.0,4.0,100.0,,,,,,,,,,,,,,,,,,,,,,,,,,,,,,,,,,,,,,,,,,,,,,,,,,,,,,,,,,,,,,,,,,,,,,,,,,,,,,,,,,,,,,,,,,,,,,,,,,,,,,,,,,,,,,,,,,,,,,,,,,,,,,,,,,,
1725710426.997584,1725710426.998569,199.0,0.0,4262.563965,4254.487305,4413.461426,4328.077148,4204.743652,4254.487305,3879.871826,4215.641113,4231.538574,4201.666504,4535.897461,4506.922852,4379.102539,4446.410156,3149.0,1.0,15.0,,,,0.0,4.0,4.0,4.0,4.0,4.0,4.0,4.0,4.0,4.0,4.0,4.0,4.0,4.0,4.0,100.0,,,,,,,,,,,,,,,,,,,,,,,,,,,,,,,,,,,,,,,,,,,,,,,,,,,,,,,,,,,,,,,,,,,,,,,,,,,,,,,,,,,,,,,,,,,,,,,,,,,,,,,,,,,,,,,,,,,,,,,,,,,,,,,,,,,
1725710427.001489,1725710427.002473,200.0,0.0,4262.05127,4249.871582,4410.256348,4326.922852,4206.282227,4252.436035,3879.358887,4217.05127,4233.846191,4204.358887,4533.461426,4508.717773,4380.897461,4448.333496,3436.0,1.0,15.0,,,,0.0,4.0,4.0,4.0,4.0,4.0,4.0,4.0,4.0,4.0,4.0,4.0,4.0,4.0,4.0,100.0,,,,,,,,,,,,,,,,,,,,,,,,,,,,,,,,,,,,,,,,,,,,,,,,,,,,,,,,0.0,0.0,1.0,0.0,2048.0,0.0,,,,,,,,,,,,,,,,,,,,,,,,,,,,,,,,,,,,,,,,,,,,,,,,,,,,,,,,,,,,,,,,,,,,,,
1725710427.005393,1725710427.006378,201.0,0.0,4262.179688,4247.94873,4406.794922,4325.256348,4206.794922,4250.897461,3876.410156,4219.615234,4235.512695,4205.641113,4533.333496,4509.487305,4382.436035,4448.589844,3941.0,1.0,15.0,,,,0.0,4.0,4.0,4.0,4.0,4.0,4.0,4.0,4.0,4.0,4.0,4.0,4.0,4.0,4.0,100.0,,,,,,,,,,,,,,,,,,,,,,,,,,,,,,,,,,,,,,,,,,,,,,,,,,,,,,,,,,,,,,,,,,,,,,,,,,,,,,,,,,,,,,,,,,,,,,,,,,,,,,,,,,,,,,,,,,,,,,,,,,,,,,,,,,,
1725710427.009297,1725710427.010382,202.0,0.0,4262.436035,4248.205078,4404.615234,4323.077148,4205.769043,4250.256348,3871.410156,4221.666504,4235.769043,4204.615234,4535.641113,4509.230957,4383.077148,4447.05127,2905.0,1.0,15.0,,,,0.0,4.0,4.0,4.0,4.0,4.0,4.0,4.0,4.0,4.0,4.0,4.0,4.0,4.0,4.0,100.0,,,,,,,,,,,,,,,,,,,,,,,,,,,,,,,,,,,,,,,,,,,,,,,,,,,,,,,,,,,,,,,,,,,,,,,,,,,,,,,,,,,,,,,,,,,,,,,,,,,,,,,,,,,,,,,,,,,,,,,,,,,,,,,,,,,
1725710427.013201,1725710427.014286,203.0,0.0,4262.436035,4249.615234,4403.974121,4320.384766,4204.102539,4250.384766,3866.025635,4222.436035,4234.615234,4201.922852,4539.358887,4508.205078,4382.436035,4444.358887,3149.0,1.0,15.0,,,,0.0,4.0,4.0,4.0,4.0,4.0,4.0,4.0,4.0,4.0,4.0,4.0,4.0,4.0,4.0,100.0,,,,,,,,,,,,,,,,,,,,,,,,,,,,,,,,,,,,,,,,,,,,,,,,,,,,,,,,,,,,,,,,,,,,,,,,,,,,,,,,,,,,,,,,,,,,,,,,,,,,,,,,,,,,,,,,,,,,,,,,,,,,,,,,,,,
1725710427.017105,1725710427.01819,204.0,0.0,4262.307617,4250.384766,4404.230957,4317.563965,4202.820313,4250.897461,3862.307617,4221.153809,4233.205078,4198.974121,4541.922852,4506.922852,4380.128418,4441.153809,3436.0,1.0,15.0,,,,0.0,4.0,4.0,4.0,4.0,4.0,4.0,4.0,4.0,4.0,4.0,4.0,4.0,4.0,4.0,100.0,,,,,,,,,,,,,,,,,,,,,,,,,,,,,,,,,,,,,,,,,,,,,,,,,,,,,,,,,,,,,,,,,,,,,,,,,,,,,,,,,,,,,,,,,,,,,,,,,,,,,,,,,,,,,,,,,,,,,,,,,,,,,,,,,,,
1725710427.021009,1725710427.022194,205.0,0.0,4261.794922,4250.128418,4403.846191,4315.641113,4202.563965,4251.153809,3861.153809,4218.717773,4232.436035,4197.692383,4540.769043,4505.128418,4376.538574,4437.692383,3941.0,1.0,15.0,,,,0.0,4.0,4.0,4.0,4.0,4.0,4.0,4.0,4.0,4.0,4.0,4.0,4.0,4.0,4.0,100.0,,,,,,,,,,,,,,,,,,,,,,,,,,,,,,,,,,,,,,,,,,,,,,,,,,,,,,,,,,,,,,,,,,,,,,,,,,,,,,,,,,,,,,,,,,,,,,,,,,,,,,,,,,,,,,,,,,,,,,,,,,,,,,,,,,,
1725710427.024913,1725710427.026098,206.0,0.0,4260.512695,4249.358887,4402.563965,4315.384766,4203.077148,4251.282227,3861.794922,4216.153809,4232.563965,4198.461426,4534.743652,4502.05127,4372.179688,4434.230957,2905.0,1.0,15.0,,,,0.0,4.0,4.0,4.0,4.0,4.0,4.0,4.0,4.0,4.0,4.0,4.0,4.0,4.0,4.0,100.0,,,,,,,,,,,,,,,,,,,,,,,,,,,,,,,,,,,,,,,,,,,,,,,,,,,,,,,,,,,,,,,,,,,,,,,,,,,,,,,,,,,,,,,,,,,,,,,,,,,,,,,,,,,,,,,,,,,,,,,,,,,,,,,,,,,
1725710427.028817,1725710427.030002,207.0,0.0,4258.077148,4248.717773,4400.128418,4316.538574,4203.205078,4251.025879,3862.820557,4214.358887,4232.94873,4200.128418,4526.153809,4497.692383,4368.077148,4431.282227,3149.0,1.0,15.0,,,,0.0,4.0,4.0,4.0,4.0,4.0,4.0,4.0,4.0,4.0,4.0,4.0,4.0,4.0,4.0,100.0,,,,,,,,,,,,,,,,,,,,,,,,,,,,,,,,,,,,,,,,,,,,,,,,,,,,,,,,,,,,,,,,,,,,,,,,,,,,,,,,,,,,,,,,,,,,,,,,,,,,,,,,,,,,,,,,,,,,,,,,,,,,,,,,,,,
1725710427.032721,1725710427.033906,208.0,0.0,4255.0,4248.589844,4397.563965,4317.307617,4202.179688,4250.256348,3863.333252,4213.589844,4232.692383,4200.384766,4520.0,4493.077148,4365.0,4429.615234,3436.0,1.0,15.0,,,,0.0,4.0,4.0,4.0,4.0,4.0,4.0,4.0,4.0,4.0,4.0,4.0,4.0,4.0,4.0,100.0,,,,,,,,,,,,,,,,,1.0,0.0,0.0,,,,,,,,,,,,,,,,,,,,,,,,,,,,,,,,,,,,,0.0,0.0,1.0,0.0,2048.0,0.0,1.578687,0.907777,0.341498,0.146667,0.051624,0.617869,0.617018,0.383094,0.181686,0.113974,1.853287,0.574876,0.116026,0.070713,0.065827,0.591501,0.630381,0.338727,0.219134,0.134756,0.32781,0.184021,0.189183,0.117355,0.104127,0.088239,0.229894,0.128964,0.041891,0.034155,1.476406,0.46945,0.303144,0.173134,0.066199,0.611179,1.324906,0.259778,0.20516,0.135389,0.720066,0.575421,0.242864,0.258115,0.158838,1.438032,0.648854,0.200022,0.245331,0.188046,3.626125,1.690723,0.955645,1.0028,0.593264,3.638181,2.47929,0.772796,0.312842,0.111197,3.265511,1.613071,0.983583,0.758973,0.339333,3.884341,1.457825,0.478479,0.247612,0.115468
1725710427.036625,1725710427.03781,209.0,0.0,4252.436035,4248.717773,4395.0,4316.153809,4200.512695,4249.102539,3863.333252,4213.846191,4231.922852,4198.077148,4520.769043,4490.0,4364.102539,4428.974121,3941.0,1.0,15.0,,,,0.0,4.0,4.0,4.0,4.0,4.0,4.0,4.0,4.0,4.0,4.0,4.0,4.0,4.0,4.0,100.0,,,,,,,,,,,,,,,,,,,,,,,,,,,,,,,,,,,,,,,,,,,,,,,,,,,,,,,,,,,,,,,,,,,,,,,,,,,,,,,,,,,,,,,,,,,,,,,,,,,,,,,,,,,,,,,,,,,,,,,,,,,,,,,,,,,
1725710427.040529,1725710427.041614,210.0,0.0,4251.025879,4248.717773,4392.563965,4312.820313,4199.615234,4248.077148,3862.820557,4214.871582,4230.769043,4193.717773,4528.717773,4489.102539,4365.256348,4428.974121,2905.0,1.0,15.0,,,,0.0,4.0,4.0,4.0,4.0,4.0,4.0,4.0,4.0,4.0,4.0,4.0,4.0,4.0,4.0,100.0,,,,,,,,,,,,,,,,,,,,,,,,,,,,,,,,,,,,,,,,,,,,,,,,,,,,,,,,,,,,,,,,,,,,,,,,,,,,,,,,,,,,,,,,,,,,,,,,,,,,,,,,,,,,,,,,,,,,,,,,,,,,,,,,,,,
1725710427.044433,1725710427.045518,211.0,0.0,4251.025879,4248.974121,4389.487305,4309.102539,4200.128418,4248.589844,3862.307617,4216.153809,4230.256348,4189.615234,4538.589844,4490.0,4367.563965,4428.974121,3149.0,1.0,15.0,,,,0.0,4.0,4.0,4.0,4.0,4.0,4.0,4.0,4.0,4.0,4.0,4.0,4.0,4.0,4.0,100.0,,,,,,,,,,,,,,,,,,,,,,,,,,,,,,,,,,,,,,,,,,,,,,,,,,,,,,,,,,,,,,,,,,,,,,,,,,,,,,,,,,,,,,,,,,,,,,,,,,,,,,,,,,,,,,,,,,,,,,,,,,,,,,,,,,,
1725710427.048338,1725710427.049423,212.0,0.0,4251.666504,4249.615234,4385.641113,4307.436035,4201.666504,4251.025879,3862.307617,4217.05127,4230.384766,4187.179688,4543.333496,4491.282227,4369.230957,4428.974121,3436.0,1.0,15.0,,,,0.0,4.0,4.0,4.0,4.0,4.0,4.0,4.0,4.0,4.0,4.0,4.0,4.0,4.0,4.0,100.0,,,,,,,,,,,,,,,,,,,,,,,,,,,,,,,,,,,,,,,,,,,,,,,,,,,,,,,,,,,,,,,,,,,,,,,,,,,,,,,,,,,,,,,,,,,,,,,,,,,,,,,,,,,,,,,,,,,,,,,,,,,,,,,,,,,
1725710427.052242,1725710427.053327,213.0,0.0,4251.922852,4250.769043,4381.794922,4309.358887,4203.333496,4255.256348,3863.333252,4217.563965,4230.769043,4186.922852,4539.102539,4492.179688,4368.589844,4428.589844,3941.0,1.0,15.0,,,,0.0,4.0,4.0,4.0,4.0,4.0,4.0,4.0,4.0,4.0,4.0,4.0,4.0,4.0,4.0,100.0,,,,,,,,,,,,,,,,,,,,,,,,,,,,,,,,,,,,,,,,,,,,,,,,,,,,,,,,,,,,,,,,,,,,,,,,,,,,,,,,,,,,,,,,,,,,,,,,,,,,,,,,,,,,,,,,,,,,,,,,,,,,,,,,,,,
1725710427.056146,1725710427.057131,214.0,0.0,4251.538574,4251.282227,4379.230957,4314.102539,4204.871582,4260.0,3864.615479,4217.692383,4231.153809,4188.205078,4528.461426,4491.922852,4365.384766,4427.692383,2905.0,1.0,15.0,,,,0.0,4.0,4.0,4.0,4.0,4.0,4.0,4.0,4.0,4.0,4.0,4.0,4.0,4.0,4.0,100.0,,,,,,,,,,,,,,,,,,,,,,,,,,,,,,,,,,,,,,,,,,,,,,,,,,,,,,,,,,,,,,,,,,,,,,,,,,,,,,,,,,,,,,,,,,,,,,,,,,,,,,,,,,,,,,,,,,,,,,,,,,,,,,,,,,,
1725710427.06005,1725710427.061035,215.0,0.0,4250.641113,4250.641113,4378.205078,4318.846191,4205.641113,4262.820313,3864.615479,4217.820313,4231.025879,4189.230957,4518.205078,4491.025879,4360.256348,4426.410156,3149.0,1.0,15.0,,,,0.0,4.0,4.0,4.0,4.0,4.0,4.0,4.0,4.0,4.0,4.0,4.0,4.0,4.0,4.0,100.0,,,,,,,,,,,,,,,,,,,,,,,,,,,,,,,,,,,,,,,,,,,,,,,,,,,,,,,,,,,,,,,,,,,,,,,,,,,,,,,,,,,,,,,,,,,,,,,,,,,,,,,,,,,,,,,,,,,,,,,,,,,,,,,,,,,
1725710427.063954,1725710427.064939,216.0,0.0,4249.615234,4248.717773,4377.179688,4320.641113,4205.128418,4262.436035,3862.179443,4217.436035,4230.512695,4188.461426,4514.102539,4489.871582,4354.743652,4425.384766,3436.0,1.0,15.0,,,,0.0,4.0,4.0,4.0,4.0,4.0,4.0,4.0,4.0,4.0,4.0,4.0,4.0,4.0,4.0,100.0,,,,,,,,,,,,,,,,,,,,,,,,,,,,,,,,,,,,,,,,,,,,,,,,,,,,,,,,0.0,0.0,1.0,0.0,2048.0,0.0,,,,,,,,,,,,,,,,,,,,,,,,,,,,,,,,,,,,,,,,,,,,,,,,,,,,,,,,,,,,,,,,,,,,,,
1725710427.067858,1725710427.068843,217.0,0.0,4248.974121,4246.922852,4374.871582,4318.589844,4203.077148,4259.230957,3857.820557,4216.538574,4230.256348,4185.641113,4516.922852,4488.717773,4351.025879,4425.128418,3941.0,1.0,15.0,,,,0.0,4.0,4.0,4.0,4.0,4.0,4.0,4.0,4.0,4.0,4.0,4.0,4.0,4.0,4.0,100.0,,,,,,,,,,,,,,,,,,,,,,,,,,,,,,,,,,,,,,,,,,,,,,,,,,,,,,,,,,,,,,,,,,,,,,,,,,,,,,,,,,,,,,,,,,,,,,,,,,,,,,,,,,,,,,,,,,,,,,,,,,,,,,,,,,,
1725710427.071762,1725710427.072647,218.0,0.0,4248.974121,4246.025879,4371.153809,4314.102539,4201.025879,4255.256348,3852.692383,4215.0,4230.256348,4182.436035,4522.820313,4487.563965,4350.512695,4425.128418,2905.0,1.0,15.0,,,,0.0,4.0,4.0,4.0,4.0,4.0,4.0,4.0,4.0,4.0,4.0,4.0,4.0,4.0,4.0,100.0,,,,,,,,,,,,,,,,,,,,,,,,,,,,,,,,,,,,,,,,,,,,,,,,,,,,,,,,,,,,,,,,,,,,,,,,,,,,,,,,,,,,,,,,,,,,,,,,,,,,,,,,,,,,,,,,,,,,,,,,,,,,,,,,,,,
1725710427.075666,1725710427.076551,219.0,0.0,4249.487305,4245.897461,4367.820313,4310.128418,4200.641113,4252.820313,3848.461426,4213.717773,4230.769043,4180.897461,4526.282227,4486.538574,4353.461426,4424.743652,3149.0,1.0,15.0,,,,0.0,4.0,4.0,4.0,4.0,4.0,4.0,4.0,4.0,4.0,4.0,4.0,4.0,4.0,4.0,100.0,,,,,,,,,,,,,,,,,,,,,,,,,,,,,,,,,,,,,,,,,,,,,,,,,,,,,,,,,,,,,,,,,,,,,,,,,,,,,,,,,,,,,,,,,,,,,,,,,,,,,,,,,,,,,,,,,,,,,,,,,,,,,,,,,,,
1725710427.07957,1725710427.080456,220.0,0.0,4249.743652,4246.153809,4367.05127,4309.743652,4203.205078,4253.205078,3845.897461,4213.846191,4231.538574,4182.307617,4525.256348,4486.538574,4358.589844,4424.230957,3436.0,1.0,15.0,,,,0.0,4.0,4.0,4.0,4.0,4.0,4.0,4.0,4.0,4.0,4.0,4.0,4.0,4.0,4.0,100.0,,,,,,,,,,,,,,,,,,,,,,,,,,,,,,,,,,,,,,,,,,,,,,,,,,,,,,,,,,,,,,,,,,,,,,,,,,,,,,,,,,,,,,,,,,,,,,,,,,,,,,,,,,,,,,,,,,,,,,,,,,,,,,,,,,,
1725710427.083475,1725710427.08436,221.0,0.0,4249.358887,4246.538574,4368.461426,4313.461426,4207.94873,4256.410156,3845.384521,4215.641113,4232.179688,4185.384766,4521.666504,4487.94873,4363.077148,4424.743652,3941.0,1.0,15.0,,,,0.0,4.0,4.0,4.0,4.0,4.0,4.0,4.0,4.0,4.0,4.0,4.0,4.0,4.0,4.0,100.0,,,,,,,,,,,,,,,,,,,,,,,,,,,,,,,,,,,,,,,,,,,,,,,,,,,,,,,,,,,,,,,,,,,,,,,,,,,,,,,,,,,,,,,,,,,,,,,,,,,,,,,,,,,,,,,,,,,,,,,,,,,,,,,,,,,
1725710427.087379,1725710427.088164,222.0,0.0,4248.461426,4247.563965,4370.769043,4319.102539,4212.94873,4260.897461,3846.538574,4218.333496,4232.307617,4188.077148,4519.615234,4490.384766,4364.871582,4427.05127,2905.0,1.0,15.0,,,,0.0,4.0,4.0,4.0,4.0,4.0,4.0,4.0,4.0,4.0,4.0,4.0,4.0,4.0,4.0,100.0,,,,,,,,,,,,,,,,,,,,,,,,,,,,,,,,,,,,,,,,,,,,,,,,,,,,,,,,,,,,,,,,,,,,,,,,,,,,,,,,,,,,,,,,,,,,,,,,,,,,,,,,,,,,,,,,,,,,,,,,,,,,,,,,,,,
1725710427.091283,1725710427.092068,223.0,0.0,4248.589844,4249.743652,4372.179688,4323.589844,4216.282227,4264.743652,3848.589844,4220.512695,4231.922852,4188.974121,4521.794922,4492.436035,4364.487305,4431.282227,3149.0,1.0,15.0,,,,0.0,4.0,4.0,4.0,4.0,4.0,4.0,4.0,4.0,4.0,4.0,4.0,4.0,4.0,4.0,100.0,,,,,,,,,,,,,,,,,,,,,,,,,,,,,,,,,,,,,,,,,,,,,,,,,,,,,,,,,,,,,,,,,,,,,,,,,,,,,,,,,,,,,,,,,,,,,,,,,,,,,,,,,,,,,,,,,,,,,,,,,,,,,,,,,,,
1725710427.095187,1725710427.095972,224.0,0.0,4250.769043,4252.94873,4372.692383,4326.025879,4217.05127,4266.282227,3851.281982,4221.282227,4231.794922,4188.205078,4527.820313,4493.589844,4363.846191,4436.666504,3436.0,1.0,15.0,,,,0.0,4.0,4.0,4.0,4.0,4.0,4.0,4.0,4.0,4.0,4.0,4.0,4.0,4.0,4.0,100.0,,,,,,,,,,,,,,,,,,,,,,,,,,,,,,,,,,,,,,,,,,,,,,,,,,,,,,,,0.0,0.0,1.0,0.0,2048.0,0.0,,,,,,,,,,,,,,,,,,,,,,,,,,,,,,,,,,,,,,,,,,,,,,,,,,,,,,,,,,,,,,,,,,,,,,
1725710427.099091,1725710427.099976,225.0,0.0,4254.871582,4256.282227,4372.94873,4326.922852,4216.282227,4265.897461,3854.487061,4220.256348,4231.922852,4187.179688,4535.0,4493.974121,4364.871582,4441.410156,3941.0,1.0,15.0,,,,0.0,4.0,4.0,4.0,4.0,4.0,4.0,4.0,4.0,4.0,4.0,4.0,4.0,4.0,4.0,100.0,,,,,,,,,,,,,,,,,,,,,,,,,,,,,,,,,,,,,,,,,,,,,,,,,,,,,,,,,,,,,,,,,,,,,,,,,,,,,,,,,,,,,,,,,,,,,,,,,,,,,,,,,,,,,,,,,,,,,,,,,,,,,,,,,,,
1725710427.102995,1725710427.10388,226.0,0.0,4259.230957,4258.205078,4373.333496,4327.692383,4215.256348,4264.487305,3858.205078,4218.077148,4232.179688,4186.666504,4540.128418,4494.230957,4367.05127,4442.820313,2905.0,1.0,15.0,,,,0.0,4.0,4.0,4.0,4.0,4.0,4.0,4.0,4.0,4.0,4.0,4.0,4.0,4.0,4.0,100.0,,,,,,,,,,,,,,,,,,,,,,,,,,,,,,,,,,,,,,,,,,,,,,,,,,,,,,,,,,,,,,,,,,,,,,,,,,,,,,,,,,,,,,,,,,,,,,,,,,,,,,,,,,,,,,,,,,,,,,,,,,,,,,,,,,,
1725710427.106899,1725710427.107784,227.0,0.0,4261.922852,4258.333496,4373.846191,4328.461426,4215.0,4263.205078,3861.666748,4216.153809,4232.179688,4186.794922,4541.025879,4494.487305,4368.333496,4440.128418,3149.0,1.0,15.0,,,,0.0,4.0,4.0,4.0,4.0,4.0,4.0,4.0,4.0,4.0,4.0,4.0,4.0,4.0,4.0,100.0,,,,,,,,,,,,,,,,,,,,,,,,,,,,,,,,,,,,,,,,,,,,,,,,,,,,,,,,,,,,,,,,,,,,,,,,,,,,,,,,,,,,,,,,,,,,,,,,,,,,,,,,,,,,,,,,,,,,,,,,,,,,,,,,,,,
1725710427.110803,1725710427.111688,228.0,0.0,4261.922852,4257.563965,4373.846191,4328.205078,4215.641113,4262.692383,3864.102539,4215.512695,4231.538574,4187.692383,4537.307617,4494.358887,4366.794922,4434.615234,3436.0,1.0,15.0,,,,0.0,4.0,4.0,4.0,4.0,4.0,4.0,4.0,4.0,4.0,4.0,4.0,4.0,4.0,4.0,100.0,,,,,,,,,,,,,,,,,,,,,,,,,,,,,,,,,,,,,,,,,,,,,,,,,,,,,,,,,,,,,,,,,,,,,,,,,,,,,,,,,,,,,,,,,,,,,,,,,,,,,,,,,,,,,,,,,,,,,,,,,,,,,,,,,,,
1725710427.114707,1725710427.115692,229.0,0.0,4260.128418,4257.179688,4373.333496,4326.025879,4216.410156,4262.692383,3864.743652,4216.410156,4231.282227,4189.615234,4530.769043,4493.717773,4363.333496,4429.743652,3941.0,1.0,15.0,,,,0.0,4.0,4.0,4.0,4.0,4.0,4.0,4.0,4.0,4.0,4.0,4.0,4.0,4.0,4.0,100.0,,,,,,,,,,,,,,,,,,,,,,,,,,,,,,,,,,,,,,,,,,,,,,,,,,,,,,,,,,,,,,,,,,,,,,,,,,,,,,,,,,,,,,,,,,,,,,,,,,,,,,,,,,,,,,,,,,,,,,,,,,,,,,,,,,,
1725710427.118611,1725710427.119597,230.0,0.0,4258.461426,4258.205078,4372.820313,4323.077148,4216.410156,4262.94873,3863.974365,4217.94873,4231.794922,4192.692383,4524.230957,4493.077148,4360.641113,4428.461426,2905.0,1.0,15.0,,,,0.0,4.0,4.0,4.0,4.0,4.0,4.0,4.0,4.0,4.0,4.0,4.0,4.0,4.0,4.0,100.0,,,,,,,,,,,,,,,,,,,,,,,,,,,,,,,,,,,,,,,,,,,,,,,,,,,,,,,,,,,,,,,,,,,,,,,,,,,,,,,,,,,,,,,,,,,,,,,,,,,,,,,,,,,,,,,,,,,,,,,,,,,,,,,,,,,
1725710427.122516,1725710427.123501,231.0,0.0,4258.589844,4260.512695,4372.436035,4321.666504,4215.384766,4263.205078,3862.94873,4218.846191,4233.205078,4195.897461,4521.025879,4493.333496,4362.05127,4431.794922,3149.0,1.0,15.0,,,,0.0,4.0,4.0,4.0,4.0,4.0,4.0,4.0,4.0,4.0,4.0,4.0,4.0,4.0,4.0,100.0,,,,,,,,,,,,,,,,,,,,,,,,,,,,,,,,,,,,,,,,,,,,,,,,,,,,,,,,,,,,,,,,,,,,,,,,,,,,,,,,,,,,,,,,,,,,,,,,,,,,,,,,,,,,,,,,,,,,,,,,,,,,,,,,,,,
1725710427.12642,1725710427.127505,232.0,0.0,4260.384766,4262.692383,4372.307617,4323.333496,4214.102539,4263.077148,3862.564209,4218.333496,4235.128418,4198.717773,4522.820313,4494.871582,4368.461426,4437.563965,3436.0,1.0,15.0,,,,0.0,4.0,4.0,4.0,4.0,4.0,4.0,4.0,4.0,4.0,4.0,4.0,4.0,4.0,4.0,100.0,,,,,,,,,,,,,,,,,,,,,,,,,,,,,,,,,,,,,,,,,,,,,,,,,,,,,,,,0.0,0.0,1.0,0.0,2048.0,0.0,,,,,,,,,,,,,,,,,,,,,,,,,,,,,,,,,,,,,,,,,,,,,,,,,,,,,,,,,,,,,,,,,,,,,,
1725710427.130324,1725710427.131409,233.0,0.0,4262.820313,4263.846191,4371.922852,4327.563965,4213.589844,4262.563965,3863.205078,4216.794922,4236.410156,4200.897461,4528.717773,4497.820313,4377.436035,4442.94873,3941.0,1.0,15.0,,,,0.0,4.0,4.0,4.0,4.0,4.0,4.0,4.0,4.0,4.0,4.0,4.0,4.0,4.0,4.0,100.0,,,,,,,,,,,,,,,,,,,,,,,,,,,,,,,,,,,,,,,,,,,,,,,,,,,,,,,,,,,,,,,,,,,,,,,,,,,,,,,,,,,,,,,,,,,,,,,,,,,,,,,,,,,,,,,,,,,,,,,,,,,,,,,,,,,
1725710427.134228,1725710427.135313,234.0,0.0,4264.102539,4263.846191,4370.769043,4332.179688,4213.846191,4260.769043,3864.102539,4215.256348,4235.897461,4202.307617,4535.769043,4501.025879,4384.743652,4445.512695,2905.0,1.0,15.0,,,,0.0,4.0,4.0,4.0,4.0,4.0,4.0,4.0,4.0,4.0,4.0,4.0,4.0,4.0,4.0,100.0,,,,,,,,,,,,,,,,,,,,,,,,,,,,,,,,,,,,,,,,,,,,,,,,,,,,,,,,,,,,,,,,,,,,,,,,,,,,,,,,,,,,,,,,,,,,,,,,,,,,,,,,,,,,,,,,,,,,,,,,,,,,,,,,,,,
1725710427.138132,1725710427.139317,235.0,0.0,4263.461426,4263.205078,4368.589844,4334.743652,4214.230957,4257.436035,3865.512939,4214.615234,4233.717773,4202.563965,4540.384766,4503.461426,4386.922852,4445.384766,3149.0,1.0,15.0,,,,0.0,4.0,4.0,4.0,4.0,4.0,4.0,4.0,4.0,4.0,4.0,4.0,4.0,4.0,4.0,100.0,,,,,,,,,,,,,,,,,,,,,,,,,,,,,,,,,,,,,,,,,,,,,,,,,,,,,,,,,,,,,,,,,,,,,,,,,,,,,,,,,,,,,,,,,,,,,,,,,,,,,,,,,,,,,,,,,,,,,,,,,,,,,,,,,,,
1725710427.142036,1725710427.143221,236.0,0.0,4261.538574,4262.563965,4366.282227,4333.846191,4214.358887,4253.205078,3867.94873,4215.256348,4231.282227,4201.025879,4540.641113,4504.358887,4384.743652,4443.717773,3436.0,1.0,15.0,,,,0.0,4.0,4.0,4.0,4.0,4.0,4.0,4.0,4.0,4.0,4.0,4.0,4.0,4.0,4.0,100.0,,,,,,,,,,,,,,,,,,,,,,,,,,,,,,,,,,,,,,,,,,,,,,,,,,,,,,,,,,,,,,,,,,,,,,,,,,,,,,,,,,,,,,,,,,,,,,,,,,,,,,,,,,,,,,,,,,,,,,,,,,,,,,,,,,,
1725710427.14594,1725710427.147125,237.0,0.0,4259.871582,4262.179688,4364.871582,4330.512695,4214.102539,4249.743652,3871.666748,4216.666504,4230.512695,4198.205078,4537.436035,4504.358887,4381.666504,4442.692383,3941.0,1.0,15.0,,,,0.0,4.0,4.0,4.0,4.0,4.0,4.0,4.0,4.0,4.0,4.0,4.0,4.0,4.0,4.0,100.0,,,,,,,,,,,,,,,,,,,,,,,,,,,,,,,,,,,,,,,,,,,,,,,,,,,,,,,,,,,,,,,,,,,,,,,,,,,,,,,,,,,,,,,,,,,,,,,,,,,,,,,,,,,,,,,,,,,,,,,,,,,,,,,,,,,
1725710427.149844,1725710427.151029,238.0,0.0,4259.358887,4261.666504,4365.0,4326.794922,4213.846191,4249.230957,3875.641113,4217.94873,4232.94873,4195.769043,4533.846191,4504.871582,4380.641113,4443.205078,2905.0,1.0,15.0,,,,0.0,4.0,4.0,4.0,4.0,4.0,4.0,4.0,4.0,4.0,4.0,4.0,4.0,4.0,4.0,100.0,,,,,,,,,,,,,,,,,,,,,,,,,,,,,,,,,,,,,,,,,,,,,,,,,,,,,,,,,,,,,,,,,,,,,,,,,,,,,,,,,,,,,,,,,,,,,,,,,,,,,,,,,,,,,,,,,,,,,,,,,,,,,,,,,,,
1725710427.153748,1725710427.154933,239.0,0.0,4260.128418,4260.641113,4366.282227,4325.256348,4213.974121,4252.179688,3877.820557,4218.974121,4238.077148,4195.384766,4534.230957,4506.282227,4381.794922,4444.871582,3149.0,1.0,15.0,,,,0.0,4.0,4.0,4.0,4.0,4.0,4.0,4.0,4.0,4.0,4.0,4.0,4.0,4.0,4.0,100.0,,,,,,,,,,,,,,,,,,,,,,,,,,,,,,,,,,,,,,,,,,,,,,,,,,,,,,,,,,,,,,,,,,,,,,,,,,,,,,,,,,,,,,,,,,,,,,,,,,,,,,,,,,,,,,,,,,,,,,,,,,,,,,,,,,,
1725710427.157653,1725710427.158837,240.0,0.0,4261.282227,4259.358887,4367.692383,4327.05127,4213.974121,4257.307617,3877.179443,4219.487305,4243.717773,4197.563965,4540.128418,4507.692383,4382.820313,4446.794922,3436.0,1.0,15.0,,,,0.0,4.0,4.0,4.0,4.0,4.0,4.0,4.0,4.0,4.0,4.0,4.0,4.0,4.0,4.0,100.0,,,,,,,,,,,,,,,,,1.0,0.0,0.0,,,,,,,,,,,,,,,,,,,,,,,,,,,,,,,,,,,,,0.0,0.0,1.0,0.0,2048.0,0.006399,1.426717,0.974367,0.25348,0.128445,0.045134,0.540451,0.476775,0.260398,0.162707,0.109789,1.789284,0.668342,0.115682,0.063644,0.060716,0.519088,0.649913,0.293634,0.173623,0.125067,0.271096,0.159957,0.142465,0.114173,0.101792,0.118701,0.268291,0.118837,0.046632,0.028159,1.487439,0.436038,0.242371,0.148571,0.066522,0.582952,1.421234,0.307292,0.209747,0.122088,0.644865,0.646252,0.250568,0.259052,0.163739,1.167215,0.636401,0.154353,0.216668,0.164207,3.597798,2.019028,0.769676,1.041465,0.600125,3.41571,2.852554,0.683869,0.277256,0.114932,2.915039,1.662354,0.962566,0.629841,0.314261,3.500629,1.606474,0.439232,0.243509,0.12294
1725710427.161557,1725710427.162642,241.0,0.0,4262.307617,4258.461426,4368.589844,4330.384766,4214.102539,4262.05127,3874.743652,4219.358887,4246.922852,4201.282227,4549.230957,4507.692383,4382.179688,4448.077148,3941.0,1.0,15.0,,,,0.0,4.0,4.0,4.0,4.0,4.0,4.0,4.0,4.0,4.0,4.0,4.0,4.0,4.0,4.0,100.0,,,,,,,,,,,,,,,,,,,,,,,,,,,,,,,,,,,,,,,,,,,,,,,,,,,,,,,,,,,,,,,,,,,,,,,,,,,,,,,,,,,,,,,,,,,,,,,,,,,,,,,,,,,,,,,,,,,,,,,,,,,,,,,,,,,
1725710427.165461,1725710427.166546,242.0,0.0,4263.077148,4258.846191,4368.846191,4332.563965,4214.102539,4264.358887,3872.564209,4218.717773,4246.282227,4204.487305,4556.794922,4506.794922,4380.897461,4448.077148,2905.0,1.0,15.0,,,,0.0,4.0,4.0,4.0,4.0,4.0,4.0,4.0,4.0,4.0,4.0,4.0,4.0,4.0,4.0,100.0,,,,,,,,,,,,,,,,,,,,,,,,,,,,,,,,,,,,,,,,,,,,,,,,,,,,,,,,,,,,,,,,,,,,,,,,,,,,,,,,,,,,,,,,,,,,,,,,,,,,,,,,,,,,,,,,,,,,,,,,,,,,,,,,,,,
1725710427.169365,1725710427.17045,243.0,0.0,4263.717773,4260.897461,4368.589844,4331.538574,4214.230957,4263.589844,3872.05127,4217.820313,4243.461426,4206.153809,4558.717773,4506.538574,4381.922852,4447.307617,3149.0,1.0,15.0,,,,0.0,4.0,4.0,4.0,4.0,4.0,4.0,4.0,4.0,4.0,4.0,4.0,4.0,4.0,4.0,100.0,,,,,,,,,,,,,,,,,,,,,,,,,,,,,,,,,,,,,,,,,,,,,,,,,,,,,,,,,,,,,,,,,,,,,,,,,,,,,,,,,,,,,,,,,,,,,,,,,,,,,,,,,,,,,,,,,,,,,,,,,,,,,,,,,,,
1725710427.173269,1725710427.174354,244.0,0.0,4264.102539,4263.717773,4368.461426,4328.717773,4214.487305,4261.410156,3873.333252,4217.179688,4241.282227,4206.025879,4554.615234,4509.102539,4387.307617,4446.794922,3436.0,1.0,15.0,,,,0.0,4.0,4.0,4.0,4.0,4.0,4.0,4.0,4.0,4.0,4.0,4.0,4.0,4.0,4.0,100.0,,,,,,,,,,,,,,,,,,,,,,,,,,,,,,,,,,,,,,,,,,,,,,,,,,,,,,,,,,,,,,,,,,,,,,,,,,,,,,,,,,,,,,,,,,,,,,,,,,,,,,,,,,,,,,,,,,,,,,,,,,,,,,,,,,,
1725710427.177173,1725710427.178158,245.0,0.0,4264.102539,4266.282227,4368.461426,4327.179688,4214.615234,4260.128418,3875.384521,4217.05127,4241.538574,4205.128418,4547.05127,4513.974121,4394.743652,4447.05127,3941.0,1.0,15.0,,,,0.0,4.0,4.0,4.0,4.0,4.0,4.0,4.0,4.0,4.0,4.0,4.0,4.0,4.0,4.0,100.0,,,,,,,,,,,,,,,,,,,,,,,,,,,,,,,,,,,,,,,,,,,,,,,,,,,,,,,,,,,,,,,,,,,,,,,,,,,,,,,,,,,,,,,,,,,,,,,,,,,,,,,,,,,,,,,,,,,,,,,,,,,,,,,,,,,
1725710427.181077,1725710427.182062,246.0,0.0,4263.846191,4267.179688,4368.077148,4328.461426,4214.487305,4260.897461,3877.179443,4217.179688,4243.205078,4204.743652,4539.487305,4518.205078,4399.230957,4447.307617,2905.0,1.0,15.0,,,,0.0,4.0,4.0,4.0,4.0,4.0,4.0,4.0,4.0,4.0,4.0,4.0,4.0,4.0,4.0,100.0,,,,,,,,,,,,,,,,,,,,,,,,,,,,,,,,,,,,,,,,,,,,,,,,,,,,,,,,,,,,,,,,,,,,,,,,,,,,,,,,,,,,,,,,,,,,,,,,,,,,,,,,,,,,,,,,,,,,,,,,,,,,,,,,,,,
1725710427.184981,1725710427.185966,247.0,0.0,4263.589844,4265.897461,4367.179688,4331.282227,4214.102539,4262.692383,3877.94873,4217.436035,4243.974121,4204.487305,4534.871582,4518.717773,4396.538574,4446.922852,3149.0,1.0,15.0,,,,0.0,4.0,4.0,4.0,4.0,4.0,4.0,4.0,4.0,4.0,4.0,4.0,4.0,4.0,4.0,100.0,,,,,,,,,,,,,,,,,,,,,,,,,,,,,,,,,,,,,,,,,,,,,,,,,,,,,,,,,,,,,,,,,,,,,,,,,,,,,,,,,,,,,,,,,,,,,,,,,,,,,,,,,,,,,,,,,,,,,,,,,,,,,,,,,,,
1725710427.188885,1725710427.18987,248.0,0.0,4263.846191,4263.461426,4366.282227,4333.205078,4213.846191,4263.717773,3878.076904,4217.692383,4242.179688,4203.974121,4533.717773,4514.871582,4387.820313,4446.025879,3436.0,1.0,15.0,,,,0.0,4.0,4.0,4.0,4.0,4.0,4.0,4.0,4.0,4.0,4.0,4.0,4.0,4.0,4.0,100.0,,,,,,,,,,,,,,,,,,,,,,,,,,,,,,,,,,,,,,,,,,,,,,,,,,,,,,,,0.0,0.0,1.0,0.0,2048.0,0.006399,,,,,,,,,,,,,,,,,,,,,,,,,,,,,,,,,,,,,,,,,,,,,,,,,,,,,,,,,,,,,,,,,,,,,,
1725710427.192789,1725710427.193675,249.0,0.0,4264.487305,4261.538574,4366.153809,4333.077148,4214.102539,4263.717773,3878.333252,4217.94873,4238.717773,4202.692383,4535.641113,4509.358887,4378.846191,4445.256348,3941.0,1.0,15.0,,,,0.0,4.0,4.0,4.0,4.0,4.0,4.0,4.0,4.0,4.0,4.0,4.0,4.0,4.0,4.0,100.0,,,,,,,,,,,,,,,,,,,,,,,,,,,,,,,,,,,,,,,,,,,,,,,,,,,,,,,,,,,,,,,,,,,,,,,,,,,,,,,,,,,,,,,,,,,,,,,,,,,,,,,,,,,,,,,,,,,,,,,,,,,,,,,,,,,
1725710427.196694,1725710427.197579,250.0,0.0,4265.128418,4260.769043,4366.666504,4331.410156,4214.871582,4263.205078,3878.974365,4218.077148,4235.769043,4201.410156,4538.717773,4505.641113,4375.897461,4445.0,2905.0,1.0,15.0,,,,0.0,4.0,4.0,4.0,4.0,4.0,4.0,4.0,4.0,4.0,4.0,4.0,4.0,4.0,4.0,100.0,,,,,,,,,,,,,,,,,,,,,,,,,,,,,,,,,,,,,,,,,,,,,,,,,,,,,,,,,,,,,,,,,,,,,,,,,,,,,,,,,,,,,,,,,,,,,,,,,,,,,,,,,,,,,,,,,,,,,,,,,,,,,,,,,,,
1725710427.200598,1725710427.201483,251.0,0.0,4265.128418,4260.769043,4367.307617,4329.871582,4215.384766,4263.077148,3879.487061,4217.94873,4234.743652,4201.282227,4540.641113,4505.384766,4380.512695,4445.384766,3149.0,1.0,15.0,,,,0.0,4.0,4.0,4.0,4.0,4.0,4.0,4.0,4.0,4.0,4.0,4.0,4.0,4.0,4.0,100.0,,,,,,,,,,,,,,,,,,,,,,,,,,,,,,,,,,,,,,,,,,,,,,,,,,,,,,,,,,,,,,,,,,,,,,,,,,,,,,,,,,,,,,,,,,,,,,,,,,,,,,,,,,,,,,,,,,,,,,,,,,,,,,,,,,,
1725710427.204502,1725710427.205487,252.0,0.0,4264.230957,4260.897461,4366.922852,4329.615234,4214.487305,4263.077148,3879.358887,4217.692383,4235.0,4202.563965,4540.0,4507.179688,4388.846191,4445.769043,3436.0,1.0,15.0,,,,0.0,4.0,4.0,4.0,4.0,4.0,4.0,4.0,4.0,4.0,4.0,4.0,4.0,4.0,4.0,100.0,,,,,,,,,,,,,,,,,,,,,,,,,,,,,,,,,,,,,,,,,,,,,,,,,,,,,,,,,,,,,,,,,,,,,,,,,,,,,,,,,,,,,,,,,,,,,,,,,,,,,,,,,,,,,,,,,,,,,,,,,,,,,,,,,,,
1725710427.208406,1725710427.209391,253.0,0.0,4262.436035,4260.641113,4365.128418,4330.384766,4211.794922,4262.436035,3878.718018,4217.179688,4235.0,4204.230957,4538.077148,4508.589844,4395.256348,4445.769043,3941.0,1.0,15.0,,,,0.0,4.0,4.0,4.0,4.0,4.0,4.0,4.0,4.0,4.0,4.0,4.0,4.0,4.0,4.0,100.0,,,,,,,,,,,,,,,,,,,,,,,,,,,,,,,,,,,,,,,,,,,,,,,,,,,,,,,,,,,,,,,,,,,,,,,,,,,,,,,,,,,,,,,,,,,,,,,,,,,,,,,,,,,,,,,,,,,,,,,,,,,,,,,,,,,
1725710427.21231,1725710427.213295,254.0,0.0,4260.512695,4260.512695,4362.436035,4331.538574,4208.461426,4260.384766,3878.333252,4216.538574,4233.974121,4204.743652,4537.307617,4508.205078,4396.410156,4445.769043,2905.0,1.0,15.0,,,,0.0,4.0,4.0,4.0,4.0,4.0,4.0,4.0,4.0,4.0,4.0,4.0,4.0,4.0,4.0,100.0,,,,,,,,,,,,,,,,,,,,,,,,,,,,,,,,,,,,,,,,,,,,,,,,,,,,,,,,,,,,,,,,,,,,,,,,,,,,,,,,,,,,,,,,,,,,,,,,,,,,,,,,,,,,,,,,,,,,,,,,,,,,,,,,,,,
1725710427.216214,1725710427.217199,255.0,0.0,4260.0,4261.025879,4360.0,4331.538574,4205.641113,4256.794922,3878.333252,4216.282227,4233.974121,4203.333496,4539.487305,4506.282227,4393.589844,4446.025879,15.0,1.0,15.0,,,,0.0,4.0,4.0,4.0,4.0,4.0,4.0,4.0,4.0,4.0,4.0,4.0,4.0,4.0,4.0,100.0,,,,,,,,,,,,,,,,,,,,,,,,,,,,,,,,,,,,,,,,,,,,,,,,,,,,,,,,,,,,,,,,,,,,,,,,,,,,,,,,,,,,,,,,,,,,,,,,,,,,,,,,,,,,,,,,,,,,,,,,,,,,,,,,,,,
1725710427.220118,1725710427.221203,0.0,0.0,4261.666504,4261.794922,4358.461426,4329.743652,4204.230957,4252.692383,3877.94873,4216.538574,4237.179688,4201.025879,4544.230957,4505.256348,4390.256348,4447.179688,2712.0,1.0,15.0,,,,0.0,4.0,4.0,4.0,4.0,4.0,4.0,4.0,4.0,4.0,4.0,4.0,4.0,4.0,4.0,100.0,,,,,,,,,,,,,,,,,,,,,,,,,,,,,,,,,,,,,,,,,,,,,,,,,,,,,,,,0.0,0.0,1.0,0.0,2048.0,0.006399,,,,,,,,,,,,,,,,,,,,,,,,,,,,,,,,,,,,,,,,,,,,,,,,,,,,,,,,,,,,,,,,,,,,,,
1725710427.224022,1725710427.225107,1.0,0.0,4264.487305,4261.666504,4357.94873,4326.922852,4204.230957,4249.487305,3877.307617,4217.179688,4243.077148,4199.615234,4548.717773,4506.794922,4389.102539,4448.846191,2583.0,1.0,15.0,,,,0.0,4.0,4.0,4.0,4.0,4.0,4.0,4.0,4.0,4.0,4.0,4.0,4.0,4.0,4.0,100.0,,,,,,,,,,,,,,,,,,,,,,,,,,,,,,,,,,,,,,,,,,,,,,,,,,,,,,,,,,,,,,,,,,,,,,,,,,,,,,,,,,,,,,,,,,,,,,,,,,,,,,,,,,,,,,,,,,,,,,,,,,,,,,,,,,,
1725710427.227926,1725710427.229011,2.0,0.0,4265.769043,4259.358887,4357.94873,4324.615234,4204.615234,4248.589844,3876.923096,4218.077148,4248.077148,4200.256348,4550.512695,4509.871582,4389.487305,4450.128418,2510.0,1.0,15.0,,,,0.0,4.0,4.0,4.0,4.0,4.0,4.0,4.0,4.0,4.0,4.0,4.0,4.0,4.0,4.0,100.0,,,,,,,,,,,,,,,,,,,,,,,,,,,,,,,,,,,,,,,,,,,,,,,,,,,,,,,,,,,,,,,,,,,,,,,,,,,,,,,,,,,,,,,,,,,,,,,,,,,,,,,,,,,,,,,,,,,,,,,,,,,,,,,,,,,
1725710427.23183,1725710427.233015,3.0,0.0,4263.333496,4255.0,4357.820313,4324.230957,4204.230957,4249.871582,3877.820557,4218.333496,4248.205078,4202.05127,4548.461426,4511.410156,4388.846191,4449.743652,2478.0,1.0,15.0,,,,0.0,4.0,4.0,4.0,4.0,4.0,4.0,4.0,4.0,4.0,4.0,4.0,4.0,4.0,4.0,100.0,,,,,,,,,,,,,,,,,,,,,,,,,,,,,,,,,,,,,,,,,,,,,,,,,,,,,,,,,,,,,,,,,,,,,,,,,,,,,,,,,,,,,,,,,,,,,,,,,,,,,,,,,,,,,,,,,,,,,,,,,,,,,,,,,,,
1725710427.235735,1725710427.236919,4.0,0.0,4257.563965,4250.384766,4356.922852,4325.256348,4202.94873,4251.666504,3880.512939,4217.820313,4243.077148,4203.461426,4543.589844,4508.846191,4385.769043,4447.307617,2446.0,1.0,15.0,,,,0.0,4.0,4.0,4.0,4.0,4.0,4.0,4.0,4.0,4.0,4.0,4.0,4.0,4.0,4.0,100.0,,,,,,,,,,,,,,,,,,,,,,,,,,,,,,,,,,,,,,,,,,,,,,,,,,,,,,,,,,,,,,,,,,,,,,,,,,,,,,,,,,,,,,,,,,,,,,,,,,,,,,,,,,,,,,,,,,,,,,,,,,,,,,,,,,,
1725710427.239639,1725710427.240824,5.0,0.0,4251.794922,4247.179688,4355.0,4326.025879,4201.282227,4252.05127,3884.615479,4216.794922,4236.538574,4203.589844,4538.589844,4503.205078,4381.538574,4443.589844,2408.0,1.0,15.0,,,,0.0,4.0,4.0,4.0,4.0,4.0,4.0,4.0,4.0,4.0,4.0,4.0,4.0,4.0,4.0,100.0,,,,,,,,,,,,,,,,,,,,,,,,,,,,,,,,,,,,,,,,,,,,,,,,,,,,,,,,,,,,,,,,,,,,,,,,,,,,,,,,,,,,,,,,,,,,,,,,,,,,,,,,,,,,,,,,,,,,,,,,,,,,,,,,,,,
1725710427.243543,1725710427.244828,6.0,0.0,4248.974121,4246.410156,4352.820313,4325.897461,4200.256348,4250.769043,3889.358887,4215.384766,4233.717773,4202.820313,4535.897461,4498.589844,4378.974121,4440.384766,2458.0,1.0,15.0,,,,0.0,4.0,4.0,4.0,4.0,4.0,4.0,4.0,4.0,4.0,4.0,4.0,4.0,4.0,4.0,100.0,,,,,,,,,,,,,,,,,,,,,,,,,,,,,,,,,,,,,,,,,,,,,,,,,,,,,,,,,,,,,,,,,,,,,,,,,,,,,,,,,,,,,,,,,,,,,,,,,,,,,,,,,,,,,,,,,,,,,,,,,,,,,,,,,,,
1725710427.247447,1725710427.248732,7.0,0.0,4250.0,4247.307617,4351.410156,4325.384766,4200.128418,4249.230957,3893.846191,4214.487305,4236.794922,4202.05127,4535.897461,4498.333496,4379.487305,4439.487305,2498.0,1.0,15.0,,,,0.0,4.0,4.0,4.0,4.0,4.0,4.0,4.0,4.0,4.0,4.0,4.0,4.0,4.0,4.0,100.0,,,,,,,,,,,,,,,,,,,,,,,,,,,,,,,,,,,,,,,,,,,,,,,,,,,,,,,,,,,,,,,,,,,,,,,,,,,,,,,,,,,,,,,,,,,,,,,,,,,,,,,,,,,,,,,,,,,,,,,,,,,,,,,,,,,
1725710427.251351,1725710427.252636,8.0,0.0,4252.820313,4248.717773,4351.410156,4325.256348,4200.769043,4249.102539,3898.205078,4214.871582,4242.94873,4201.922852,4537.179688,4502.05127,4382.05127,4441.282227,2478.0,1.0,15.0,,,,0.0,4.0,4.0,4.0,4.0,4.0,4.0,4.0,4.0,4.0,4.0,4.0,4.0,4.0,4.0,100.0,,,,,,,,,,,,,,,,,,,,,,,,,,,,,,,,,,,,,,,,,,,,,,,,,,,,,,,,0.0,0.0,1.0,0.0,2048.0,0.006399,,,,,,,,,,,,,,,,,,,,,,,,,,,,,,,,,,,,,,,,,,,,,,,,,,,,,,,,,,,,,,,,,,,,,,
1725710427.255255,1725710427.25654,9.0,0.0,4254.871582,4249.487305,4351.922852,4325.641113,4201.794922,4251.282227,3902.820557,4216.538574,4246.922852,4202.307617,4537.179688,4506.666504,4383.974121,4444.230957,2566.0,1.0,15.0,,,,0.0,4.0,4.0,4.0,4.0,4.0,4.0,4.0,4.0,4.0,4.0,4.0,4.0,4.0,4.0,100.0,,,,,,,,,,,,,,,,,,,,,,,,,,,,,,,,,,,,,,,,,,,,,,,,,,,,,,,,,,,,,,,,,,,,,,,,,,,,,,,,,,,,,,,,,,,,,,,,,,,,,,,,,,,,,,,,,,,,,,,,,,,,,,,,,,,
1725710427.259159,1725710427.260444,10.0,0.0,4254.358887,4249.615234,4351.794922,4325.769043,4202.820313,4254.487305,3907.179443,4218.333496,4244.871582,4202.05127,4535.512695,4508.077148,4383.077148,4445.897461,2909.0,1.0,15.0,,,,0.0,4.0,4.0,4.0,4.0,4.0,4.0,4.0,4.0,4.0,4.0,4.0,4.0,4.0,4.0,100.0,,,,,,,,,,,,,,,,,,,,,,,,,,,,,,,,,,,,,,,,,,,,,,,,,,,,,,,,,,,,,,,,,,,,,,,,,,,,,,,,,,,,,,,,,,,,,,,,,,,,,,,,,,,,,,,,,,,,,,,,,,,,,,,,,,,
1725710427.263063,1725710427.264348,11.0,0.0,4251.922852,4249.358887,4350.384766,4325.512695,4203.333496,4256.666504,3909.871826,4218.461426,4237.820313,4200.641113,4533.461426,4504.358887,4380.384766,4444.358887,3149.0,1.0,15.0,,,,0.0,4.0,4.0,4.0,4.0,4.0,4.0,4.0,4.0,4.0,4.0,4.0,4.0,4.0,4.0,100.0,,,,,,,,,,,,,,,,,,,,,,,,,,,,,,,,,,,,,,,,,,,,,,,,,,,,,,,,,,,,,,,,,,,,,,,,,,,,,,,,,,,,,,,,,,,,,,,,,,,,,,,,,,,,,,,,,,,,,,,,,,,,,,,,,,,
1725710427.266967,1725710427.268152,12.0,0.0,4249.487305,4249.230957,4347.94873,4325.384766,4203.077148,4256.153809,3910.128174,4216.025879,4230.512695,4198.461426,4532.820313,4497.179688,4378.461426,4440.256348,3430.0,1.0,15.0,,,,0.0,4.0,4.0,4.0,4.0,4.0,4.0,4.0,4.0,4.0,4.0,4.0,4.0,4.0,4.0,100.0,,,,,,,,,,,,,,,,,,,,,,,,,,,,,,,,,,,,,,,,,,,,,,,,,,,,,,,,,,,,,,,,,,,,,,,,,,,,,,,,,,,,,,,,,,,,,,,,,,,,,,,,,,,,,,,,,,,,,,,,,,,,,,,,,,,
1725710427.270871,1725710427.272056,13.0,0.0,4248.846191,4249.487305,4345.512695,4326.153809,4202.692383,4253.333496,3908.974365,4211.282227,4227.307617,4196.666504,4533.205078,4489.615234,4379.102539,4436.153809,3937.0,1.0,15.0,,,,0.0,4.0,4.0,4.0,4.0,4.0,4.0,4.0,4.0,4.0,4.0,4.0,4.0,4.0,4.0,100.0,,,,,,,,,,,,,,,,,,,,,,,,,,,,,,,,,,,,,,,,,,,,,,,,,,,,,,,,,,,,,,,,,,,,,,,,,,,,,,,,,,,,,,,,,,,,,,,,,,,,,,,,,,,,,,,,,,,,,,,,,,,,,,,,,,,
1725710427.274775,1725710427.27596,14.0,0.0,4250.128418,4250.0,4343.589844,4327.436035,4202.94873,4250.128418,3908.846191,4205.769043,4228.846191,4196.025879,4532.563965,4485.384766,4381.538574,4434.358887,2909.0,1.0,15.0,,,,0.0,4.0,4.0,4.0,4.0,4.0,4.0,4.0,4.0,4.0,4.0,4.0,4.0,4.0,4.0,100.0,,,,,,,,,,,,,,,,,,,,,,,,,,,,,,,,,,,,,,,,,,,,,,,,,,,,,,,,,,,,,,,,,,,,,,,,,,,,,,,,,,,,,,,,,,,,,,,,,,,,,,,,,,,,,,,,,,,,,,,,,,,,,,,,,,,
1725710427.278679,1725710427.279865,15.0,0.0,4251.794922,4250.512695,4342.436035,4328.077148,4204.358887,4248.846191,3911.538574,4201.666504,4232.05127,4196.794922,4529.358887,4485.641113,4383.461426,4435.641113,3149.0,1.0,15.0,,,,0.0,4.0,4.0,4.0,4.0,4.0,4.0,4.0,4.0,4.0,4.0,4.0,4.0,4.0,4.0,100.0,,,,,,,,,,,,,,,,,,,,,,,,,,,,,,,,,,,,,,,,,,,,,,,,,,,,,,,,,,,,,,,,,,,,,,,,,,,,,,,,,,,,,,,,,,,,,,,,,,,,,,,,,,,,,,,,,,,,,,,,,,,,,,,,,,,
1725710427.282584,1725710427.283669,16.0,0.0,4252.307617,4251.025879,4341.666504,4327.820313,4206.153809,4250.769043,3916.666748,4199.743652,4233.077148,4197.563965,4524.358887,4488.717773,4383.461426,4438.717773,3430.0,1.0,15.0,,,,0.0,4.0,4.0,4.0,4.0,4.0,4.0,4.0,4.0,4.0,4.0,4.0,4.0,4.0,4.0,100.0,1.0,25.0,4.0,4.0,1.0,4.0,4.0,1.0,1.0,4.0,4.0,4.0,4.0,4.0,4.0,4.0,1.0,0.0,0.0,,,,,,,,,,,,,,,,,,,,,,,,,,,,,,,,,,,,,0.0,0.0,1.0,0.0,2048.0,0.016179,1.364835,1.097644,0.227555,0.121737,0.039329,0.624276,0.441946,0.234032,0.189671,0.105524,1.738796,0.786265,0.142406,0.066213,0.056491,0.561249,0.765283,0.28415,0.135785,0.124624,0.268447,0.190007,0.115798,0.112484,0.097949,0.163421,0.318191,0.124296,0.05495,0.024901,1.741728,0.443976,0.186938,0.121462,0.068295,0.5331,1.422938,0.345283,0.209587,0.111697,0.57626,0.74362,0.286966,0.27104,0.163268,0.976196,0.67403,0.157677,0.223555,0.152233,3.586416,2.401673,0.69821,1.110642,0.601453,3.27701,3.186932,0.658757,0.268332,0.123753,2.702486,1.854724,1.116868,0.558622,0.299895,3.221833,1.803236,0.475368,0.260141,0.126616
1725710427.286488,1725710427.287573,17.0,0.0,4251.282227,4251.538574,4341.538574,4326.922852,4207.179688,4255.256348,3922.179443,4199.615234,4230.641113,4197.179688,4520.897461,4491.282227,4381.922852,4441.282227,3937.0,1.0,15.0,,,,0.0,4.0,4.0,4.0,4.0,4.0,4.0,4.0,4.0,4.0,4.0,4.0,4.0,4.0,4.0,100.0,,,,,,,,,,,,,,,,,,,,,,,,,,,,,,,,,,,,,,,,,,,,,,,,,,,,,,,,,,,,,,,,,,,,,,,,,,,,,,,,,,,,,,,,,,,,,,,,,,,,,,,,,,,,,,,,,,,,,,,,,,,,,,,,,,,
1725710427.290392,1725710427.291477,18.0,0.0,4250.128418,4251.794922,4341.410156,4325.897461,4207.05127,4259.743652,3926.538574,4200.256348,4227.179688,4196.025879,4522.436035,4491.282227,4380.512695,4441.922852,2909.0,1.0,15.0,,,,0.0,4.0,4.0,4.0,4.0,4.0,4.0,4.0,4.0,4.0,4.0,4.0,4.0,4.0,4.0,100.0,,,,,,,,,,,,,,,,,,,,,,,,,,,,,,,,,,,,,,,,,,,,,,,,,,,,,,,,,,,,,,,,,,,,,,,,,,,,,,,,,,,,,,,,,,,,,,,,,,,,,,,,,,,,,,,,,,,,,,,,,,,,,,,,,,,
1725710427.294296,1725710427.295381,19.0,0.0,4250.0,4251.282227,4341.410156,4325.128418,4206.282227,4262.307617,3929.871826,4201.282227,4226.666504,4195.769043,4529.358887,4489.487305,4380.769043,4441.282227,3149.0,1.0,15.0,,,,0.0,4.0,4.0,4.0,4.0,4.0,4.0,4.0,4.0,4.0,4.0,4.0,4.0,4.0,4.0,100.0,,,,,,,,,,,,,,,,,,,,,,,,,,,,,,,,,,,,,,,,,,,,,,,,,,,,,,,,,,,,,,,,,,,,,,,,,,,,,,,,,,,,,,,,,,,,,,,,,,,,,,,,,,,,,,,,,,,,,,,,,,,,,,,,,,,
1725710427.2982,1725710427.299185,20.0,0.0,4250.641113,4250.512695,4341.538574,4324.615234,4206.153809,4262.820313,3933.333252,4203.205078,4230.897461,4198.461426,4538.205078,4488.846191,4382.307617,4440.769043,3430.0,1.0,15.0,,,,0.0,4.0,4.0,4.0,4.0,4.0,4.0,4.0,4.0,4.0,4.0,4.0,4.0,4.0,4.0,100.0,,,,,,,,,,,,,,,,,,,,,,,,,,,,,,,,,,,,,,,,,,,,,,,,,,,,,,,,,,,,,,,,,,,,,,,,,,,,,,,,,,,,,,,,,,,,,,,,,,,,,,,,,,,,,,,,,,,,,,,,,,,,,,,,,,,
1725710427.302104,1725710427.303089,21.0,0.0,4251.025879,4250.0,4341.922852,4325.0,4207.179688,4262.307617,3937.94873,4206.410156,4238.589844,4203.974121,4543.846191,4491.410156,4383.717773,4441.538574,3937.0,1.0,15.0,,,,0.0,4.0,4.0,4.0,4.0,4.0,4.0,4.0,4.0,4.0,4.0,4.0,4.0,4.0,4.0,100.0,,,,,,,,,,,,,,,,,,,,,,,,,,,,,,,,,,,,,,,,,,,,,,,,,,,,,,,,,,,,,,,,,,,,,,,,,,,,,,,,,,,,,,,,,,,,,,,,,,,,,,,,,,,,,,,,,,,,,,,,,,,,,,,,,,,
1725710427.306008,1725710427.306994,22.0,0.0,4250.384766,4250.128418,4342.820313,4326.025879,4208.974121,4261.794922,3942.820557,4210.384766,4246.153809,4210.512695,4542.94873,4496.794922,4383.717773,4443.717773,2909.0,1.0,15.0,,,,0.0,4.0,4.0,4.0,4.0,4.0,4.0,4.0,4.0,4.0,4.0,4.0,4.0,4.0,4.0,100.0,,,,,,,,,,,,,,,,,,,,,,,,,,,,,,,,,,,,,,,,,,,,,,,,,,,,,,,,,,,,,,,,,,,,,,,,,,,,,,,,,,,,,,,,,,,,,,,,,,,,,,,,,,,,,,,,,,,,,,,,,,,,,,,,,,,
1725710427.309912,1725710427.310998,23.0,0.0,4249.871582,4250.256348,4343.461426,4327.05127,4210.0,4260.512695,3945.897461,4214.487305,4251.025879,4215.769043,4536.794922,4502.692383,4382.563965,4446.666504,3149.0,1.0,15.0,,,,0.0,4.0,4.0,4.0,4.0,4.0,4.0,4.0,4.0,4.0,4.0,4.0,4.0,4.0,4.0,100.0,,,,,,,,,,,,,,,,,,,,,,,,,,,,,,,,,,,,,,,,,,,,,,,,,,,,,,,,,,,,,,,,,,,,,,,,,,,,,,,,,,,,,,,,,,,,,,,,,,,,,,,,,,,,,,,,,,,,,,,,,,,,,,,,,,,
1725710427.313816,1725710427.314902,24.0,0.0,4251.025879,4250.0,4343.589844,4326.538574,4208.846191,4257.692383,3946.153809,4217.563965,4252.307617,4218.205078,4530.512695,4506.794922,4381.538574,4449.102539,3430.0,1.0,15.0,,,,0.0,4.0,4.0,4.0,4.0,4.0,4.0,4.0,4.0,4.0,4.0,4.0,4.0,4.0,4.0,100.0,,,,,,,,,,,,,,,,,,,,,,,,,,,,,,,,,,,,,,,,,,,,,,,,,,,,,,,,0.0,0.0,1.0,0.0,2048.0,0.016179,,,,,,,,,,,,,,,,,,,,,,,,,,,,,,,,,,,,,,,,,,,,,,,,,,,,,,,,,,,,,,,,,,,,,,
1725710427.317721,1725710427.318806,25.0,0.0,4254.230957,4249.102539,4343.205078,4323.974121,4205.769043,4254.230957,3944.871826,4218.974121,4251.282227,4217.563965,4528.846191,4508.461426,4381.794922,4450.0,3937.0,1.0,15.0,,,,0.0,4.0,4.0,4.0,4.0,4.0,4.0,4.0,4.0,4.0,4.0,4.0,4.0,4.0,4.0,100.0,,,,,,,,,,,,,,,,,,,,,,,,,,,,,,,,,,,,,,,,,,,,,,,,,,,,,,,,,,,,,,,,,,,,,,,,,,,,,,,,,,,,,,,,,,,,,,,,,,,,,,,,,,,,,,,,,,,,,,,,,,,,,,,,,,,
1725710427.321625,1725710427.32281,26.0,0.0,4257.94873,4248.205078,4342.94873,4320.0,4202.436035,4251.922852,3944.871826,4218.717773,4249.487305,4215.128418,4532.05127,4507.94873,4382.436035,4448.846191,2909.0,1.0,15.0,,,,0.0,4.0,4.0,4.0,4.0,4.0,4.0,4.0,4.0,4.0,4.0,4.0,4.0,4.0,4.0,100.0,,,,,,,,,,,,,,,,,,,,,,,,,,,,,,,,,,,,,,,,,,,,,,,,,,,,,,,,,,,,,,,,,,,,,,,,,,,,,,,,,,,,,,,,,,,,,,,,,,,,,,,,,,,,,,,,,,,,,,,,,,,,,,,,,,,
1725710427.325529,1725710427.326714,27.0,0.0,4260.769043,4247.820313,4343.205078,4316.794922,4200.897461,4252.436035,3947.307617,4217.179688,4248.461426,4212.820313,4536.666504,4506.025879,4381.794922,4446.538574,3149.0,1.0,15.0,,,,0.0,4.0,4.0,4.0,4.0,4.0,4.0,4.0,4.0,4.0,4.0,4.0,4.0,4.0,4.0,100.0,,,,,,,,,,,,,,,,,,,,,,,,,,,,,,,,,,,,,,,,,,,,,,,,,,,,,,,,,,,,,,,,,,,,,,,,,,,,,,,,,,,,,,,,,,,,,,,,,,,,,,,,,,,,,,,,,,,,,,,,,,,,,,,,,,,
1725710427.329433,1725710427.330618,28.0,0.0,4261.922852,4248.205078,4343.461426,4316.153809,4201.794922,4255.128418,3951.281982,4215.897461,4248.717773,4212.179688,4538.846191,4504.358887,4379.358887,4444.358887,3430.0,1.0,15.0,,,,0.0,4.0,4.0,4.0,4.0,4.0,4.0,4.0,4.0,4.0,4.0,4.0,4.0,4.0,4.0,100.0,,,,,,,,,,,,,,,,,,,,,,,,,,,,,,,,,,,,,,,,,,,,,,,,,,,,,,,,,,,,,,,,,,,,,,,,,,,,,,,,,,,,,,,,,,,,,,,,,,,,,,,,,,,,,,,,,,,,,,,,,,,,,,,,,,,
1725710427.333337,1725710427.334522,29.0,0.0,4262.05127,4249.358887,4343.333496,4318.589844,4203.974121,4258.077148,3954.615479,4216.153809,4249.487305,4213.461426,4537.94873,4504.230957,4376.025879,4443.717773,3937.0,1.0,15.0,,,,0.0,4.0,4.0,4.0,4.0,4.0,4.0,4.0,4.0,4.0,4.0,4.0,4.0,4.0,4.0,100.0,,,,,,,,,,,,,,,,,,,,,,,,,,,,,,,,,,,,,,,,,,,,,,,,,,,,,,,,,,,,,,,,,,,,,,,,,,,,,,,,,,,,,,,,,,,,,,,,,,,,,,,,,,,,,,,,,,,,,,,,,,,,,,,,,,,
1725710427.337241,1725710427.338526,30.0,0.0,4262.563965,4250.128418,4343.077148,4322.94873,4205.256348,4259.230957,3955.897461,4218.333496,4250.128418,4215.0,4536.666504,4506.538574,4374.102539,4444.871582,2909.0,1.0,15.0,,,,0.0,4.0,4.0,4.0,4.0,4.0,4.0,4.0,4.0,4.0,4.0,4.0,4.0,4.0,4.0,100.0,,,,,,,,,,,,,,,,,,,,,,,,,,,,,,,,,,,,,,,,,,,,,,,,,,,,,,,,,,,,,,,,,,,,,,,,,,,,,,,,,,,,,,,,,,,,,,,,,,,,,,,,,,,,,,,,,,,,,,,,,,,,,,,,,,,
1725710427.341145,1725710427.34243,31.0,0.0,4263.717773,4249.871582,4343.077148,4326.922852,4204.230957,4258.077148,3955.641113,4221.666504,4250.769043,4215.128418,4537.179688,4509.487305,4374.487305,4447.05127,3149.0,1.0,15.0,,,,0.0,4.0,4.0,4.0,4.0,4.0,4.0,4.0,4.0,4.0,4.0,4.0,4.0,4.0,4.0,100.0,,,,,,,,,,,,,,,,,,,,,,,,,,,,,,,,,,,,,,,,,,,,,,,,,,,,,,,,,,,,,,,,,,,,,,,,,,,,,,,,,,,,,,,,,,,,,,,,,,,,,,,,,,,,,,,,,,,,,,,,,,,,,,,,,,,
1725710427.345049,1725710427.346334,32.0,0.0,4265.128418,4248.461426,4343.461426,4329.102539,4201.794922,4255.769043,3955.128174,4223.589844,4251.410156,4212.820313,4538.974121,4510.641113,4377.05127,4448.717773,0.0,1.0,15.0,,,,0.0,4.0,4.0,4.0,4.0,4.0,4.0,4.0,4.0,4.0,4.0,4.0,4.0,4.0,4.0,100.0,,,,,,,,,,,,,,,,,,,,,,,,,,,,,,,,,,,,,,,,,,,,,,,,,,,,,,,,0.0,0.0,1.0,0.0,2048.0,0.016179,,,,,,,,,,,,,,,,,,,,,,,,,,,,,,,,,,,,,,,,,,,,,,,,,,,,,,,,,,,,,,,,,,,,,,
1725710427.348953,1725710427.350338,33.0,0.0,4266.025879,4247.307617,4343.846191,4329.358887,4200.384766,4254.743652,3955.641113,4221.538574,4251.666504,4208.717773,4539.487305,4508.205078,4380.128418,4448.333496,0.0,1.0,15.0,,,,0.0,4.0,4.0,4.0,4.0,4.0,4.0,4.0,4.0,4.0,4.0,4.0,4.0,4.0,4.0,100.0,,,,,,,,,,,,,,,,,,,,,,,,,,,,,,,,,,,,,,,,,,,,,,,,,,,,,,,,,,,,,,,,,,,,,,,,,,,,,,,,,,,,,,,,,,,,,,,,,,,,,,,,,,,,,,,,,,,,,,,,,,,,,,,,,,,
1725710427.352857,1725710427.354242,34.0,0.0,4265.384766,4248.461426,4343.589844,4328.589844,4201.922852,4256.025879,3956.666748,4215.0,4249.871582,4203.846191,4536.794922,4502.692383,4382.307617,4445.641113,0.0,1.0,15.0,,,,0.0,4.0,4.0,4.0,4.0,4.0,4.0,4.0,4.0,4.0,4.0,4.0,4.0,4.0,4.0,100.0,,,,,,,,,,,,,,,,,,,,,,,,,,,,,,,,,,,,,,,,,,,,,,,,,,,,,,,,,,,,,,,,,,,,,,,,,,,,,,,,,,,,,,,,,,,,,,,,,,,,,,,,,,,,,,,,,,,,,,,,,,,,,,,,,,,
1725710427.356762,1725710427.358146,35.0,0.0,4263.589844,4252.05127,4342.692383,4327.436035,4206.153809,4259.102539,3957.179443,4206.282227,4245.256348,4199.743652,4531.666504,4496.922852,4383.077148,4442.179688,0.0,1.0,15.0,,,,0.0,4.0,4.0,4.0,4.0,4.0,4.0,4.0,4.0,4.0,4.0,4.0,4.0,4.0,4.0,100.0,,,,,,,,,,,,,,,,,,,,,,,,,,,,,,,,,,,,,,,,,,,,,,,,,,,,,,,,,,,,,,,,,,,,,,,,,,,,,,,,,,,,,,,,,,,,,,,,,,,,,,,,,,,,,,,,,,,,,,,,,,,,,,,,,,,
1725710427.360666,1725710427.362051,36.0,0.0,4261.794922,4256.666504,4341.666504,4326.666504,4211.025879,4261.922852,3957.05127,4199.871582,4239.487305,4197.692383,4527.05127,4494.102539,4383.077148,4439.871582,0.0,1.0,15.0,,,,0.0,4.0,4.0,4.0,4.0,4.0,4.0,4.0,4.0,4.0,4.0,4.0,4.0,4.0,4.0,100.0,,,,,,,,,,,,,,,,,,,,,,,,,,,,,,,,,,,,,,,,,,,,,,,,,,,,,,,,,,,,,,,,,,,,,,,,,,,,,,,,,,,,,,,,,,,,,,,,,,,,,,,,,,,,,,,,,,,,,,,,,,,,,,,,,,,
1725710427.36457,1725710427.365955,37.0,0.0,4261.410156,4259.487305,4341.153809,4326.410156,4214.615234,4262.94873,3956.923096,4198.846191,4236.025879,4198.205078,4525.769043,4495.769043,4382.94873,4440.0,0.0,1.0,15.0,,,,0.0,4.0,4.0,4.0,4.0,4.0,4.0,4.0,4.0,4.0,4.0,4.0,4.0,4.0,4.0,100.0,,,,,,,,,,,,,,,,,,,,,,,,,,,,,,,,,,,,,,,,,,,,,,,,,,,,,,,,,,,,,,,,,,,,,,,,,,,,,,,,,,,,,,,,,,,,,,,,,,,,,,,,,,,,,,,,,,,,,,,,,,,,,,,,,,,
1725710427.368474,1725710427.369859,38.0,0.0,4262.563965,4258.589844,4341.794922,4327.05127,4215.769043,4262.436035,3956.794922,4203.846191,4237.05127,4201.025879,4528.461426,4501.282227,4382.436035,4442.05127,0.0,1.0,15.0,,,,0.0,4.0,4.0,4.0,4.0,4.0,4.0,4.0,4.0,4.0,4.0,4.0,4.0,4.0,4.0,100.0,,,,,,,,,,,,,,,,,,,,,,,,,,,,,,,,,,,,,,,,,,,,,,,,,,,,,,,,,,,,,,,,,,,,,,,,,,,,,,,,,,,,,,,,,,,,,,,,,,,,,,,,,,,,,,,,,,,,,,,,,,,,,,,,,,,
1725710427.372378,1725710427.373663,39.0,0.0,4263.846191,4254.358887,4343.333496,4328.077148,4214.871582,4261.794922,3956.025635,4211.538574,4241.794922,4204.358887,4532.692383,4508.205078,4380.641113,4444.743652,0.0,1.0,15.0,,,,0.0,4.0,4.0,4.0,4.0,4.0,4.0,4.0,4.0,4.0,4.0,4.0,4.0,4.0,4.0,100.0,,,,,,,,,,,,,,,,,,,,,,,,,,,,,,,,,,,,,,,,,,,,,,,,,,,,,,,,,,,,,,,,,,,,,,,,,,,,,,,,,,,,,,,,,,,,,,,,,,,,,,,,,,,,,,,,,,,,,,,,,,,,,,,,,,,
1725710427.376282,1725710427.377567,40.0,0.0,4263.974121,4250.0,4344.230957,4328.974121,4212.94873,4262.307617,3953.974365,4217.692383,4246.922852,4206.282227,4535.641113,4513.333496,4377.820313,4446.794922,0.0,1.0,15.0,,,,0.0,4.0,4.0,4.0,4.0,4.0,4.0,4.0,4.0,4.0,4.0,4.0,4.0,4.0,4.0,100.0,,,,,,,,,,,,,,,,,,,,,,,,,,,,,,,,,,,,,,,,,,,,,,,,,,,,,,,,0.0,0.0,1.0,0.0,2048.0,0.016179,,,,,,,,,,,,,,,,,,,,,,,,,,,,,,,,,,,,,,,,,,,,,,,,,,,,,,,,,,,,,,,,,,,,,,
1725710427.380186,1725710427.381471,41.0,0.0,4262.94873,4248.717773,4343.589844,4328.974121,4211.538574,4263.974121,3951.666748,4219.358887,4248.974121,4205.641113,4536.025879,4514.102539,4375.0,4447.563965,0.0,1.0,15.0,,,,0.0,4.0,4.0,4.0,4.0,4.0,4.0,4.0,4.0,4.0,4.0,4.0,4.0,4.0,4.0,100.0,,,,,,,,,,,,,,,,,,,,,,,,,,,,,,,,,,,,,,,,,,,,,,,,,,,,,,,,,,,,,,,,,,,,,,,,,,,,,,,,,,,,,,,,,,,,,,,,,,,,,,,,,,,,,,,,,,,,,,,,,,,,,,,,,,,
1725710427.38409,1725710427.385375,42.0,0.0,4261.922852,4251.666504,4341.922852,4327.94873,4211.794922,4265.512695,3951.025635,4216.794922,4246.794922,4203.205078,4535.0,4510.897461,4373.717773,4447.05127,0.0,1.0,15.0,,,,0.0,4.0,4.0,4.0,4.0,4.0,4.0,4.0,4.0,4.0,4.0,4.0,4.0,4.0,4.0,100.0,,,,,,,,,,,,,,,,,,,,,,,,,,,,,,,,,,,,,,,,,,,,,,,,,,,,,,,,,,,,,,,,,,,,,,,,,,,,,,,,,,,,,,,,,,,,,,,,,,,,,,,,,,,,,,,,,,,,,,,,,,,,,,,,,,,
1725710427.387994,1725710427.38918,43.0,0.0,4261.922852,4257.179688,4340.769043,4326.794922,4213.333496,4266.282227,3952.564209,4212.307617,4242.820313,4200.512695,4534.871582,4506.538574,4374.615234,4446.025879,0.0,1.0,15.0,,,,0.0,4.0,4.0,4.0,4.0,4.0,4.0,4.0,4.0,4.0,4.0,4.0,4.0,4.0,4.0,100.0,,,,,,,,,,,,,,,,,,,,,,,,,,,,,,,,,,,,,,,,,,,,,,,,,,,,,,,,,,,,,,,,,,,,,,,,,,,,,,,,,,,,,,,,,,,,,,,,,,,,,,,,,,,,,,,,,,,,,,,,,,,,,,,,,,,
1725710427.391899,1725710427.393084,44.0,0.0,4263.461426,4261.922852,4341.794922,4326.922852,4215.256348,4266.153809,3955.256348,4209.102539,4240.256348,4198.974121,4536.666504,4504.871582,4376.666504,4445.256348,0.0,1.0,15.0,,,,0.0,4.0,4.0,4.0,4.0,4.0,4.0,4.0,4.0,4.0,4.0,4.0,4.0,4.0,4.0,100.0,,,,,,,,,,,,,,,,,,,,,,,,,,,,,,,,,,,,,,,,,,,,,,,,,,,,,,,,,,,,,,,,,,,,,,,,,,,,,,,,,,,,,,,,,,,,,,,,,,,,,,,,,,,,,,,,,,,,,,,,,,,,,,,,,,,
1725710427.395803,1725710427.396988,45.0,0.0,4265.641113,4263.974121,4344.743652,4329.487305,4216.410156,4265.897461,3956.923096,4209.230957,4240.641113,4199.230957,4539.615234,4507.307617,4378.846191,4445.769043,0.0,1.0,15.0,,,,0.0,4.0,4.0,4.0,4.0,4.0,4.0,4.0,4.0,4.0,4.0,4.0,4.0,4.0,4.0,100.0,,,,,,,,,,,,,,,,,,,,,,,,,,,,,,,,,,,,,,,,,,,,,,,,,,,,,,,,,,,,,,,,,,,,,,,,,,,,,,,,,,,,,,,,,,,,,,,,,,,,,,,,,,,,,,,,,,,,,,,,,,,,,,,,,,,
1725710427.399707,1725710427.400892,46.0,0.0,4267.436035,4263.717773,4348.077148,4333.846191,4216.410156,4265.897461,3957.05127,4212.05127,4242.563965,4201.538574,4541.922852,4512.179688,4380.641113,4448.205078,0.0,1.0,15.0,,,,0.0,4.0,4.0,4.0,4.0,4.0,4.0,4.0,4.0,4.0,4.0,4.0,4.0,4.0,4.0,100.0,,,,,,,,,,,,,,,,,,,,,,,,,,,,,,,,,,,,,,,,,,,,,,,,,,,,,,,,,,,,,,,,,,,,,,,,,,,,,,,,,,,,,,,,,,,,,,,,,,,,,,,,,,,,,,,,,,,,,,,,,,,,,,,,,,,
1725710427.403611,1725710427.404696,47.0,0.0,4268.205078,4263.205078,4349.487305,4338.205078,4215.897461,4266.282227,3957.179443,4215.384766,4243.333496,4205.128418,4542.307617,4516.410156,4382.307617,4452.307617,0.0,1.0,15.0,,,,0.0,4.0,4.0,4.0,4.0,4.0,4.0,4.0,4.0,4.0,4.0,4.0,4.0,4.0,4.0,100.0,,,,,,,,,,,,,,,,,,,,,,,,,,,,,,,,,,,,,,,,,,,,,,,,,,,,,,,,,,,,,,,,,,,,,,,,,,,,,,,,,,,,,,,,,,,,,,,,,,,,,,,,,,,,,,,,,,,,,,,,,,,,,,,,,,,
1725710427.407515,1725710427.4086,48.0,0.0,4267.692383,4263.717773,4348.077148,4340.384766,4215.512695,4266.538574,3958.974365,4216.794922,4240.897461,4207.94873,4540.512695,4517.563965,4382.94873,4456.794922,0.0,1.0,15.0,,,,0.0,4.0,4.0,4.0,4.0,4.0,4.0,4.0,4.0,4.0,4.0,4.0,4.0,4.0,4.0,100.0,,,,,,,,,,,,,,,,,1.0,0.0,0.0,,,,,,,,,,,,,,,,,,,,,,,,,,,,,,,,,,,,,0.0,0.0,1.0,0.0,2048.0,0.0,1.446313,1.259541,0.267691,0.12965,0.035807,0.878422,0.531254,0.317604,0.265327,0.102202,1.757764,0.908175,0.191908,0.078191,0.052996,0.740534,0.993669,0.31827,0.108088,0.130714,0.323726,0.277862,0.118348,0.112546,0.094527,0.21127,0.377366,0.154189,0.066398,0.026324,2.349941,0.492914,0.150538,0.10171,0.072094,0.472455,1.319254,0.358166,0.206753,0.104677,0.532052,0.843997,0.340506,0.293358,0.158865,0.904288,0.754123,0.207034,0.26545,0.155935,3.655232,2.747852,0.762441,1.172249,0.601234,3.299623,3.4124,0.696773,0.283022,0.135308,2.769538,2.134019,1.432246,0.565074,0.300981,3.161229,2.038002,0.588501,0.296933,0.127379
1725710427.411419,1725710427.412504,49.0,0.0,4266.538574,4264.102539,4344.743652,4339.358887,4215.897461,4266.282227,3963.076904,4215.512695,4236.538574,4208.333496,4537.820313,4515.512695,4381.794922,4459.615234,0.0,1.0,15.0,,,,0.0,4.0,4.0,4.0,4.0,4.0,4.0,4.0,4.0,4.0,4.0,4.0,4.0,4.0,4.0,100.0,,,,,,,,,,,,,,,,,,,,,,,,,,,,,,,,,,,,,,,,,,,,,,,,,,,,,,,,,,,,,,,,,,,,,,,,,,,,,,,,,,,,,,,,,,,,,,,,,,,,,,,,,,,,,,,,,,,,,,,,,,,,,,,,,,,
1725710427.415323,1725710427.416308,50.0,0.0,4265.384766,4262.94873,4342.05127,4337.05127,4216.538574,4265.769043,3968.461426,4212.307617,4233.717773,4205.769043,4536.282227,4511.794922,4378.717773,4459.743652,0.0,1.0,15.0,,,,0.0,4.0,4.0,4.0,4.0,4.0,4.0,4.0,4.0,4.0,4.0,4.0,4.0,4.0,4.0,100.0,,,,,,,,,,,,,,,,,,,,,,,,,,,,,,,,,,,,,,,,,,,,,,,,,,,,,,,,,,,,,,,,,,,,,,,,,,,,,,,,,,,,,,,,,,,,,,,,,,,,,,,,,,,,,,,,,,,,,,,,,,,,,,,,,,,
1725710427.419227,1725710427.420213,51.0,0.0,4264.615234,4260.384766,4341.538574,4335.512695,4217.307617,4265.512695,3973.205078,4209.743652,4235.384766,4201.922852,4537.05127,4508.589844,4375.641113,4457.820313,0.0,1.0,15.0,,,,0.0,4.0,4.0,4.0,4.0,4.0,4.0,4.0,4.0,4.0,4.0,4.0,4.0,4.0,4.0,100.0,,,,,,,,,,,,,,,,,,,,,,,,,,,,,,,,,,,,,,,,,,,,,,,,,,,,,,,,,,,,,,,,,,,,,,,,,,,,,,,,,,,,,,,,,,,,,,,,,,,,,,,,,,,,,,,,,,,,,,,,,,,,,,,,,,,
1725710427.423131,1725710427.424117,52.0,0.0,4264.615234,4258.333496,4343.077148,4336.282227,4217.692383,4265.769043,3976.153809,4209.615234,4241.282227,4199.358887,4539.743652,4507.563965,4374.871582,4455.128418,0.0,1.0,15.0,,,,0.0,4.0,4.0,4.0,4.0,4.0,4.0,4.0,4.0,4.0,4.0,4.0,4.0,4.0,4.0,100.0,,,,,,,,,,,,,,,,,,,,,,,,,,,,,,,,,,,,,,,,,,,,,,,,,,,,,,,,,,,,,,,,,,,,,,,,,,,,,,,,,,,,,,,,,,,,,,,,,,,,,,,,,,,,,,,,,,,,,,,,,,,,,,,,,,,
1725710427.427035,1725710427.428121,53.0,0.0,4265.256348,4258.333496,4345.0,4338.333496,4217.692383,4266.538574,3977.94873,4211.922852,4247.436035,4199.230957,4542.179688,4509.358887,4376.666504,4452.05127,0.0,1.0,15.0,,,,0.0,4.0,4.0,4.0,4.0,4.0,4.0,4.0,4.0,4.0,4.0,4.0,4.0,4.0,4.0,100.0,,,,,,,,,,,,,,,,,,,,,,,,,,,,,,,,,,,,,,,,,,,,,,,,,,,,,,,,,,,,,,,,,,,,,,,,,,,,,,,,,,,,,,,,,,,,,,,,,,,,,,,,,,,,,,,,,,,,,,,,,,,,,,,,,,,
1725710427.43094,1725710427.432025,54.0,0.0,4265.769043,4259.615234,4346.025879,4339.487305,4217.307617,4266.922852,3980.769287,4214.615234,4250.256348,4201.025879,4541.410156,4512.307617,4379.230957,4448.461426,0.0,1.0,15.0,,,,0.0,4.0,4.0,4.0,4.0,4.0,4.0,4.0,4.0,4.0,4.0,4.0,4.0,4.0,4.0,100.0,,,,,,,,,,,,,,,,,,,,,,,,,,,,,,,,,,,,,,,,,,,,,,,,,,,,,,,,,,,,,,,,,,,,,,,,,,,,,,,,,,,,,,,,,,,,,,,,,,,,,,,,,,,,,,,,,,,,,,,,,,,,,,,,,,,
1725710427.434844,1725710427.435929,55.0,0.0,4265.641113,4259.487305,4345.641113,4338.205078,4216.794922,4266.025879,3985.512939,4216.538574,4248.717773,4202.94873,4536.538574,4513.974121,4379.871582,4445.256348,0.0,1.0,15.0,,,,0.0,4.0,4.0,4.0,4.0,4.0,4.0,4.0,4.0,4.0,4.0,4.0,4.0,4.0,4.0,100.0,,,,,,,,,,,,,,,,,,,,,,,,,,,,,,,,,,,,,,,,,,,,,,,,,,,,,,,,,,,,,,,,,,,,,,,,,,,,,,,,,,,,,,,,,,,,,,,,,,,,,,,,,,,,,,,,,,,,,,,,,,,,,,,,,,,
1725710427.438748,1725710427.439833,56.0,0.0,4264.871582,4256.922852,4344.358887,4334.871582,4216.282227,4264.358887,3990.769287,4217.307617,4244.871582,4203.589844,4530.0,4513.333496,4377.820313,4444.102539,0.0,1.0,15.0,,,,0.0,4.0,4.0,4.0,4.0,4.0,4.0,4.0,4.0,4.0,4.0,4.0,4.0,4.0,4.0,100.0,,,,,,,,,,,,,,,,,,,,,,,,,,,,,,,,,,,,,,,,,,,,,,,,,,,,,,,,0.0,0.0,1.0,0.0,2048.0,0.0,,,,,,,,,,,,,,,,,,,,,,,,,,,,,,,,,,,,,,,,,,,,,,,,,,,,,,,,,,,,,,,,,,,,,,
1725710427.442652,1725710427.443837,57.0,0.0,4263.974121,4253.077148,4343.461426,4331.794922,4215.769043,4262.436035,3993.333252,4217.179688,4242.307617,4203.205078,4526.666504,4511.153809,4374.615234,4446.538574,0.0,1.0,15.0,,,,0.0,4.0,4.0,4.0,4.0,4.0,4.0,4.0,4.0,4.0,4.0,4.0,4.0,4.0,4.0,100.0,,,,,,,,,,,,,,,,,,,,,,,,,,,,,,,,,,,,,,,,,,,,,,,,,,,,,,,,,,,,,,,,,,,,,,,,,,,,,,,,,,,,,,,,,,,,,,,,,,,,,,,,,,,,,,,,,,,,,,,,,,,,,,,,,,,
1725710427.446556,1725710427.447741,58.0,0.0,4263.846191,4250.641113,4343.589844,4331.282227,4215.128418,4261.666504,3992.307617,4216.025879,4243.077148,4202.692383,4529.487305,4508.974121,4373.205078,4451.666504,0.0,1.0,15.0,,,,0.0,4.0,4.0,4.0,4.0,4.0,4.0,4.0,4.0,4.0,4.0,4.0,4.0,4.0,4.0,100.0,,,,,,,,,,,,,,,,,,,,,,,,,,,,,,,,,,,,,,,,,,,,,,,,,,,,,,,,,,,,,,,,,,,,,,,,,,,,,,,,,,,,,,,,,,,,,,,,,,,,,,,,,,,,,,,,,,,,,,,,,,,,,,,,,,,
1725710427.45046,1725710427.451645,59.0,0.0,4264.871582,4251.794922,4343.974121,4333.717773,4215.0,4262.436035,3990.0,4213.846191,4246.666504,4202.692383,4536.410156,4508.077148,4375.128418,4457.05127,0.0,1.0,15.0,,,,0.0,4.0,4.0,4.0,4.0,4.0,4.0,4.0,4.0,4.0,4.0,4.0,4.0,4.0,4.0,100.0,,,,,,,,,,,,,,,,,,,,,,,,,,,,,,,,,,,,,,,,,,,,,,,,,,,,,,,,,,,,,,,,,,,,,,,,,,,,,,,,,,,,,,,,,,,,,,,,,,,,,,,,,,,,,,,,,,,,,,,,,,,,,,,,,,,
1725710427.454364,1725710427.455549,60.0,0.0,4266.922852,4255.897461,4343.846191,4336.794922,4216.153809,4264.487305,3989.871826,4210.641113,4249.871582,4203.333496,4541.410156,4508.205078,4379.487305,4459.102539,0.0,1.0,15.0,,,,0.0,4.0,4.0,4.0,4.0,4.0,4.0,4.0,4.0,4.0,4.0,4.0,4.0,4.0,4.0,100.0,,,,,,,,,,,,,,,,,,,,,,,,,,,,,,,,,,,,,,,,,,,,,,,,,,,,,,,,,,,,,,,,,,,,,,,,,,,,,,,,,,,,,,,,,,,,,,,,,,,,,,,,,,,,,,,,,,,,,,,,,,,,,,,,,,,
1725710427.458268,1725710427.459553,61.0,0.0,4268.717773,4260.512695,4342.05127,4337.820313,4217.692383,4266.282227,3992.435791,4207.563965,4249.487305,4203.717773,4539.358887,4508.077148,4383.205078,4456.025879,0.0,1.0,15.0,,,,0.0,4.0,4.0,4.0,4.0,4.0,4.0,4.0,4.0,4.0,4.0,4.0,4.0,4.0,4.0,100.0,,,,,,,,,,,,,,,,,,,,,,,,,,,,,,,,,,,,,,,,,,,,,,,,,,,,,,,,,,,,,,,,,,,,,,,,,,,,,,,,,,,,,,,,,,,,,,,,,,,,,,,,,,,,,,,,,,,,,,,,,,,,,,,,,,,
1725710427.462172,1725710427.463457,62.0,0.0,4269.230957,4262.94873,4338.589844,4335.769043,4217.820313,4267.05127,3994.358887,4205.641113,4245.256348,4203.077148,4530.897461,4506.922852,4384.102539,4449.230957,0.0,1.0,15.0,,,,0.0,4.0,4.0,4.0,4.0,4.0,4.0,4.0,4.0,4.0,4.0,4.0,4.0,4.0,4.0,100.0,,,,,,,,,,,,,,,,,,,,,,,,,,,,,,,,,,,,,,,,,,,,,,,,,,,,,,,,,,,,,,,,,,,,,,,,,,,,,,,,,,,,,,,,,,,,,,,,,,,,,,,,,,,,,,,,,,,,,,,,,,,,,,,,,,,
1725710427.466076,1725710427.467361,63.0,0.0,4267.692383,4262.179688,4333.717773,4331.922852,4214.487305,4266.410156,3990.641113,4205.641113,4239.871582,4201.025879,4522.436035,4505.384766,4382.307617,4442.692383,0.0,1.0,15.0,,,,0.0,4.0,4.0,4.0,4.0,4.0,4.0,4.0,4.0,4.0,4.0,4.0,4.0,4.0,4.0,100.0,,,,,,,,,,,,,,,,,,,,,,,,,,,,,,,,,,,,,,,,,,,,,,,,,,,,,,,,,,,,,,,,,,,,,,,,,,,,,,,,,,,,,,,,,,,,,,,,,,,,,,,,,,,,,,,,,,,,,,,,,,,,,,,,,,,
1725710427.46998,1725710427.471266,64.0,0.0,4265.0,4259.230957,4328.589844,4328.974121,4208.589844,4265.384766,3979.871826,4207.05127,4237.563965,4198.846191,4520.384766,4503.974121,4380.128418,4439.743652,0.0,1.0,15.0,,,,0.0,4.0,4.0,4.0,4.0,4.0,4.0,4.0,4.0,4.0,4.0,4.0,4.0,4.0,4.0,100.0,,,,,,,,,,,,,,,,,,,,,,,,,,,,,,,,,,,,,,,,,,,,,,,,,,,,,,,,0.0,0.0,1.0,0.0,2048.0,0.0,,,,,,,,,,,,,,,,,,,,,,,,,,,,,,,,,,,,,,,,,,,,,,,,,,,,,,,,,,,,,,,,,,,,,,
1725710427.473884,1725710427.47517,65.0,0.0,4262.436035,4255.897461,4324.487305,4328.717773,4203.461426,4264.871582,3965.0,4207.94873,4239.230957,4197.692383,4525.641113,4502.94873,4379.358887,4440.897461,0.0,1.0,15.0,,,,0.0,4.0,4.0,4.0,4.0,4.0,4.0,4.0,4.0,4.0,4.0,4.0,4.0,4.0,4.0,100.0,,,,,,,,,,,,,,,,,,,,,,,,,,,,,,,,,,,,,,,,,,,,,,,,,,,,,,,,,,,,,,,,,,,,,,,,,,,,,,,,,,,,,,,,,,,,,,,,,,,,,,,,,,,,,,,,,,,,,,,,,,,,,,,,,,,
1725710427.477789,1725710427.478974,66.0,0.0,4261.410156,4253.077148,4322.436035,4330.769043,4202.563965,4265.128418,3952.307617,4206.666504,4242.820313,4197.820313,4532.820313,4502.563965,4378.974121,4443.846191,0.0,1.0,15.0,,,,0.0,4.0,4.0,4.0,4.0,4.0,4.0,4.0,4.0,4.0,4.0,4.0,4.0,4.0,4.0,100.0,,,,,,,,,,,,,,,,,,,,,,,,,,,,,,,,,,,,,,,,,,,,,,,,,,,,,,,,,,,,,,,,,,,,,,,,,,,,,,,,,,,,,,,,,,,,,,,,,,,,,,,,,,,,,,,,,,,,,,,,,,,,,,,,,,,
1725710427.481693,1725710427.482878,67.0,0.0,4262.05127,4250.897461,4322.436035,4332.563965,4205.897461,4265.384766,3946.794922,4203.333496,4244.615234,4198.205078,4535.128418,4502.692383,4376.410156,4445.512695,0.0,1.0,15.0,,,,0.0,4.0,4.0,4.0,4.0,4.0,4.0,4.0,4.0,4.0,4.0,4.0,4.0,4.0,4.0,100.0,,,,,,,,,,,,,,,,,,,,,,,,,,,,,,,,,,,,,,,,,,,,,,,,,,,,,,,,,,,,,,,,,,,,,,,,,,,,,,,,,,,,,,,,,,,,,,,,,,,,,,,,,,,,,,,,,,,,,,,,,,,,,,,,,,,
1725710427.485597,1725710427.486782,68.0,0.0,4263.205078,4249.230957,4323.846191,4332.436035,4210.256348,4265.128418,3949.230713,4199.615234,4242.820313,4197.94873,4530.384766,4503.589844,4371.794922,4445.0,0.0,1.0,15.0,,,,0.0,4.0,4.0,4.0,4.0,4.0,4.0,4.0,4.0,4.0,4.0,4.0,4.0,4.0,4.0,100.0,,,,,,,,,,,,,,,,,,,,,,,,,,,,,,,,,,,,,,,,,,,,,,,,,,,,,,,,,,,,,,,,,,,,,,,,,,,,,,,,,,,,,,,,,,,,,,,,,,,,,,,,,,,,,,,,,,,,,,,,,,,,,,,,,,,
1725710427.489501,1725710427.490686,69.0,0.0,4264.102539,4248.077148,4325.512695,4330.128418,4211.922852,4264.230957,3957.179443,4198.077148,4238.205078,4197.179688,4522.436035,4504.487305,4368.589844,4443.077148,0.0,1.0,15.0,,,,0.0,4.0,4.0,4.0,4.0,4.0,4.0,4.0,4.0,4.0,4.0,4.0,4.0,4.0,4.0,100.0,,,,,,,,,,,,,,,,,,,,,,,,,,,,,,,,,,,,,,,,,,,,,,,,,,,,,,,,,,,,,,,,,,,,,,,,,,,,,,,,,,,,,,,,,,,,,,,,,,,,,,,,,,,,,,,,,,,,,,,,,,,,,,,,,,,
1725710427.493405,1725710427.49449,70.0,0.0,4263.846191,4248.205078,4326.666504,4327.436035,4209.743652,4263.205078,3966.538574,4199.102539,4233.974121,4196.922852,4517.820313,4505.0,4370.512695,4441.538574,0.0,1.0,15.0,,,,0.0,4.0,4.0,4.0,4.0,4.0,4.0,4.0,4.0,4.0,4.0,4.0,4.0,4.0,4.0,100.0,,,,,,,,,,,,,,,,,,,,,,,,,,,,,,,,,,,,,,,,,,,,,,,,,,,,,,,,,,,,,,,,,,,,,,,,,,,,,,,,,,,,,,,,,,,,,,,,,,,,,,,,,,,,,,,,,,,,,,,,,,,,,,,,,,,
1725710427.497309,1725710427.498395,71.0,0.0,4262.94873,4249.230957,4327.05127,4325.641113,4205.897461,4262.307617,3973.333252,4201.410156,4232.692383,4197.692383,4520.512695,4505.256348,4377.05127,4441.666504,0.0,1.0,15.0,,,,0.0,4.0,4.0,4.0,4.0,4.0,4.0,4.0,4.0,4.0,4.0,4.0,4.0,4.0,4.0,100.0,,,,,,,,,,,,,,,,,,,,,,,,,,,,,,,,,,,,,,,,,,,,,,,,,,,,,,,,,,,,,,,,,,,,,,,,,,,,,,,,,,,,,,,,,,,,,,,,,,,,,,,,,,,,,,,,,,,,,,,,,,,,,,,,,,,
1725710427.501213,1725710427.502299,72.0,0.0,4261.794922,4250.128418,4326.025879,4324.743652,4203.461426,4261.282227,3975.897461,4203.461426,4233.974121,4199.487305,4528.974121,4505.384766,4383.846191,4443.205078,0.0,1.0,15.0,,,,0.0,4.0,4.0,4.0,4.0,4.0,4.0,4.0,4.0,4.0,4.0,4.0,4.0,4.0,4.0,100.0,,,,,,,,,,,,,,,,,,,,,,,,,,,,,,,,,,,,,,,,,,,,,,,,,,,,,,,,0.0,0.0,1.0,0.0,2048.0,0.0,,,,,,,,,,,,,,,,,,,,,,,,,,,,,,,,,,,,,,,,,,,,,,,,,,,,,,,,,,,,,,,,,,,,,,
1725710427.505117,1725710427.506203,73.0,0.0,4260.897461,4249.615234,4324.102539,4324.102539,4204.358887,4259.871582,3975.128174,4204.102539,4235.641113,4201.025879,4538.461426,4505.769043,4385.769043,4445.128418,0.0,1.0,15.0,,,,0.0,4.0,4.0,4.0,4.0,4.0,4.0,4.0,4.0,4.0,4.0,4.0,4.0,4.0,4.0,100.0,,,,,,,,,,,,,,,,,,,,,,,,,,,,,,,,,,,,,,,,,,,,,,,,,,,,,,,,,,,,,,,,,,,,,,,,,,,,,,,,,,,,,,,,,,,,,,,,,,,,,,,,,,,,,,,,,,,,,,,,,,,,,,,,,,,
1725710427.509021,1725710427.510007,74.0,0.0,4260.512695,4248.077148,4322.307617,4323.717773,4207.307617,4258.333496,3973.589844,4203.717773,4236.153809,4201.922852,4543.974121,4506.153809,4382.05127,4446.153809,0.0,1.0,15.0,,,,0.0,4.0,4.0,4.0,4.0,4.0,4.0,4.0,4.0,4.0,4.0,4.0,4.0,4.0,4.0,100.0,,,,,,,,,,,,,,,,,,,,,,,,,,,,,,,,,,,,,,,,,,,,,,,,,,,,,,,,,,,,,,,,,,,,,,,,,,,,,,,,,,,,,,,,,,,,,,,,,,,,,,,,,,,,,,,,,,,,,,,,,,,,,,,,,,,
1725710427.512926,1725710427.513911,75.0,0.0,4260.769043,4247.05127,4321.538574,4324.358887,4209.230957,4258.205078,3973.461426,4203.333496,4235.769043,4202.05127,4543.333496,4506.153809,4376.153809,4445.897461,0.0,1.0,15.0,,,,0.0,4.0,4.0,4.0,4.0,4.0,4.0,4.0,4.0,4.0,4.0,4.0,4.0,4.0,4.0,100.0,,,,,,,,,,,,,,,,,,,,,,,,,,,,,,,,,,,,,,,,,,,,,,,,,,,,,,,,,,,,,,,,,,,,,,,,,,,,,,,,,,,,,,,,,,,,,,,,,,,,,,,,,,,,,,,,,,,,,,,,,,,,,,,,,,,
1725710427.51683,1725710427.517815,76.0,0.0,4261.282227,4247.436035,4322.05127,4326.410156,4207.94873,4259.615234,3975.256348,4203.461426,4236.410156,4201.922852,4538.077148,4506.538574,4372.563965,4445.384766,0.0,1.0,15.0,,,,0.0,4.0,4.0,4.0,4.0,4.0,4.0,4.0,4.0,4.0,4.0,4.0,4.0,4.0,4.0,100.0,,,,,,,,,,,,,,,,,,,,,,,,,,,,,,,,,,,,,,,,,,,,,,,,,,,,,,,,,,,,,,,,,,,,,,,,,,,,,,,,,,,,,,,,,,,,,,,,,,,,,,,,,,,,,,,,,,,,,,,,,,,,,,,,,,,
1725710427.520734,1725710427.521619,77.0,0.0,4261.922852,4248.717773,4323.461426,4329.487305,4203.974121,4261.666504,3978.333252,4204.102539,4239.102539,4202.307617,4531.922852,4508.205078,4373.589844,4445.897461,0.0,1.0,15.0,,,,0.0,4.0,4.0,4.0,4.0,4.0,4.0,4.0,4.0,4.0,4.0,4.0,4.0,4.0,4.0,100.0,,,,,,,,,,,,,,,,,,,,,,,,,,,,,,,,,,,,,,,,,,,,,,,,,,,,,,,,,,,,,,,,,,,,,,,,,,,,,,,,,,,,,,,,,,,,,,,,,,,,,,,,,,,,,,,,,,,,,,,,,,,,,,,,,,,
1725710427.524638,1725710427.525523,78.0,0.0,4262.436035,4249.615234,4325.0,4332.05127,4200.641113,4262.563965,3982.435791,4205.128418,4243.717773,4203.333496,4528.974121,4511.282227,4377.94873,4447.94873,0.0,1.0,15.0,,,,0.0,4.0,4.0,4.0,4.0,4.0,4.0,4.0,4.0,4.0,4.0,4.0,4.0,4.0,4.0,100.0,,,,,,,,,,,,,,,,,,,,,,,,,,,,,,,,,,,,,,,,,,,,,,,,,,,,,,,,,,,,,,,,,,,,,,,,,,,,,,,,,,,,,,,,,,,,,,,,,,,,,,,,,,,,,,,,,,,,,,,,,,,,,,,,,,,
1725710427.528542,1725710427.529428,79.0,0.0,4262.692383,4249.230957,4325.641113,4332.563965,4201.282227,4261.538574,3987.692383,4207.307617,4248.205078,4205.0,4531.025879,4515.256348,4382.307617,4451.410156,0.0,1.0,15.0,,,,0.0,4.0,4.0,4.0,4.0,4.0,4.0,4.0,4.0,4.0,4.0,4.0,4.0,4.0,4.0,100.0,,,,,,,,,,,,,,,,,,,,,,,,,,,,,,,,,,,,,,,,,,,,,,,,,,,,,,,,,,,,,,,,,,,,,,,,,,,,,,,,,,,,,,,,,,,,,,,,,,,,,,,,,,,,,,,,,,,,,,,,,,,,,,,,,,,
1725710427.532446,1725710427.533432,80.0,0.0,4262.94873,4248.589844,4325.512695,4330.897461,4205.512695,4259.487305,3993.076904,4211.025879,4250.641113,4206.538574,4536.922852,4518.205078,4384.615234,4454.743652,0.0,1.0,15.0,,,,0.0,4.0,4.0,4.0,4.0,4.0,4.0,4.0,4.0,4.0,4.0,4.0,4.0,4.0,4.0,100.0,,,,,,,,,,,,,,,,,1.0,0.0,0.0,,,,,,,,,,,,,,,,,,,,,,,,,,,,,,,,,,,,,0.0,0.0,1.0,0.0,2048.0,0.0,1.657635,1.418341,0.345149,0.147188,0.035286,1.243596,0.707002,0.474859,0.36895,0.100258,1.890434,1.008719,0.248236,0.094303,0.049782,1.030911,1.290281,0.3797,0.090161,0.139325,0.42629,0.405329,0.143461,0.112546,0.091683,0.252136,0.440137,0.203824,0.07878,0.033141,3.335863,0.556015,0.135707,0.096275,0.077076,0.418218,1.12918,0.345865,0.204778,0.100223,0.524876,0.916413,0.400455,0.320517,0.152578,0.958063,0.844195,0.281354,0.326504,0.17139,3.79163,2.948305,0.923002,1.184178,0.600298,3.479963,3.466924,0.769535,0.311043,0.146678,3.110325,2.383902,1.79938,0.631855,0.312464,3.294795,2.255086,0.740602,0.343086,0.126737
1725710427.53635,1725710427.537336,81.0,0.0,4263.205078,4248.846191,4325.769043,4328.077148,4209.871582,4258.077148,3996.923096,4215.641113,4250.384766,4207.179688,4543.589844,4519.230957,4384.487305,4456.282227,0.0,1.0,15.0,,,,0.0,4.0,4.0,4.0,4.0,4.0,4.0,4.0,4.0,4.0,4.0,4.0,4.0,4.0,4.0,100.0,,,,,,,,,,,,,,,,,,,,,,,,,,,,,,,,,,,,,,,,,,,,,,,,,,,,,,,,,,,,,,,,,,,,,,,,,,,,,,,,,,,,,,,,,,,,,,,,,,,,,,,,,,,,,,,,,,,,,,,,,,,,,,,,,,,
1725710427.540254,1725710427.54124,82.0,0.0,4263.589844,4250.769043,4326.666504,4326.410156,4211.410156,4258.205078,3997.820557,4219.487305,4249.102539,4206.538574,4546.922852,4517.94873,4383.717773,4454.871582,0.0,1.0,15.0,,,,0.0,4.0,4.0,4.0,4.0,4.0,4.0,4.0,4.0,4.0,4.0,4.0,4.0,4.0,4.0,100.0,,,,,,,,,,,,,,,,,,,,,,,,,,,,,,,,,,,,,,,,,,,,,,,,,,,,,,,,,,,,,,,,,,,,,,,,,,,,,,,,,,,,,,,,,,,,,,,,,,,,,,,,,,,,,,,,,,,,,,,,,,,,,,,,,,,
1725710427.544158,1725710427.545144,83.0,0.0,4263.974121,4252.563965,4327.692383,4326.666504,4210.641113,4259.487305,3996.153809,4221.153809,4248.333496,4205.128418,4543.589844,4514.871582,4383.205078,4451.153809,0.0,1.0,15.0,,,,0.0,4.0,4.0,4.0,4.0,4.0,4.0,4.0,4.0,4.0,4.0,4.0,4.0,4.0,4.0,100.0,,,,,,,,,,,,,,,,,,,,,,,,,,,,,,,,,,,,,,,,,,,,,,,,,,,,,,,,,,,,,,,,,,,,,,,,,,,,,,,,,,,,,,,,,,,,,,,,,,,,,,,,,,,,,,,,,,,,,,,,,,,,,,,,,,,
1725710427.548062,1725710427.549148,84.0,0.0,4264.102539,4252.563965,4327.307617,4327.94873,4210.641113,4260.769043,3993.718018,4220.384766,4248.717773,4203.333496,4533.846191,4511.025879,4382.436035,4446.794922,0.0,1.0,15.0,,,,0.0,4.0,4.0,4.0,4.0,4.0,4.0,4.0,4.0,4.0,4.0,4.0,4.0,4.0,4.0,100.0,,,,,,,,,,,,,,,,,,,,,,,,,,,,,,,,,,,,,,,,,,,,,,,,,,,,,,,,,,,,,,,,,,,,,,,,,,,,,,,,,,,,,,,,,,,,,,,,,,,,,,,,,,,,,,,,,,,,,,,,,,,,,,,,,,,
1725710427.551967,1725710427.553052,85.0,0.0,4263.461426,4250.769043,4325.0,4328.077148,4212.820313,4260.769043,3992.435791,4218.717773,4248.974121,4201.922852,4522.436035,4507.563965,4379.615234,4443.589844,0.0,1.0,15.0,,,,0.0,4.0,4.0,4.0,4.0,4.0,4.0,4.0,4.0,4.0,4.0,4.0,4.0,4.0,4.0,100.0,,,,,,,,,,,,,,,,,,,,,,,,,,,,,,,,,,,,,,,,,,,,,,,,,,,,,,,,,,,,,,,,,,,,,,,,,,,,,,,,,,,,,,,,,,,,,,,,,,,,,,,,,,,,,,,,,,,,,,,,,,,,,,,,,,,
1725710427.555871,1725710427.556956,86.0,0.0,4262.179688,4248.974121,4321.538574,4326.153809,4215.641113,4259.871582,3993.718018,4217.436035,4248.717773,4201.025879,4516.025879,4505.641113,4374.871582,4442.05127,0.0,1.0,15.0,,,,0.0,4.0,4.0,4.0,4.0,4.0,4.0,4.0,4.0,4.0,4.0,4.0,4.0,4.0,4.0,100.0,,,,,,,,,,,,,,,,,,,,,,,,,,,,,,,,,,,,,,,,,,,,,,,,,,,,,,,,,,,,,,,,,,,,,,,,,,,,,,,,,,,,,,,,,,,,,,,,,,,,,,,,,,,,,,,,,,,,,,,,,,,,,,,,,,,
1725710427.559775,1725710427.56086,87.0,0.0,4260.769043,4249.615234,4318.717773,4323.461426,4215.512695,4258.846191,3997.307617,4217.179688,4248.461426,4200.897461,4518.205078,4505.0,4370.256348,4442.563965,0.0,1.0,15.0,,,,0.0,4.0,4.0,4.0,4.0,4.0,4.0,4.0,4.0,4.0,4.0,4.0,4.0,4.0,4.0,100.0,,,,,,,,,,,,,,,,,,,,,,,,,,,,,,,,,,,,,,,,,,,,,,,,,,,,,,,,,,,,,,,,,,,,,,,,,,,,,,,,,,,,,,,,,,,,,,,,,,,,,,,,,,,,,,,,,,,,,,,,,,,,,,,,,,,
1725710427.563679,1725710427.564864,88.0,0.0,4260.512695,4253.077148,4317.692383,4322.436035,4211.666504,4258.974121,4001.666748,4216.666504,4248.077148,4201.153809,4526.666504,4505.0,4368.974121,4444.230957,0.0,1.0,15.0,,,,0.0,4.0,4.0,4.0,4.0,4.0,4.0,4.0,4.0,4.0,4.0,4.0,4.0,4.0,4.0,100.0,,,,,,,,,,,,,,,,,,,,,,,,,,,,,,,,,,,,,,,,,,,,,,,,,,,,,,,,0.0,0.0,1.0,0.0,2048.0,0.0,,,,,,,,,,,,,,,,,,,,,,,,,,,,,,,,,,,,,,,,,,,,,,,,,,,,,,,,,,,,,,,,,,,,,,
1725710427.567583,1725710427.568768,89.0,0.0,4261.666504,4257.307617,4318.205078,4325.0,4206.666504,4260.641113,4005.128174,4214.871582,4246.794922,4200.769043,4534.871582,4504.102539,4372.307617,4446.025879,0.0,1.0,15.0,,,,0.0,4.0,4.0,4.0,4.0,4.0,4.0,4.0,4.0,4.0,4.0,4.0,4.0,4.0,4.0,100.0,,,,,,,,,,,,,,,,,,,,,,,,,,,,,,,,,,,,,,,,,,,,,,,,,,,,,,,,,,,,,,,,,,,,,,,,,,,,,,,,,,,,,,,,,,,,,,,,,,,,,,,,,,,,,,,,,,,,,,,,,,,,,,,,,,,
1725710427.571487,1725710427.572672,90.0,0.0,4263.461426,4259.230957,4318.589844,4330.0,4204.102539,4262.436035,4006.538574,4211.153809,4244.102539,4199.615234,4537.05127,4502.179688,4378.461426,4446.410156,0.0,1.0,15.0,,,,0.0,4.0,4.0,4.0,4.0,4.0,4.0,4.0,4.0,4.0,4.0,4.0,4.0,4.0,4.0,100.0,,,,,,,,,,,,,,,,,,,,,,,,,,,,,,,,,,,,,,,,,,,,,,,,,,,,,,,,,,,,,,,,,,,,,,,,,,,,,,,,,,,,,,,,,,,,,,,,,,,,,,,,,,,,,,,,,,,,,,,,,,,,,,,,,,,
1725710427.575391,1725710427.576577,91.0,0.0,4263.589844,4257.436035,4317.05127,4334.487305,4205.641113,4262.563965,4006.153809,4206.538574,4241.794922,4197.820313,4532.692383,4499.230957,4382.94873,4444.743652,0.0,1.0,15.0,,,,0.0,4.0,4.0,4.0,4.0,4.0,4.0,4.0,4.0,4.0,4.0,4.0,4.0,4.0,4.0,100.0,,,,,,,,,,,,,,,,,,,,,,,,,,,,,,,,,,,,,,,,,,,,,,,,,,,,,,,,,,,,,,,,,,,,,,,,,,,,,,,,,,,,,,,,,,,,,,,,,,,,,,,,,,,,,,,,,,,,,,,,,,,,,,,,,,,
1725710427.579295,1725710427.580481,92.0,0.0,4260.897461,4253.077148,4313.974121,4335.512695,4209.871582,4260.769043,4005.512939,4202.820313,4241.538574,4196.666504,4525.512695,4496.282227,4383.077148,4441.153809,0.0,1.0,15.0,,,,0.0,4.0,4.0,4.0,4.0,4.0,4.0,4.0,4.0,4.0,4.0,4.0,4.0,4.0,4.0,100.0,,,,,,,,,,,,,,,,,,,,,,,,,,,,,,,,,,,,,,,,,,,,,,,,,,,,,,,,,,,,,,,,,,,,,,,,,,,,,,,,,,,,,,,,,,,,,,,,,,,,,,,,,,,,,,,,,,,,,,,,,,,,,,,,,,,
1725710427.583199,1725710427.584285,93.0,0.0,4256.025879,4248.589844,4310.897461,4332.692383,4213.461426,4257.563965,4005.641113,4201.538574,4243.461426,4196.410156,4520.256348,4494.102539,4378.589844,4437.179688,0.0,1.0,15.0,,,,0.0,4.0,4.0,4.0,4.0,4.0,4.0,4.0,4.0,4.0,4.0,4.0,4.0,4.0,4.0,100.0,,,,,,,,,,,,,,,,,,,,,,,,,,,,,,,,,,,,,,,,,,,,,,,,,,,,,,,,,,,,,,,,,,,,,,,,,,,,,,,,,,,,,,,,,,,,,,,,,,,,,,,,,,,,,,,,,,,,,,,,,,,,,,,,,,,
1725710427.587103,1725710427.588189,94.0,0.0,4251.410156,4246.538574,4309.230957,4327.692383,4213.461426,4254.102539,4006.153809,4202.307617,4245.641113,4197.05127,4519.358887,4493.077148,4371.538574,4434.487305,0.0,1.0,15.0,,,,0.0,4.0,4.0,4.0,4.0,4.0,4.0,4.0,4.0,4.0,4.0,4.0,4.0,4.0,4.0,100.0,,,,,,,,,,,,,,,,,,,,,,,,,,,,,,,,,,,,,,,,,,,,,,,,,,,,,,,,,,,,,,,,,,,,,,,,,,,,,,,,,,,,,,,,,,,,,,,,,,,,,,,,,,,,,,,,,,,,,,,,,,,,,,,,,,,
1725710427.591008,1725710427.592093,95.0,0.0,4249.230957,4247.307617,4309.102539,4323.333496,4209.487305,4251.282227,4005.897461,4203.717773,4245.384766,4198.077148,4521.282227,4492.94873,4365.0,4434.871582,0.0,1.0,15.0,,,,0.0,4.0,4.0,4.0,4.0,4.0,4.0,4.0,4.0,4.0,4.0,4.0,4.0,4.0,4.0,100.0,,,,,,,,,,,,,,,,,,,,,,,,,,,,,,,,,,,,,,,,,,,,,,,,,,,,,,,,,,,,,,,,,,,,,,,,,,,,,,,,,,,,,,,,,,,,,,,,,,,,,,,,,,,,,,,,,,,,,,,,,,,,,,,,,,,
1725710427.594912,1725710427.595997,96.0,0.0,4250.384766,4248.974121,4309.358887,4321.410156,4203.974121,4249.871582,4004.358887,4203.717773,4242.307617,4198.974121,4523.205078,4492.692383,4362.179688,4437.94873,0.0,1.0,15.0,,,,0.0,4.0,4.0,4.0,4.0,4.0,4.0,4.0,4.0,4.0,4.0,4.0,4.0,4.0,4.0,100.0,,,,,,,,,,,,,,,,,,,,,,,,,,,,,,,,,,,,,,,,,,,,,,,,,,,,,,,,0.0,0.0,1.0,0.0,2048.0,0.0,,,,,,,,,,,,,,,,,,,,,,,,,,,,,,,,,,,,,,,,,,,,,,,,,,,,,,,,,,,,,,,,,,,,,,
1725710427.598816,1725710427.599801,97.0,0.0,4253.461426,4250.0,4308.974121,4322.05127,4200.384766,4250.256348,4002.564209,4201.922852,4238.333496,4199.615234,4522.94873,4491.794922,4364.102539,4441.538574,0.0,1.0,15.0,,,,0.0,4.0,4.0,4.0,4.0,4.0,4.0,4.0,4.0,4.0,4.0,4.0,4.0,4.0,4.0,100.0,,,,,,,,,,,,,,,,,,,,,,,,,,,,,,,,,,,,,,,,,,,,,,,,,,,,,,,,,,,,,,,,,,,,,,,,,,,,,,,,,,,,,,,,,,,,,,,,,,,,,,,,,,,,,,,,,,,,,,,,,,,,,,,,,,,
1725710427.60272,1725710427.603705,98.0,0.0,4257.05127,4249.487305,4307.820313,4323.974121,4200.512695,4251.794922,4001.794922,4198.846191,4236.025879,4200.0,4520.769043,4490.512695,4369.871582,4442.94873,0.0,1.0,15.0,,,,0.0,4.0,4.0,4.0,4.0,4.0,4.0,4.0,4.0,4.0,4.0,4.0,4.0,4.0,4.0,100.0,,,,,,,,,,,,,,,,,,,,,,,,,,,,,,,,,,,,,,,,,,,,,,,,,,,,,,,,,,,,,,,,,,,,,,,,,,,,,,,,,,,,,,,,,,,,,,,,,,,,,,,,,,,,,,,,,,,,,,,,,,,,,,,,,,,
1725710427.606624,1725710427.60761,99.0,0.0,4260.0,4248.461426,4306.666504,4325.641113,4203.205078,4253.589844,4002.179443,4196.666504,4236.794922,4199.871582,4518.461426,4490.128418,4376.666504,4440.641113,0.0,1.0,15.0,,,,0.0,4.0,4.0,4.0,4.0,4.0,4.0,4.0,4.0,4.0,4.0,4.0,4.0,4.0,4.0,100.0,,,,,,,,,,,,,,,,,,,,,,,,,,,,,,,,,,,,,,,,,,,,,,,,,,,,,,,,,,,,,,,,,,,,,,,,,,,,,,,,,,,,,,,,,,,,,,,,,,,,,,,,,,,,,,,,,,,,,,,,,,,,,,,,,,,
1725710427.610528,1725710427.611414,100.0,0.0,4262.05127,4248.205078,4306.794922,4326.153809,4205.512695,4254.102539,4001.794922,4196.410156,4239.102539,4199.230957,4517.436035,4491.025879,4381.538574,4436.025879,0.0,1.0,15.0,,,,0.0,4.0,4.0,4.0,4.0,4.0,4.0,4.0,4.0,4.0,4.0,4.0,4.0,4.0,4.0,100.0,,,,,,,,,,,,,,,,,,,,,,,,,,,,,,,,,,,,,,,,,,,,,,,,,,,,,,,,,,,,,,,,,,,,,,,,,,,,,,,,,,,,,,,,,,,,,,,,,,,,,,,,,,,,,,,,,,,,,,,,,,,,,,,,,,,
1725710427.614432,1725710427.615318,101.0,0.0,4262.820313,4248.974121,4308.333496,4325.897461,4205.641113,4252.692383,3999.487061,4197.563965,4240.384766,4198.333496,4518.461426,4492.179688,4382.94873,4432.05127,0.0,1.0,15.0,,,,0.0,4.0,4.0,4.0,4.0,4.0,4.0,4.0,4.0,4.0,4.0,4.0,4.0,4.0,4.0,100.0,,,,,,,,,,,,,,,,,,,,,,,,,,,,,,,,,,,,,,,,,,,,,,,,,,,,,,,,,,,,,,,,,,,,,,,,,,,,,,,,,,,,,,,,,,,,,,,,,,,,,,,,,,,,,,,,,,,,,,,,,,,,,,,,,,,
1725710427.618336,1725710427.619222,102.0,0.0,4262.05127,4249.743652,4310.256348,4325.512695,4204.230957,4250.0,3995.641113,4198.333496,4238.846191,4197.179688,4520.641113,4491.794922,4381.666504,4430.897461,0.0,1.0,15.0,,,,0.0,4.0,4.0,4.0,4.0,4.0,4.0,4.0,4.0,4.0,4.0,4.0,4.0,4.0,4.0,100.0,,,,,,,,,,,,,,,,,,,,,,,,,,,,,,,,,,,,,,,,,,,,,,,,,,,,,,,,,,,,,,,,,,,,,,,,,,,,,,,,,,,,,,,,,,,,,,,,,,,,,,,,,,,,,,,,,,,,,,,,,,,,,,,,,,,
1725710427.62224,1725710427.623126,103.0,0.0,4259.871582,4249.871582,4310.897461,4324.743652,4203.205078,4247.692383,3991.794922,4197.820313,4235.256348,4196.025879,4522.820313,4489.230957,4379.615234,4432.820313,0.0,1.0,15.0,,,,0.0,4.0,4.0,4.0,4.0,4.0,4.0,4.0,4.0,4.0,4.0,4.0,4.0,4.0,4.0,100.0,,,,,,,,,,,,,,,,,,,,,,,,,,,,,,,,,,,,,,,,,,,,,,,,,,,,,,,,,,,,,,,,,,,,,,,,,,,,,,,,,,,,,,,,,,,,,,,,,,,,,,,,,,,,,,,,,,,,,,,,,,,,,,,,,,,
1725710427.626145,1725710427.62693,104.0,0.0,4256.794922,4249.230957,4309.615234,4322.94873,4203.589844,4247.307617,3989.487061,4197.05127,4232.05127,4196.153809,4523.974121,4486.025879,4378.589844,4436.025879,0.0,1.0,15.0,,,,0.0,4.0,4.0,4.0,4.0,4.0,4.0,4.0,4.0,4.0,4.0,4.0,4.0,4.0,4.0,100.0,,,,,,,,,,,,,,,,,,,,,,,,,,,,,,,,,,,,,,,,,,,,,,,,,,,,,,,,0.0,0.0,1.0,0.0,2048.0,0.0,,,,,,,,,,,,,,,,,,,,,,,,,,,,,,,,,,,,,,,,,,,,,,,,,,,,,,,,,,,,,,,,,,,,,,
1725710427.630049,1725710427.630834,105.0,0.0,4254.102539,4248.974121,4307.307617,4319.871582,4204.743652,4248.846191,3988.718018,4197.05127,4231.282227,4198.333496,4523.846191,4484.487305,4378.974121,4438.589844,0.0,1.0,15.0,,,,0.0,4.0,4.0,4.0,4.0,4.0,4.0,4.0,4.0,4.0,4.0,4.0,4.0,4.0,4.0,100.0,,,,,,,,,,,,,,,,,,,,,,,,,,,,,,,,,,,,,,,,,,,,,,,,,,,,,,,,,,,,,,,,,,,,,,,,,,,,,,,,,,,,,,,,,,,,,,,,,,,,,,,,,,,,,,,,,,,,,,,,,,,,,,,,,,,
1725710427.633953,1725710427.634738,106.0,0.0,4252.820313,4249.487305,4305.384766,4317.179688,4205.256348,4251.025879,3988.974365,4197.692383,4233.205078,4201.666504,4523.077148,4485.512695,4380.128418,4439.871582,0.0,1.0,15.0,,,,0.0,4.0,4.0,4.0,4.0,4.0,4.0,4.0,4.0,4.0,4.0,4.0,4.0,4.0,4.0,100.0,,,,,,,,,,,,,,,,,,,,,,,,,,,,,,,,,,,,,,,,,,,,,,,,,,,,,,,,,,,,,,,,,,,,,,,,,,,,,,,,,,,,,,,,,,,,,,,,,,,,,,,,,,,,,,,,,,,,,,,,,,,,,,,,,,,
1725710427.637857,1725710427.638742,107.0,0.0,4253.717773,4250.384766,4304.871582,4317.179688,4204.871582,4252.179688,3990.0,4198.077148,4235.641113,4203.589844,4522.179688,4488.589844,4381.282227,4440.641113,0.0,1.0,15.0,,,,0.0,4.0,4.0,4.0,4.0,4.0,4.0,4.0,4.0,4.0,4.0,4.0,4.0,4.0,4.0,100.0,,,,,,,,,,,,,,,,,,,,,,,,,,,,,,,,,,,,,,,,,,,,,,,,,,,,,,,,,,,,,,,,,,,,,,,,,,,,,,,,,,,,,,,,,,,,,,,,,,,,,,,,,,,,,,,,,,,,,,,,,,,,,,,,,,,
1725710427.641761,1725710427.642647,108.0,0.0,4256.410156,4250.897461,4305.769043,4320.256348,4203.846191,4251.794922,3991.281982,4197.436035,4236.538574,4202.05127,4522.05127,4491.538574,4381.922852,4441.794922,0.0,1.0,15.0,,,,0.0,4.0,4.0,4.0,4.0,4.0,4.0,4.0,4.0,4.0,4.0,4.0,4.0,4.0,4.0,100.0,,,,,,,,,,,,,,,,,,,,,,,,,,,,,,,,,,,,,,,,,,,,,,,,,,,,,,,,,,,,,,,,,,,,,,,,,,,,,,,,,,,,,,,,,,,,,,,,,,,,,,,,,,,,,,,,,,,,,,,,,,,,,,,,,,,
1725710427.645665,1725710427.646551,109.0,0.0,4259.358887,4250.897461,4306.794922,4324.743652,4202.820313,4250.256348,3992.692383,4196.922852,4235.384766,4197.436035,4523.205078,4492.94873,4382.307617,4443.461426,0.0,1.0,15.0,,,,0.0,4.0,4.0,4.0,4.0,4.0,4.0,4.0,4.0,4.0,4.0,4.0,4.0,4.0,4.0,100.0,,,,,,,,,,,,,,,,,,,,,,,,,,,,,,,,,,,,,,,,,,,,,,,,,,,,,,,,,,,,,,,,,,,,,,,,,,,,,,,,,,,,,,,,,,,,,,,,,,,,,,,,,,,,,,,,,,,,,,,,,,,,,,,,,,,
1725710427.649569,1725710427.650455,110.0,0.0,4260.641113,4251.025879,4307.307617,4328.077148,4201.922852,4248.333496,3993.974365,4197.94873,4234.102539,4192.820313,4525.0,4492.307617,4383.077148,4444.487305,0.0,1.0,15.0,,,,0.0,4.0,4.0,4.0,4.0,4.0,4.0,4.0,4.0,4.0,4.0,4.0,4.0,4.0,4.0,100.0,,,,,,,,,,,,,,,,,,,,,,,,,,,,,,,,,,,,,,,,,,,,,,,,,,,,,,,,,,,,,,,,,,,,,,,,,,,,,,,,,,,,,,,,,,,,,,,,,,,,,,,,,,,,,,,,,,,,,,,,,,,,,,,,,,,
1725710427.653473,1725710427.654459,111.0,0.0,4259.743652,4251.025879,4306.666504,4328.461426,4201.282227,4246.666504,3994.230713,4200.128418,4234.487305,4191.410156,4525.512695,4489.871582,4383.461426,4443.717773,0.0,1.0,15.0,,,,0.0,4.0,4.0,4.0,4.0,4.0,4.0,4.0,4.0,4.0,4.0,4.0,4.0,4.0,4.0,100.0,,,,,,,,,,,,,,,,,,,,,,,,,,,,,,,,,,,,,,,,,,,,,,,,,,,,,,,,,,,,,,,,,,,,,,,,,,,,,,,,,,,,,,,,,,,,,,,,,,,,,,,,,,,,,,,,,,,,,,,,,,,,,,,,,,,
1725710427.657377,1725710427.658363,112.0,0.0,4257.179688,4250.512695,4305.897461,4326.025879,4200.769043,4245.897461,3993.333252,4201.410156,4236.538574,4193.589844,4522.179688,4486.282227,4382.307617,4441.282227,0.0,1.0,15.0,,,,0.0,4.0,4.0,4.0,4.0,4.0,4.0,4.0,4.0,4.0,4.0,4.0,4.0,4.0,4.0,100.0,,,,,,,,,,,,,,,,,1.0,0.0,0.0,,,,,,,,,,,,,,,,,,,,,,,,,,,,,,,,,,,,,0.0,0.0,1.0,0.0,2048.0,0.0,1.929659,1.519374,0.414958,0.164324,0.037439,1.617034,0.89047,0.636459,0.464713,0.098994,2.124734,1.057317,0.291257,0.10725,0.046445,1.358521,1.557615,0.434599,0.080626,0.146546,0.556246,0.537015,0.17358,0.109989,0.088384,0.280266,0.498997,0.256559,0.089128,0.044322,4.267776,0.61119,0.145727,0.106849,0.08179,0.382004,0.897514,0.318832,0.204046,0.09817,0.555969,0.940316,0.457925,0.341613,0.146952,1.094863,0.909019,0.355026,0.380289,0.188965,3.91317,2.924536,1.096104,1.122496,0.595885,3.741832,3.316968,0.837009,0.336894,0.156267,3.567917,2.485125,2.062456,0.71676,0.322733,3.495292,2.376637,0.870667,0.381918,0.126197
1725710427.661281,1725710427.662267,113.0,0.0,4254.358887,4249.102539,4305.512695,4322.436035,4200.512695,4245.641113,3991.281982,4199.487305,4237.820313,4197.307617,4514.615234,4482.179688,4378.717773,4437.692383,0.0,1.0,15.0,,,,0.0,4.0,4.0,4.0,4.0,4.0,4.0,4.0,4.0,4.0,4.0,4.0,4.0,4.0,4.0,100.0,,,,,,,,,,,,,,,,,,,,,,,,,,,,,,,,,,,,,,,,,,,,,,,,,,,,,,,,,,,,,,,,,,,,,,,,,,,,,,,,,,,,,,,,,,,,,,,,,,,,,,,,,,,,,,,,,,,,,,,,,,,,,,,,,,,
1725710427.665186,1725710427.666171,114.0,0.0,4252.179688,4247.307617,4305.641113,4320.384766,4200.512695,4245.769043,3988.846191,4194.358887,4236.282227,4199.487305,4505.897461,4478.077148,4372.692383,4434.230957,0.0,1.0,15.0,,,,0.0,4.0,4.0,4.0,4.0,4.0,4.0,4.0,4.0,4.0,4.0,4.0,4.0,4.0,4.0,100.0,,,,,,,,,,,,,,,,,,,,,,,,,,,,,,,,,,,,,,,,,,,,,,,,,,,,,,,,,,,,,,,,,,,,,,,,,,,,,,,,,,,,,,,,,,,,,,,,,,,,,,,,,,,,,,,,,,,,,,,,,,,,,,,,,,,
1725710427.66909,1725710427.670175,115.0,0.0,4250.897461,4246.153809,4305.384766,4321.025879,4200.897461,4246.410156,3987.564209,4188.717773,4233.333496,4199.358887,4500.897461,4475.0,4365.769043,4431.666504,0.0,1.0,15.0,,,,0.0,4.0,4.0,4.0,4.0,4.0,4.0,4.0,4.0,4.0,4.0,4.0,4.0,4.0,4.0,100.0,,,,,,,,,,,,,,,,,,,,,,,,,,,,,,,,,,,,,,,,,,,,,,,,,,,,,,,,,,,,,,,,,,,,,,,,,,,,,,,,,,,,,,,,,,,,,,,,,,,,,,,,,,,,,,,,,,,,,,,,,,,,,,,,,,,
1725710427.672994,1725710427.674079,116.0,0.0,4250.384766,4246.666504,4303.846191,4323.589844,4201.666504,4247.307617,3988.974365,4186.153809,4231.666504,4198.333496,4503.333496,4474.743652,4361.410156,4430.512695,0.0,1.0,15.0,,,,0.0,4.0,4.0,4.0,4.0,4.0,4.0,4.0,4.0,4.0,4.0,4.0,4.0,4.0,4.0,100.0,,,,,,,,,,,,,,,,,,,,,,,,,,,,,,,,,,,,,,,,,,,,,,,,,,,,,,,,,,,,,,,,,,,,,,,,,,,,,,,,,,,,,,,,,,,,,,,,,,,,,,,,,,,,,,,,,,,,,,,,,,,,,,,,,,,
1725710427.676898,1725710427.677983,117.0,0.0,4250.128418,4248.461426,4301.282227,4325.0,4202.563965,4248.077148,3992.820557,4188.461426,4233.589844,4198.333496,4512.307617,4478.205078,4361.794922,4430.256348,0.0,1.0,15.0,,,,0.0,4.0,4.0,4.0,4.0,4.0,4.0,4.0,4.0,4.0,4.0,4.0,4.0,4.0,4.0,100.0,,,,,,,,,,,,,,,,,,,,,,,,,,,,,,,,,,,,,,,,,,,,,,,,,,,,,,,,,,,,,,,,,,,,,,,,,,,,,,,,,,,,,,,,,,,,,,,,,,,,,,,,,,,,,,,,,,,,,,,,,,,,,,,,,,,
1725710427.680802,1725710427.681887,118.0,0.0,4250.0,4250.897461,4298.589844,4323.333496,4202.94873,4247.94873,3997.435791,4194.487305,4238.333496,4199.230957,4522.94873,4484.487305,4367.179688,4430.384766,0.0,1.0,15.0,,,,0.0,4.0,4.0,4.0,4.0,4.0,4.0,4.0,4.0,4.0,4.0,4.0,4.0,4.0,4.0,100.0,,,,,,,,,,,,,,,,,,,,,,,,,,,,,,,,,,,,,,,,,,,,,,,,,,,,,,,,,,,,,,,,,,,,,,,,,,,,,,,,,,,,,,,,,,,,,,,,,,,,,,,,,,,,,,,,,,,,,,,,,,,,,,,,,,,
1725710427.684706,1725710427.685792,119.0,0.0,4249.871582,4252.436035,4297.179688,4318.333496,4202.563965,4247.05127,4000.769287,4200.512695,4242.94873,4198.717773,4528.846191,4490.384766,4374.871582,4430.512695,0.0,1.0,15.0,,,,0.0,4.0,4.0,4.0,4.0,4.0,4.0,4.0,4.0,4.0,4.0,4.0,4.0,4.0,4.0,100.0,,,,,,,,,,,,,,,,,,,,,,,,,,,,,,,,,,,,,,,,,,,,,,,,,,,,,,,,,,,,,,,,,,,,,,,,,,,,,,,,,,,,,,,,,,,,,,,,,,,,,,,,,,,,,,,,,,,,,,,,,,,,,,,,,,,
1725710427.68861,1725710427.689596,120.0,0.0,4249.615234,4252.307617,4297.94873,4312.820313,4201.794922,4246.666504,4002.05127,4203.461426,4244.102539,4195.897461,4526.538574,4492.436035,4380.897461,4430.512695,0.0,1.0,15.0,,,,0.0,4.0,4.0,4.0,4.0,4.0,4.0,4.0,4.0,4.0,4.0,4.0,4.0,4.0,4.0,100.0,,,,,,,,,,,,,,,,,,,,,,,,,,,,,,,,,,,,,,,,,,,,,,,,,,,,,,,,0.0,0.0,1.0,0.0,2048.0,0.0,,,,,,,,,,,,,,,,,,,,,,,,,,,,,,,,,,,,,,,,,,,,,,,,,,,,,,,,,,,,,,,,,,,,,,
1725710427.692514,1725710427.6935,121.0,0.0,4249.230957,4250.641113,4299.871582,4309.871582,4200.897461,4247.436035,4002.179443,4202.436035,4241.666504,4191.538574,4517.436035,4489.615234,4383.077148,4430.384766,0.0,1.0,15.0,,,,0.0,4.0,4.0,4.0,4.0,4.0,4.0,4.0,4.0,4.0,4.0,4.0,4.0,4.0,4.0,100.0,,,,,,,,,,,,,,,,,,,,,,,,,,,,,,,,,,,,,,,,,,,,,,,,,,,,,,,,,,,,,,,,,,,,,,,,,,,,,,,,,,,,,,,,,,,,,,,,,,,,,,,,,,,,,,,,,,,,,,,,,,,,,,,,,,,
1725710427.696418,1725710427.697404,122.0,0.0,4249.102539,4248.461426,4301.153809,4310.897461,4200.897461,4248.974121,4002.692383,4198.461426,4237.94873,4187.436035,4506.794922,4484.102539,4380.897461,4430.0,0.0,1.0,15.0,,,,0.0,4.0,4.0,4.0,4.0,4.0,4.0,4.0,4.0,4.0,4.0,4.0,4.0,4.0,4.0,100.0,,,,,,,,,,,,,,,,,,,,,,,,,,,,,,,,,,,,,,,,,,,,,,,,,,,,,,,,,,,,,,,,,,,,,,,,,,,,,,,,,,,,,,,,,,,,,,,,,,,,,,,,,,,,,,,,,,,,,,,,,,,,,,,,,,,
1725710427.700322,1725710427.701208,123.0,0.0,4249.615234,4247.05127,4300.641113,4314.871582,4201.794922,4249.871582,4004.615479,4193.846191,4235.384766,4184.871582,4500.128418,4478.974121,4376.025879,4429.358887,0.0,1.0,15.0,,,,0.0,4.0,4.0,4.0,4.0,4.0,4.0,4.0,4.0,4.0,4.0,4.0,4.0,4.0,4.0,100.0,,,,,,,,,,,,,,,,,,,,,,,,,,,,,,,,,,,,,,,,,,,,,,,,,,,,,,,,,,,,,,,,,,,,,,,,,,,,,,,,,,,,,,,,,,,,,,,,,,,,,,,,,,,,,,,,,,,,,,,,,,,,,,,,,,,
1725710427.704226,1725710427.705112,124.0,0.0,4250.256348,4246.666504,4298.333496,4318.974121,4202.94873,4248.717773,4007.820557,4190.0,4233.846191,4183.333496,4499.358887,4476.282227,4370.897461,4428.589844,0.0,1.0,15.0,,,,0.0,4.0,4.0,4.0,4.0,4.0,4.0,4.0,4.0,4.0,4.0,4.0,4.0,4.0,4.0,100.0,,,,,,,,,,,,,,,,,,,,,,,,,,,,,,,,,,,,,,,,,,,,,,,,,,,,,,,,,,,,,,,,,,,,,,,,,,,,,,,,,,,,,,,,,,,,,,,,,,,,,,,,,,,,,,,,,,,,,,,,,,,,,,,,,,,
1725710427.70813,1725710427.709016,125.0,0.0,4250.384766,4247.307617,4295.512695,4320.512695,4203.461426,4245.641113,4011.281982,4186.794922,4231.922852,4180.897461,4502.05127,4475.256348,4367.94873,4427.94873,0.0,1.0,15.0,,,,0.0,4.0,4.0,4.0,4.0,4.0,4.0,4.0,4.0,4.0,4.0,4.0,4.0,4.0,4.0,100.0,,,,,,,,,,,,,,,,,,,,,,,,,,,,,,,,,,,,,,,,,,,,,,,,,,,,,,,,,,,,,,,,,,,,,,,,,,,,,,,,,,,,,,,,,,,,,,,,,,,,,,,,,,,,,,,,,,,,,,,,,,,,,,,,,,,
1725710427.712035,1725710427.71292,126.0,0.0,4249.743652,4248.077148,4293.461426,4318.589844,4203.077148,4242.05127,4013.974365,4183.974121,4228.077148,4177.179688,4504.615234,4474.743652,4367.692383,4427.692383,0.0,1.0,15.0,,,,0.0,4.0,4.0,4.0,4.0,4.0,4.0,4.0,4.0,4.0,4.0,4.0,4.0,4.0,4.0,100.0,,,,,,,,,,,,,,,,,,,,,,,,,,,,,,,,,,,,,,,,,,,,,,,,,,,,,,,,,,,,,,,,,,,,,,,,,,,,,,,,,,,,,,,,,,,,,,,,,,,,,,,,,,,,,,,,,,,,,,,,,,,,,,,,,,,
1725710427.715939,1725710427.716725,127.0,0.0,4249.358887,4248.333496,4292.820313,4314.615234,4202.179688,4240.128418,4016.025635,4181.794922,4223.589844,4173.717773,4505.128418,4474.615234,4368.846191,4427.820313,0.0,1.0,15.0,,,,0.0,4.0,4.0,4.0,4.0,4.0,4.0,4.0,4.0,4.0,4.0,4.0,4.0,4.0,4.0,100.0,,,,,,,,,,,,,,,,,,,,,,,,,,,,,,,,,,,,,,,,,,,,,,,,,,,,,,,,,,,,,,,,,,,,,,,,,,,,,,,,,,,,,,,,,,,,,,,,,,,,,,,,,,,,,,,,,,,,,,,,,,,,,,,,,,,
1725710427.719843,1725710427.720629,128.0,0.0,4249.871582,4248.461426,4293.077148,4310.897461,4201.410156,4240.897461,4018.461426,4181.538574,4220.897461,4173.717773,4503.974121,4475.384766,4368.589844,4428.461426,2712.0,1.0,15.0,,,,0.0,4.0,4.0,4.0,4.0,4.0,4.0,4.0,4.0,4.0,4.0,4.0,4.0,4.0,4.0,100.0,,,,,,,,,,,,,,,,,,,,,,,,,,,,,,,,,,,,,,,,,,,,,,,,,,,,,,,,0.0,0.0,1.0,0.0,2048.0,0.0,,,,,,,,,,,,,,,,,,,,,,,,,,,,,,,,,,,,,,,,,,,,,,,,,,,,,,,,,,,,,,,,,,,,,,
1725710427.723747,1725710427.724533,129.0,0.0,4250.897461,4248.846191,4293.589844,4309.615234,4201.153809,4243.461426,4022.692383,4183.461426,4221.153809,4178.205078,4503.333496,4477.820313,4365.384766,4429.230957,2583.0,1.0,15.0,,,,0.0,4.0,4.0,4.0,4.0,4.0,4.0,4.0,4.0,4.0,4.0,4.0,4.0,4.0,4.0,100.0,,,,,,,,,,,,,,,,,,,,,,,,,,,,,,,,,,,,,,,,,,,,,,,,,,,,,,,,,,,,,,,,,,,,,,,,,,,,,,,,,,,,,,,,,,,,,,,,,,,,,,,,,,,,,,,,,,,,,,,,,,,,,,,,,,,
1725710427.727651,1725710427.728437,130.0,0.0,4251.538574,4249.615234,4293.974121,4311.153809,4201.666504,4245.769043,4028.846191,4186.282227,4223.077148,4184.615234,4504.102539,4481.153809,4360.384766,4429.615234,2510.0,1.0,15.0,,,,0.0,4.0,4.0,4.0,4.0,4.0,4.0,4.0,4.0,4.0,4.0,4.0,4.0,4.0,4.0,100.0,,,,,,,,,,,,,,,,,,,,,,,,,,,,,,,,,,,,,,,,,,,,,,,,,,,,,,,,,,,,,,,,,,,,,,,,,,,,,,,,,,,,,,,,,,,,,,,,,,,,,,,,,,,,,,,,,,,,,,,,,,,,,,,,,,,
1725710427.731555,1725710427.732241,131.0,0.0,4251.410156,4250.512695,4294.230957,4314.230957,4202.436035,4246.538574,4035.512939,4187.692383,4224.102539,4188.974121,4505.384766,4483.717773,4356.025879,4429.615234,2478.0,1.0,15.0,,,,0.0,4.0,4.0,4.0,4.0,4.0,4.0,4.0,4.0,4.0,4.0,4.0,4.0,4.0,4.0,100.0,,,,,,,,,,,,,,,,,,,,,,,,,,,,,,,,,,,,,,,,,,,,,,,,,,,,,,,,,,,,,,,,,,,,,,,,,,,,,,,,,,,,,,,,,,,,,,,,,,,,,,,,,,,,,,,,,,,,,,,,,,,,,,,,,,,
1725710427.735459,1725710427.736145,132.0,0.0,4250.641113,4251.282227,4294.230957,4317.05127,4202.94873,4246.410156,4041.281982,4186.666504,4222.307617,4189.102539,4505.641113,4483.846191,4355.384766,4429.102539,2446.0,1.0,15.0,,,,0.0,4.0,4.0,4.0,4.0,4.0,4.0,4.0,4.0,4.0,4.0,4.0,4.0,4.0,4.0,100.0,,,,,,,,,,,,,,,,,,,,,,,,,,,,,,,,,,,,,,,,,,,,,,,,,,,,,,,,,,,,,,,,,,,,,,,,,,,,,,,,,,,,,,,,,,,,,,,,,,,,,,,,,,,,,,,,,,,,,,,,,,,,,,,,,,,
1725710427.739363,1725710427.740049,133.0,0.0,4249.871582,4251.410156,4293.846191,4318.589844,4203.077148,4246.666504,4044.743652,4184.358887,4218.333496,4185.897461,4504.487305,4481.538574,4358.846191,4428.333496,2411.0,1.0,15.0,,,,0.0,4.0,4.0,4.0,4.0,4.0,4.0,4.0,4.0,4.0,4.0,4.0,4.0,4.0,4.0,100.0,,,,,,,,,,,,,,,,,,,,,,,,,,,,,,,,,,,,,,,,,,,,,,,,,,,,,,,,,,,,,,,,,,,,,,,,,,,,,,,,,,,,,,,,,,,,,,,,,,,,,,,,,,,,,,,,,,,,,,,,,,,,,,,,,,,
1725710427.743267,1725710427.744053,134.0,0.0,4249.743652,4250.897461,4292.179688,4318.717773,4202.820313,4247.94873,4046.281982,4182.692383,4215.0,4182.307617,4502.94873,4478.333496,4364.487305,4427.94873,2434.0,1.0,15.0,,,,0.0,4.0,4.0,4.0,4.0,4.0,4.0,4.0,4.0,4.0,4.0,4.0,4.0,4.0,4.0,100.0,,,,,,,,,,,,,,,,,,,,,,,,,,,,,,,,,,,,,,,,,,,,,,,,,,,,,,,,,,,,,,,,,,,,,,,,,,,,,,,,,,,,,,,,,,,,,,,,,,,,,,,,,,,,,,,,,,,,,,,,,,,,,,,,,,,
1725710427.747172,1725710427.747958,135.0,0.0,4250.641113,4250.128418,4289.487305,4318.205078,4202.692383,4248.717773,4047.820557,4182.563965,4214.615234,4180.897461,4502.563965,4476.153809,4369.230957,4428.077148,2498.0,1.0,15.0,,,,0.0,4.0,4.0,4.0,4.0,4.0,4.0,4.0,4.0,4.0,4.0,4.0,4.0,4.0,4.0,100.0,,,,,,,,,,,,,,,,,,,,,,,,,,,,,,,,,,,,,,,,,,,,,,,,,,,,,,,,,,,,,,,,,,,,,,,,,,,,,,,,,,,,,,,,,,,,,,,,,,,,,,,,,,,,,,,,,,,,,,,,,,,,,,,,,,,
1725710427.751076,1725710427.751862,136.0,0.0,4251.922852,4249.615234,4287.307617,4318.461426,4202.563965,4246.666504,4051.153809,4182.94873,4216.922852,4182.436035,4503.333496,4476.153809,4370.769043,4428.717773,2481.0,1.0,15.0,,,,0.0,4.0,4.0,4.0,4.0,4.0,4.0,4.0,4.0,4.0,4.0,4.0,4.0,4.0,4.0,100.0,,,,,,,,,,,,,,,,,,,,,,,,,,,,,,,,,,,,,,,,,,,,,,,,,,,,,,,,0.0,0.0,1.0,0.0,2048.0,0.0,,,,,,,,,,,,,,,,,,,,,,,,,,,,,,,,,,,,,,,,,,,,,,,,,,,,,,,,,,,,,,,,,,,,,,
1725710427.75498,1725710427.755766,137.0,0.0,4252.820313,4249.743652,4286.922852,4319.615234,4202.436035,4241.410156,4057.05127,4183.077148,4219.230957,4185.0,4504.615234,4477.820313,4369.102539,4429.615234,2560.0,1.0,15.0,,,,0.0,4.0,4.0,4.0,4.0,4.0,4.0,4.0,4.0,4.0,4.0,4.0,4.0,4.0,4.0,100.0,,,,,,,,,,,,,,,,,,,,,,,,,,,,,,,,,,,,,,,,,,,,,,,,,,,,,,,,,,,,,,,,,,,,,,,,,,,,,,,,,,,,,,,,,,,,,,,,,,,,,,,,,,,,,,,,,,,,,,,,,,,,,,,,,,,
1725710427.758884,1725710427.75977,138.0,0.0,4252.563965,4250.512695,4288.205078,4321.410156,4202.05127,4235.384766,4064.615479,4183.077148,4219.871582,4186.153809,4505.641113,4479.102539,4366.410156,4430.256348,2917.0,1.0,15.0,,,,0.0,4.0,4.0,4.0,4.0,4.0,4.0,4.0,4.0,4.0,4.0,4.0,4.0,4.0,4.0,100.0,,,,,,,,,,,,,,,,,,,,,,,,,,,,,,,,,,,,,,,,,,,,,,,,,,,,,,,,,,,,,,,,,,,,,,,,,,,,,,,,,,,,,,,,,,,,,,,,,,,,,,,,,,,,,,,,,,,,,,,,,,,,,,,,,,,
1725710427.762788,1725710427.763674,139.0,0.0,4251.410156,4251.282227,4289.871582,4322.820313,4201.922852,4232.179688,4071.923096,4184.358887,4219.358887,4185.256348,4506.794922,4478.717773,4365.256348,4430.384766,3151.0,1.0,15.0,,,,0.0,4.0,4.0,4.0,4.0,4.0,4.0,4.0,4.0,4.0,4.0,4.0,4.0,4.0,4.0,100.0,,,,,,,,,,,,,,,,,,,,,,,,,,,,,,,,,,,,,,,,,,,,,,,,,,,,,,,,,,,,,,,,,,,,,,,,,,,,,,,,,,,,,,,,,,,,,,,,,,,,,,,,,,,,,,,,,,,,,,,,,,,,,,,,,,,
1725710427.766692,1725710427.767578,140.0,0.0,4250.0,4251.410156,4290.128418,4322.563965,4202.563965,4233.846191,4077.307617,4187.563965,4220.0,4183.589844,4507.94873,4477.05127,4366.538574,4430.256348,3430.0,1.0,15.0,,,,0.0,4.0,4.0,4.0,4.0,4.0,4.0,4.0,4.0,4.0,4.0,4.0,4.0,4.0,4.0,100.0,,,,,,,,,,,,,,,,,,,,,,,,,,,,,,,,,,,,,,,,,,,,,,,,,,,,,,,,,,,,,,,,,,,,,,,,,,,,,,,,,,,,,,,,,,,,,,,,,,,,,,,,,,,,,,,,,,,,,,,,,,,,,,,,,,,
1725710427.770596,1725710427.771482,141.0,0.0,4249.102539,4250.384766,4288.205078,4320.641113,4203.846191,4239.230957,4080.384521,4191.922852,4222.820313,4182.820313,4508.461426,4475.769043,4369.358887,4429.871582,3937.0,1.0,15.0,,,,0.0,4.0,4.0,4.0,4.0,4.0,4.0,4.0,4.0,4.0,4.0,4.0,4.0,4.0,4.0,100.0,,,,,,,,,,,,,,,,,,,,,,,,,,,,,,,,,,,,,,,,,,,,,,,,,,,,,,,,,,,,,,,,,,,,,,,,,,,,,,,,,,,,,,,,,,,,,,,,,,,,,,,,,,,,,,,,,,,,,,,,,,,,,,,,,,,
1725710427.7745,1725710427.775486,142.0,0.0,4248.846191,4248.846191,4285.0,4317.820313,4204.615234,4244.615234,4081.666748,4195.897461,4227.307617,4183.717773,4508.205078,4476.538574,4371.922852,4429.487305,2917.0,1.0,15.0,,,,0.0,4.0,4.0,4.0,4.0,4.0,4.0,4.0,4.0,4.0,4.0,4.0,4.0,4.0,4.0,100.0,,,,,,,,,,,,,,,,,,,,,,,,,,,,,,,,,,,,,,,,,,,,,,,,,,,,,,,,,,,,,,,,,,,,,,,,,,,,,,,,,,,,,,,,,,,,,,,,,,,,,,,,,,,,,,,,,,,,,,,,,,,,,,,,,,,
1725710427.778404,1725710427.77939,143.0,0.0,4249.230957,4247.436035,4281.794922,4316.282227,4203.974121,4247.179688,4082.820557,4198.717773,4231.794922,4186.922852,4508.077148,4479.871582,4373.589844,4429.102539,3151.0,1.0,15.0,,,,0.0,4.0,4.0,4.0,4.0,4.0,4.0,4.0,4.0,4.0,4.0,4.0,4.0,4.0,4.0,100.0,,,,,,,,,,,,,,,,,,,,,,,,,,,,,,,,,,,,,,,,,,,,,,,,,,,,,,,,,,,,,,,,,,,,,,,,,,,,,,,,,,,,,,,,,,,,,,,,,,,,,,,,,,,,,,,,,,,,,,,,,,,,,,,,,,,
1725710427.782308,1725710427.783294,144.0,0.0,4249.615234,4246.538574,4280.0,4316.794922,4202.820313,4246.794922,4084.871826,4200.897461,4236.153809,4192.692383,4509.230957,4485.256348,4375.769043,4429.230957,3430.0,1.0,15.0,,,,0.0,4.0,4.0,4.0,4.0,4.0,4.0,4.0,4.0,4.0,4.0,4.0,4.0,4.0,4.0,100.0,1.0,50.0,4.0,4.0,1.0,4.0,4.0,4.0,1.0,4.0,4.0,4.0,4.0,4.0,4.0,4.0,1.0,0.0,0.0,,,,,,,,,,,,,,,,,,,,,,,,,,,,,,,,,,,,,0.0,0.0,1.0,0.0,2048.0,0.0,2.153845,1.513891,0.443245,0.17162,0.041251,1.888566,1.001894,0.740054,0.518061,0.097028,2.332884,1.031203,0.306298,0.111632,0.042645,1.61346,1.687066,0.453373,0.079375,0.149531,0.685917,0.634562,0.191442,0.103271,0.083527,0.292658,0.544227,0.291861,0.095014,0.057429,5.240556,0.667511,0.191105,0.130192,0.086235,0.361644,0.686222,0.293042,0.202223,0.098668,0.608806,0.917311,0.504152,0.345262,0.144315,1.253276,0.924944,0.404527,0.401538,0.198363,3.923467,2.664242,1.196485,0.992835,0.584699,3.961766,2.962841,0.864049,0.34481,0.163393,3.928611,2.368894,2.09809,0.774177,0.321307,3.608042,2.329289,0.924108,0.398612,0.126881
1725710427.786213,1725710427.787198,145.0,0.0,4249.743652,4246.538574,4279.871582,4318.846191,4202.94873,4245.769043,4087.94873,4202.94873,4241.025879,4199.871582,4512.563965,4491.025879,4378.846191,4430.0,3937.0,1.0,15.0,,,,0.0,4.0,4.0,4.0,4.0,4.0,4.0,4.0,4.0,4.0,4.0,4.0,4.0,4.0,4.0,100.0,,,,,,,,,,,,,,,,,,,,,,,,,,,,,,,,,,,,,,,,,,,,,,,,,,,,,,,,,,,,,,,,,,,,,,,,,,,,,,,,,,,,,,,,,,,,,,,,,,,,,,,,,,,,,,,,,,,,,,,,,,,,,,,,,,,
1725710427.790117,1725710427.791102,146.0,0.0,4249.615234,4246.922852,4281.153809,4320.256348,4205.512695,4245.897461,4091.025635,4204.743652,4246.282227,4204.615234,4517.179688,4495.128418,4380.897461,4431.282227,2917.0,1.0,15.0,,,,0.0,4.0,4.0,4.0,4.0,4.0,4.0,4.0,4.0,4.0,4.0,4.0,4.0,4.0,4.0,100.0,,,,,,,,,,,,,,,,,,,,,,,,,,,,,,,,,,,,,,,,,,,,,,,,,,,,,,,,,,,,,,,,,,,,,,,,,,,,,,,,,,,,,,,,,,,,,,,,,,,,,,,,,,,,,,,,,,,,,,,,,,,,,,,,,,,
1725710427.794021,1725710427.794907,147.0,0.0,4249.615234,4247.05127,4282.563965,4319.743652,4210.128418,4246.794922,4092.94873,4205.256348,4249.358887,4203.589844,4520.769043,4496.025879,4379.358887,4431.922852,3151.0,1.0,15.0,,,,0.0,4.0,4.0,4.0,4.0,4.0,4.0,4.0,4.0,4.0,4.0,4.0,4.0,4.0,4.0,100.0,,,,,,,,,,,,,,,,,,,,,,,,,,,,,,,,,,,,,,,,,,,,,,,,,,,,,,,,,,,,,,,,,,,,,,,,,,,,,,,,,,,,,,,,,,,,,,,,,,,,,,,,,,,,,,,,,,,,,,,,,,,,,,,,,,,
1725710427.797925,1725710427.798811,148.0,0.0,4249.743652,4246.666504,4283.077148,4317.563965,4214.102539,4246.282227,4092.820557,4203.846191,4247.820313,4196.922852,4521.153809,4492.94873,4373.974121,4431.282227,3430.0,1.0,15.0,,,,0.0,4.0,4.0,4.0,4.0,4.0,4.0,4.0,4.0,4.0,4.0,4.0,4.0,4.0,4.0,100.0,,,,,,,,,,,,,,,,,,,,,,,,,,,,,,,,,,,,,,,,,,,,,,,,,,,,,,,,,,,,,,,,,,,,,,,,,,,,,,,,,,,,,,,,,,,,,,,,,,,,,,,,,,,,,,,,,,,,,,,,,,,,,,,,,,,
1725710427.801829,1725710427.802715,149.0,0.0,4249.487305,4245.641113,4282.563965,4314.743652,4215.128418,4243.205078,4090.384521,4201.282227,4241.666504,4189.230957,4517.563965,4486.794922,4367.820313,4429.615234,3937.0,1.0,15.0,,,,0.0,4.0,4.0,4.0,4.0,4.0,4.0,4.0,4.0,4.0,4.0,4.0,4.0,4.0,4.0,100.0,,,,,,,,,,,,,,,,,,,,,,,,,,,,,,,,,,,,,,,,,,,,,,,,,,,,,,,,,,,,,,,,,,,,,,,,,,,,,,,,,,,,,,,,,,,,,,,,,,,,,,,,,,,,,,,,,,,,,,,,,,,,,,,,,,,
1725710427.805733,1725710427.806519,150.0,0.0,4248.461426,4244.871582,4280.897461,4312.436035,4212.307617,4238.846191,4086.538574,4199.102539,4234.487305,4185.641113,4511.794922,4480.256348,4365.256348,4427.94873,2917.0,1.0,15.0,,,,0.0,4.0,4.0,4.0,4.0,4.0,4.0,4.0,4.0,4.0,4.0,4.0,4.0,4.0,4.0,100.0,,,,,,,,,,,,,,,,,,,,,,,,,,,,,,,,,,,,,,,,,,,,,,,,,,,,,,,,,,,,,,,,,,,,,,,,,,,,,,,,,,,,,,,,,,,,,,,,,,,,,,,,,,,,,,,,,,,,,,,,,,,,,,,,,,,
1725710427.809637,1725710427.810423,151.0,0.0,4247.436035,4245.128418,4279.230957,4311.153809,4207.563965,4235.769043,4082.94873,4198.205078,4230.512695,4188.077148,4506.410156,4476.153809,4368.461426,4426.794922,3151.0,1.0,15.0,,,,0.0,4.0,4.0,4.0,4.0,4.0,4.0,4.0,4.0,4.0,4.0,4.0,4.0,4.0,4.0,100.0,,,,,,,,,,,,,,,,,,,,,,,,,,,,,,,,,,,,,,,,,,,,,,,,,,,,,,,,,,,,,,,,,,,,,,,,,,,,,,,,,,,,,,,,,,,,,,,,,,,,,,,,,,,,,,,,,,,,,,,,,,,,,,,,,,,
1725710427.813541,1725710427.814327,152.0,0.0,4247.179688,4245.769043,4278.461426,4311.025879,4203.333496,4235.769043,4080.641113,4198.205078,4231.282227,4194.230957,4504.230957,4475.0,4375.256348,4425.769043,3430.0,1.0,15.0,,,,0.0,4.0,4.0,4.0,4.0,4.0,4.0,4.0,4.0,4.0,4.0,4.0,4.0,4.0,4.0,100.0,,,,,,,,,,,,,,,,,,,,,,,,,,,,,,,,,,,,,,,,,,,,,,,,,,,,,,,,0.0,0.0,1.0,0.0,2048.0,0.0,,,,,,,,,,,,,,,,,,,,,,,,,,,,,,,,,,,,,,,,,,,,,,,,,,,,,,,,,,,,,,,,,,,,,,
1725710427.817445,1725710427.818231,153.0,0.0,4248.077148,4246.025879,4278.589844,4311.282227,4201.282227,4238.077148,4079.487061,4197.94873,4234.615234,4198.589844,4505.641113,4475.0,4380.512695,4424.230957,3937.0,1.0,15.0,,,,0.0,4.0,4.0,4.0,4.0,4.0,4.0,4.0,4.0,4.0,4.0,4.0,4.0,4.0,4.0,100.0,,,,,,,,,,,,,,,,,,,,,,,,,,,,,,,,,,,,,,,,,,,,,,,,,,,,,,,,,,,,,,,,,,,,,,,,,,,,,,,,,,,,,,,,,,,,,,,,,,,,,,,,,,,,,,,,,,,,,,,,,,,,,,,,,,,
1725710427.82135,1725710427.822036,154.0,0.0,4248.589844,4244.871582,4278.333496,4311.410156,4201.153809,4240.128418,4078.461426,4196.538574,4236.538574,4197.436035,4508.333496,4473.846191,4379.102539,4421.666504,2917.0,1.0,15.0,,,,0.0,4.0,4.0,4.0,4.0,4.0,4.0,4.0,4.0,4.0,4.0,4.0,4.0,4.0,4.0,100.0,,,,,,,,,,,,,,,,,,,,,,,,,,,,,,,,,,,,,,,,,,,,,,,,,,,,,,,,,,,,,,,,,,,,,,,,,,,,,,,,,,,,,,,,,,,,,,,,,,,,,,,,,,,,,,,,,,,,,,,,,,,,,,,,,,,
1725710427.825254,1725710427.82594,155.0,0.0,4247.307617,4242.436035,4276.794922,4310.641113,4201.538574,4240.0,4076.410156,4193.333496,4234.230957,4190.641113,4508.461426,4470.512695,4370.0,4418.077148,3151.0,1.0,15.0,,,,0.0,4.0,4.0,4.0,4.0,4.0,4.0,4.0,4.0,4.0,4.0,4.0,4.0,4.0,4.0,100.0,,,,,,,,,,,,,,,,,,,,,,,,,,,,,,,,,,,,,,,,,,,,,,,,,,,,,,,,,,,,,,,,,,,,,,,,,,,,,,,,,,,,,,,,,,,,,,,,,,,,,,,,,,,,,,,,,,,,,,,,,,,,,,,,,,,
1725710427.829158,1725710427.829844,156.0,0.0,4243.717773,4239.230957,4273.589844,4308.461426,4201.410156,4237.692383,4073.205078,4188.205078,4228.333496,4181.538574,4503.461426,4465.641113,4357.05127,4414.358887,3430.0,1.0,15.0,,,,0.0,4.0,4.0,4.0,4.0,4.0,4.0,4.0,4.0,4.0,4.0,4.0,4.0,4.0,4.0,100.0,,,,,,,,,,,,,,,,,,,,,,,,,,,,,,,,,,,,,,,,,,,,,,,,,,,,,,,,,,,,,,,,,,,,,,,,,,,,,,,,,,,,,,,,,,,,,,,,,,,,,,,,,,,,,,,,,,,,,,,,,,,,,,,,,,,
1725710427.833062,1725710427.833748,157.0,0.0,4238.974121,4235.384766,4269.230957,4304.743652,4200.897461,4235.0,4068.974365,4182.05127,4220.512695,4173.717773,4493.461426,4460.897461,4346.025879,4410.641113,3937.0,1.0,15.0,,,,0.0,4.0,4.0,4.0,4.0,4.0,4.0,4.0,4.0,4.0,4.0,4.0,4.0,4.0,4.0,100.0,,,,,,,,,,,,,,,,,,,,,,,,,,,,,,,,,,,,,,,,,,,,,,,,,,,,,,,,,,,,,,,,,,,,,,,,,,,,,,,,,,,,,,,,,,,,,,,,,,,,,,,,,,,,,,,,,,,,,,,,,,,,,,,,,,,
1725710427.836966,1725710427.837552,158.0,0.0,4234.615234,4231.153809,4265.0,4299.743652,4200.256348,4233.333496,4064.615479,4176.538574,4213.333496,4169.102539,4481.794922,4456.666504,4340.641113,4406.538574,2917.0,1.0,15.0,,,,0.0,4.0,4.0,4.0,4.0,4.0,4.0,4.0,4.0,4.0,4.0,4.0,4.0,4.0,4.0,100.0,,,,,,,,,,,,,,,,,,,,,,,,,,,,,,,,,,,,,,,,,,,,,,,,,,,,,,,,,,,,,,,,,,,,,,,,,,,,,,,,,,,,,,,,,,,,,,,,,,,,,,,,,,,,,,,,,,,,,,,,,,,,,,,,,,,
1725710427.84087,1725710427.841456,159.0,0.0,4231.666504,4226.410156,4262.436035,4295.128418,4199.358887,4233.077148,4060.512939,4172.94873,4207.692383,4166.538574,4472.436035,4453.077148,4339.358887,4401.922852,3151.0,1.0,15.0,,,,0.0,4.0,4.0,4.0,4.0,4.0,4.0,4.0,4.0,4.0,4.0,4.0,4.0,4.0,4.0,100.0,,,,,,,,,,,,,,,,,,,,,,,,,,,,,,,,,,,,,,,,,,,,,,,,,,,,,,,,,,,,,,,,,,,,,,,,,,,,,,,,,,,,,,,,,,,,,,,,,,,,,,,,,,,,,,,,,,,,,,,,,,,,,,,,,,,
1725710427.844774,1725710427.84536,160.0,0.0,4229.743652,4221.025879,4261.666504,4291.666504,4196.794922,4233.333496,4056.538574,4171.922852,4203.589844,4164.102539,4467.563965,4450.256348,4338.077148,4397.179688,3430.0,1.0,15.0,,,,0.0,4.0,4.0,4.0,4.0,4.0,4.0,4.0,4.0,4.0,4.0,4.0,4.0,4.0,4.0,100.0,,,,,,,,,,,,,,,,,,,,,,,,,,,,,,,,,,,,,,,,,,,,,,,,,,,,,,,,0.0,0.0,1.0,0.0,2048.0,0.0,,,,,,,,,,,,,,,,,,,,,,,,,,,,,,,,,,,,,,,,,,,,,,,,,,,,,,,,,,,,,,,,,,,,,,
1725710427.848678,1725710427.849364,161.0,0.0,4227.692383,4215.769043,4261.922852,4289.615234,4191.410156,4233.077148,4052.564209,4173.461426,4201.410156,4160.641113,4466.794922,4448.589844,4334.358887,4393.717773,3937.0,1.0,15.0,,,,0.0,4.0,4.0,4.0,4.0,4.0,4.0,4.0,4.0,4.0,4.0,4.0,4.0,4.0,4.0,100.0,,,,,,,,,,,,,,,,,,,,,,,,,,,,,,,,,,,,,,,,,,,,,,,,,,,,,,,,,,,,,,,,,,,,,,,,,,,,,,,,,,,,,,,,,,,,,,,,,,,,,,,,,,,,,,,,,,,,,,,,,,,,,,,,,,,
1725710427.852582,1725710427.853268,162.0,0.0,4225.256348,4211.794922,4261.794922,4289.230957,4184.871582,4232.179688,4047.94873,4176.794922,4202.179688,4158.333496,4469.230957,4449.230957,4329.615234,4392.820313,2917.0,1.0,15.0,,,,0.0,4.0,4.0,4.0,4.0,4.0,4.0,4.0,4.0,4.0,4.0,4.0,4.0,4.0,4.0,100.0,,,,,,,,,,,,,,,,,,,,,,,,,,,,,,,,,,,,,,,,,,,,,,,,,,,,,,,,,,,,,,,,,,,,,,,,,,,,,,,,,,,,,,,,,,,,,,,,,,,,,,,,,,,,,,,,,,,,,,,,,,,,,,,,,,,
1725710427.856486,1725710427.857173,163.0,0.0,4223.717773,4210.128418,4260.769043,4290.128418,4180.769043,4231.538574,4043.718018,4181.025879,4207.05127,4160.384766,4474.358887,4453.846191,4328.461426,4395.512695,3151.0,1.0,15.0,,,,0.0,4.0,4.0,4.0,4.0,4.0,4.0,4.0,4.0,4.0,4.0,4.0,4.0,4.0,4.0,100.0,,,,,,,,,,,,,,,,,,,,,,,,,,,,,,,,,,,,,,,,,,,,,,,,,,,,,,,,,,,,,,,,,,,,,,,,,,,,,,,,,,,,,,,,,,,,,,,,,,,,,,,,,,,,,,,,,,,,,,,,,,,,,,,,,,,
1725710427.860391,1725710427.861177,164.0,0.0,4224.743652,4211.666504,4260.384766,4292.436035,4181.922852,4232.179688,4041.410156,4185.769043,4216.025879,4168.974121,4482.436035,4463.205078,4334.871582,4402.05127,3430.0,1.0,15.0,,,,0.0,4.0,4.0,4.0,4.0,4.0,4.0,4.0,4.0,4.0,4.0,4.0,4.0,4.0,4.0,100.0,,,,,,,,,,,,,,,,,,,,,,,,,,,,,,,,,,,,,,,,,,,,,,,,,,,,,,,,,,,,,,,,,,,,,,,,,,,,,,,,,,,,,,,,,,,,,,,,,,,,,,,,,,,,,,,,,,,,,,,,,,,,,,,,,,,
1725710427.864295,1725710427.865081,165.0,0.0,4228.974121,4215.897461,4262.436035,4295.897461,4188.589844,4234.102539,4042.05127,4191.282227,4227.307617,4181.922852,4493.846191,4476.410156,4348.461426,4411.538574,3937.0,1.0,15.0,,,,0.0,4.0,4.0,4.0,4.0,4.0,4.0,4.0,4.0,4.0,4.0,4.0,4.0,4.0,4.0,100.0,,,,,,,,,,,,,,,,,,,,,,,,,,,,,,,,,,,,,,,,,,,,,,,,,,,,,,,,,,,,,,,,,,,,,,,,,,,,,,,,,,,,,,,,,,,,,,,,,,,,,,,,,,,,,,,,,,,,,,,,,,,,,,,,,,,
1725710427.868199,1725710427.868985,166.0,0.0,4235.641113,4222.307617,4267.563965,4300.641113,4197.179688,4236.025879,4045.256348,4197.94873,4237.820313,4194.615234,4508.205078,4490.384766,4364.743652,4422.307617,2917.0,1.0,15.0,,,,0.0,4.0,4.0,4.0,4.0,4.0,4.0,4.0,4.0,4.0,4.0,4.0,4.0,4.0,4.0,100.0,,,,,,,,,,,,,,,,,,,,,,,,,,,,,,,,,,,,,,,,,,,,,,,,,,,,,,,,,,,,,,,,,,,,,,,,,,,,,,,,,,,,,,,,,,,,,,,,,,,,,,,,,,,,,,,,,,,,,,,,,,,,,,,,,,,
1725710427.872103,1725710427.872889,167.0,0.0,4242.94873,4229.743652,4274.487305,4306.538574,4203.717773,4236.922852,4049.358887,4205.256348,4245.256348,4203.077148,4523.589844,4501.794922,4378.077148,4432.436035,3151.0,1.0,15.0,,,,0.0,4.0,4.0,4.0,4.0,4.0,4.0,4.0,4.0,4.0,4.0,4.0,4.0,4.0,4.0,100.0,,,,,,,,,,,,,,,,,,,,,,,,,,,,,,,,,,,,,,,,,,,,,,,,,,,,,,,,,,,,,,,,,,,,,,,,,,,,,,,,,,,,,,,,,,,,,,,,,,,,,,,,,,,,,,,,,,,,,,,,,,,,,,,,,,,
1725710427.876007,1725710427.876793,168.0,0.0,4249.487305,4237.820313,4280.256348,4312.563965,4206.282227,4236.538574,4051.923096,4211.922852,4249.230957,4207.05127,4537.05127,4508.974121,4385.256348,4440.512695,3430.0,1.0,15.0,,,,0.0,4.0,4.0,4.0,4.0,4.0,4.0,4.0,4.0,4.0,4.0,4.0,4.0,4.0,4.0,100.0,,,,,,,,,,,,,,,,,,,,,,,,,,,,,,,,,,,,,,,,,,,,,,,,,,,,,,,,0.0,0.0,1.0,0.0,2048.0,0.0,,,,,,,,,,,,,,,,,,,,,,,,,,,,,,,,,,,,,,,,,,,,,,,,,,,,,,,,,,,,,,,,,,,,,,
1725710427.879911,1725710427.880797,169.0,0.0,4254.230957,4244.871582,4283.333496,4316.922852,4205.512695,4235.512695,4051.666748,4216.538574,4250.512695,4208.461426,4545.897461,4511.922852,4386.025879,4445.769043,3937.0,1.0,15.0,,,,0.0,4.0,4.0,4.0,4.0,4.0,4.0,4.0,4.0,4.0,4.0,4.0,4.0,4.0,4.0,100.0,,,,,,,,,,,,,,,,,,,,,,,,,,,,,,,,,,,,,,,,,,,,,,,,,,,,,,,,,,,,,,,,,,,,,,,,,,,,,,,,,,,,,,,,,,,,,,,,,,,,,,,,,,,,,,,,,,,,,,,,,,,,,,,,,,,
1725710427.883815,1725710427.884701,170.0,0.0,4257.179688,4249.358887,4283.846191,4318.717773,4203.589844,4234.871582,4049.102539,4218.205078,4250.769043,4209.871582,4548.846191,4512.436035,4383.717773,4448.205078,2917.0,1.0,15.0,,,,0.0,4.0,4.0,4.0,4.0,4.0,4.0,4.0,4.0,4.0,4.0,4.0,4.0,4.0,4.0,100.0,,,,,,,,,,,,,,,,,,,,,,,,,,,,,,,,,,,,,,,,,,,,,,,,,,,,,,,,,,,,,,,,,,,,,,,,,,,,,,,,,,,,,,,,,,,,,,,,,,,,,,,,,,,,,,,,,,,,,,,,,,,,,,,,,,,
1725710427.887719,1725710427.888605,171.0,0.0,4258.846191,4249.487305,4283.205078,4318.077148,4202.563965,4234.487305,4045.512939,4217.563965,4251.538574,4212.05127,4546.666504,4511.922852,4381.922852,4448.461426,3151.0,1.0,15.0,,,,0.0,4.0,4.0,4.0,4.0,4.0,4.0,4.0,4.0,4.0,4.0,4.0,4.0,4.0,4.0,100.0,,,,,,,,,,,,,,,,,,,,,,,,,,,,,,,,,,,,,,,,,,,,,,,,,,,,,,,,,,,,,,,,,,,,,,,,,,,,,,,,,,,,,,,,,,,,,,,,,,,,,,,,,,,,,,,,,,,,,,,,,,,,,,,,,,,
1725710427.891623,1725710427.892509,172.0,0.0,4258.717773,4246.282227,4282.820313,4316.025879,4202.94873,4234.230957,4042.179443,4216.410156,4252.820313,4213.974121,4541.410156,4510.897461,4382.563965,4447.820313,3430.0,1.0,15.0,,,,0.0,4.0,4.0,4.0,4.0,4.0,4.0,4.0,4.0,4.0,4.0,4.0,4.0,4.0,4.0,100.0,,,,,,,,,,,,,,,,,,,,,,,,,,,,,,,,,,,,,,,,,,,,,,,,,,,,,,,,,,,,,,,,,,,,,,,,,,,,,,,,,,,,,,,,,,,,,,,,,,,,,,,,,,,,,,,,,,,,,,,,,,,,,,,,,,,
1725710427.895527,1725710427.896513,173.0,0.0,4256.922852,4242.692383,4282.820313,4313.589844,4203.717773,4234.102539,4039.487061,4215.897461,4253.717773,4213.589844,4535.512695,4509.230957,4384.358887,4447.179688,3937.0,1.0,15.0,,,,0.0,4.0,4.0,4.0,4.0,4.0,4.0,4.0,4.0,4.0,4.0,4.0,4.0,4.0,4.0,100.0,,,,,,,,,,,,,,,,,,,,,,,,,,,,,,,,,,,,,,,,,,,,,,,,,,,,,,,,,,,,,,,,,,,,,,,,,,,,,,,,,,,,,,,,,,,,,,,,,,,,,,,,,,,,,,,,,,,,,,,,,,,,,,,,,,,
1725710427.899431,1725710427.900417,174.0,0.0,4253.846191,4241.794922,4282.94873,4312.179688,4203.846191,4234.102539,4037.692383,4215.769043,4253.589844,4210.384766,4530.0,4507.436035,4385.128418,4446.025879,2917.0,1.0,15.0,,,,0.0,4.0,4.0,4.0,4.0,4.0,4.0,4.0,4.0,4.0,4.0,4.0,4.0,4.0,4.0,100.0,,,,,,,,,,,,,,,,,,,,,,,,,,,,,,,,,,,,,,,,,,,,,,,,,,,,,,,,,,,,,,,,,,,,,,,,,,,,,,,,,,,,,,,,,,,,,,,,,,,,,,,,,,,,,,,,,,,,,,,,,,,,,,,,,,,
1725710427.903335,1725710427.904321,175.0,0.0,4251.025879,4243.717773,4283.077148,4312.307617,4203.589844,4234.487305,4036.410156,4215.384766,4252.307617,4205.641113,4525.512695,4506.153809,4383.333496,4443.717773,3151.0,1.0,15.0,,,,0.0,4.0,4.0,4.0,4.0,4.0,4.0,4.0,4.0,4.0,4.0,4.0,4.0,4.0,4.0,100.0,,,,,,,,,,,,,,,,,,,,,,,,,,,,,,,,,,,,,,,,,,,,,,,,,,,,,,,,,,,,,,,,,,,,,,,,,,,,,,,,,,,,,,,,,,,,,,,,,,,,,,,,,,,,,,,,,,,,,,,,,,,,,,,,,,,
1725710427.90724,1725710427.908226,176.0,0.0,4250.128418,4246.410156,4283.333496,4313.717773,4203.333496,4235.256348,4035.512939,4214.743652,4250.769043,4201.794922,4522.563965,4505.897461,4379.487305,4441.153809,3430.0,1.0,15.0,,,,0.0,4.0,4.0,4.0,4.0,4.0,4.0,4.0,4.0,4.0,4.0,4.0,4.0,4.0,4.0,100.0,,,,,,,,,,,,,,,,,1.0,0.0,0.0,,,,,,,,,,,,,,,,,,,,,,,,,,,,,,,,,,,,,0.0,0.0,1.0,0.0,2048.0,0.0,2.234162,1.377406,0.419788,0.164092,0.045485,1.988478,0.991,0.749218,0.509101,0.093343,2.401196,0.929605,0.289527,0.106646,0.038602,1.721994,1.610557,0.426972,0.085136,0.147062,0.790096,0.669061,0.188979,0.093035,0.077435,0.289951,0.567578,0.295652,0.096066,0.069278,5.549916,0.771776,0.278231,0.160375,0.092391,0.356943,0.552206,0.281414,0.197182,0.102003,0.655435,0.870491,0.530974,0.324941,0.145609,1.356974,0.884728,0.415822,0.378311,0.193317,3.715147,2.215824,1.18074,0.822272,0.566219,3.986525,2.446184,0.835862,0.325441,0.168073,3.989997,2.031169,1.878969,0.772555,0.306258,3.485785,2.081153,0.876261,0.384118,0.129236
1725710427.911144,1725710427.91203,177.0,0.0,4250.384766,4247.436035,4283.717773,4314.871582,4203.205078,4235.897461,4035.128174,4214.358887,4249.615234,4200.128418,4521.282227,4506.410156,4375.0,4439.615234,3937.0,1.0,15.0,,,,0.0,4.0,4.0,4.0,4.0,4.0,4.0,4.0,4.0,4.0,4.0,4.0,4.0,4.0,4.0,100.0,,,,,,,,,,,,,,,,,,,,,,,,,,,,,,,,,,,,,,,,,,,,,,,,,,,,,,,,,,,,,,,,,,,,,,,,,,,,,,,,,,,,,,,,,,,,,,,,,,,,,,,,,,,,,,,,,,,,,,,,,,,,,,,,,,,
1725710427.915048,1725710427.915934,178.0,0.0,4250.512695,4246.153809,4283.589844,4314.230957,4202.820313,4236.410156,4035.128174,4214.230957,4249.743652,4200.384766,4521.538574,4506.666504,4370.769043,4439.615234,2917.0,1.0,15.0,,,,0.0,4.0,4.0,4.0,4.0,4.0,4.0,4.0,4.0,4.0,4.0,4.0,4.0,4.0,4.0,100.0,,,,,,,,,,,,,,,,,,,,,,,,,,,,,,,,,,,,,,,,,,,,,,,,,,,,,,,,,,,,,,,,,,,,,,,,,,,,,,,,,,,,,,,,,,,,,,,,,,,,,,,,,,,,,,,,,,,,,,,,,,,,,,,,,,,
1725710427.918952,1725710427.919838,179.0,0.0,4249.615234,4243.974121,4282.692383,4311.922852,4202.436035,4236.153809,4034.871826,4213.333496,4250.512695,4200.641113,4521.794922,4505.384766,4367.179688,4440.384766,3151.0,1.0,15.0,,,,0.0,4.0,4.0,4.0,4.0,4.0,4.0,4.0,4.0,4.0,4.0,4.0,4.0,4.0,4.0,100.0,,,,,,,,,,,,,,,,,,,,,,,,,,,,,,,,,,,,,,,,,,,,,,,,,,,,,,,,,,,,,,,,,,,,,,,,,,,,,,,,,,,,,,,,,,,,,,,,,,,,,,,,,,,,,,,,,,,,,,,,,,,,,,,,,,,
1725710427.922856,1725710427.923742,180.0,0.0,4248.461426,4242.563965,4281.410156,4309.230957,4202.436035,4235.384766,4034.230713,4210.512695,4250.128418,4199.871582,4521.025879,4502.436035,4364.871582,4440.384766,3430.0,1.0,15.0,,,,0.0,4.0,4.0,4.0,4.0,4.0,4.0,4.0,4.0,4.0,4.0,4.0,4.0,4.0,4.0,100.0,,,,,,,,,,,,,,,,,,,,,,,,,,,,,,,,,,,,,,,,,,,,,,,,,,,,,,,,,,,,,,,,,,,,,,,,,,,,,,,,,,,,,,,,,,,,,,,,,,,,,,,,,,,,,,,,,,,,,,,,,,,,,,,,,,,
1725710427.92676,1725710427.927546,181.0,0.0,4248.589844,4242.820313,4280.256348,4308.461426,4203.974121,4234.615234,4033.589844,4205.897461,4247.179688,4198.077148,4519.358887,4498.205078,4363.974121,4438.589844,3937.0,1.0,15.0,,,,0.0,4.0,4.0,4.0,4.0,4.0,4.0,4.0,4.0,4.0,4.0,4.0,4.0,4.0,4.0,100.0,,,,,,,,,,,,,,,,,,,,,,,,,,,,,,,,,,,,,,,,,,,,,,,,,,,,,,,,,,,,,,,,,,,,,,,,,,,,,,,,,,,,,,,,,,,,,,,,,,,,,,,,,,,,,,,,,,,,,,,,,,,,,,,,,,,
1725710427.930664,1725710427.93145,182.0,0.0,4250.897461,4244.230957,4280.128418,4310.384766,4207.307617,4234.358887,4033.205078,4200.897461,4241.666504,4196.538574,4518.205078,4494.102539,4364.615234,4435.641113,2917.0,1.0,15.0,,,,0.0,4.0,4.0,4.0,4.0,4.0,4.0,4.0,4.0,4.0,4.0,4.0,4.0,4.0,4.0,100.0,,,,,,,,,,,,,,,,,,,,,,,,,,,,,,,,,,,,,,,,,,,,,,,,,,,,,,,,,,,,,,,,,,,,,,,,,,,,,,,,,,,,,,,,,,,,,,,,,,,,,,,,,,,,,,,,,,,,,,,,,,,,,,,,,,,
1725710427.934568,1725710427.935355,183.0,0.0,4254.743652,4245.769043,4281.025879,4314.230957,4211.410156,4234.615234,4033.461426,4197.307617,4235.641113,4196.282227,4518.974121,4491.794922,4366.666504,4433.589844,3151.0,1.0,15.0,,,,0.0,4.0,4.0,4.0,4.0,4.0,4.0,4.0,4.0,4.0,4.0,4.0,4.0,4.0,4.0,100.0,,,,,,,,,,,,,,,,,,,,,,,,,,,,,,,,,,,,,,,,,,,,,,,,,,,,,,,,,,,,,,,,,,,,,,,,,,,,,,,,,,,,,,,,,,,,,,,,,,,,,,,,,,,,,,,,,,,,,,,,,,,,,,,,,,,
1725710427.938472,1725710427.939259,184.0,0.0,4258.846191,4246.666504,4282.05127,4317.820313,4214.358887,4234.871582,4034.102539,4196.025879,4231.282227,4197.179688,4521.666504,4492.179688,4369.615234,4434.487305,3430.0,1.0,15.0,,,,0.0,4.0,4.0,4.0,4.0,4.0,4.0,4.0,4.0,4.0,4.0,4.0,4.0,4.0,4.0,100.0,,,,,,,,,,,,,,,,,,,,,,,,,,,,,,,,,,,,,,,,,,,,,,,,,,,,,,,,0.0,0.0,1.0,0.0,2048.0,0.0,,,,,,,,,,,,,,,,,,,,,,,,,,,,,,,,,,,,,,,,,,,,,,,,,,,,,,,,,,,,,,,,,,,,,,
1725710427.942377,1725710427.943063,185.0,0.0,4261.666504,4247.307617,4282.436035,4319.615234,4215.0,4234.615234,4034.358887,4196.666504,4229.743652,4198.333496,4524.230957,4494.615234,4372.94873,4438.461426,3937.0,1.0,15.0,,,,0.0,4.0,4.0,4.0,4.0,4.0,4.0,4.0,4.0,4.0,4.0,4.0,4.0,4.0,4.0,100.0,,,,,,,,,,,,,,,,,,,,,,,,,,,,,,,,,,,,,,,,,,,,,,,,,,,,,,,,,,,,,,,,,,,,,,,,,,,,,,,,,,,,,,,,,,,,,,,,,,,,,,,,,,,,,,,,,,,,,,,,,,,,,,,,,,,
1725710427.946281,1725710427.946967,186.0,0.0,4262.820313,4248.205078,4281.922852,4319.487305,4213.461426,4233.846191,4033.461426,4197.94873,4230.384766,4199.102539,4524.358887,4496.922852,4375.128418,4443.077148,2917.0,1.0,15.0,,,,0.0,4.0,4.0,4.0,4.0,4.0,4.0,4.0,4.0,4.0,4.0,4.0,4.0,4.0,4.0,100.0,,,,,,,,,,,,,,,,,,,,,,,,,,,,,,,,,,,,,,,,,,,,,,,,,,,,,,,,,,,,,,,,,,,,,,,,,,,,,,,,,,,,,,,,,,,,,,,,,,,,,,,,,,,,,,,,,,,,,,,,,,,,,,,,,,,
1725710427.950185,1725710427.950871,187.0,0.0,4262.820313,4249.487305,4281.025879,4319.358887,4211.282227,4233.205078,4031.666748,4198.589844,4231.922852,4199.615234,4520.641113,4497.436035,4375.128418,4445.0,3151.0,1.0,15.0,,,,0.0,4.0,4.0,4.0,4.0,4.0,4.0,4.0,4.0,4.0,4.0,4.0,4.0,4.0,4.0,100.0,,,,,,,,,,,,,,,,,,,,,,,,,,,,,,,,,,,,,,,,,,,,,,,,,,,,,,,,,,,,,,,,,,,,,,,,,,,,,,,,,,,,,,,,,,,,,,,,,,,,,,,,,,,,,,,,,,,,,,,,,,,,,,,,,,,
1725710427.954089,1725710427.954875,188.0,0.0,4262.179688,4250.512695,4280.641113,4321.282227,4210.384766,4233.205078,4030.0,4198.461426,4232.820313,4200.256348,4514.358887,4495.897461,4372.692383,4442.820313,3430.0,1.0,15.0,,,,0.0,4.0,4.0,4.0,4.0,4.0,4.0,4.0,4.0,4.0,4.0,4.0,4.0,4.0,4.0,100.0,,,,,,,,,,,,,,,,,,,,,,,,,,,,,,,,,,,,,,,,,,,,,,,,,,,,,,,,,,,,,,,,,,,,,,,,,,,,,,,,,,,,,,,,,,,,,,,,,,,,,,,,,,,,,,,,,,,,,,,,,,,,,,,,,,,
1725710427.957993,1725710427.958779,189.0,0.0,4260.769043,4250.384766,4281.025879,4325.384766,4211.538574,4234.230957,4028.974365,4197.94873,4232.692383,4200.641113,4507.94873,4493.717773,4368.974121,4437.692383,3937.0,1.0,15.0,,,,0.0,4.0,4.0,4.0,4.0,4.0,4.0,4.0,4.0,4.0,4.0,4.0,4.0,4.0,4.0,100.0,,,,,,,,,,,,,,,,,,,,,,,,,,,,,,,,,,,,,,,,,,,,,,,,,,,,,,,,,,,,,,,,,,,,,,,,,,,,,,,,,,,,,,,,,,,,,,,,,,,,,,,,,,,,,,,,,,,,,,,,,,,,,,,,,,,
1725710427.961897,1725710427.962683,190.0,0.0,4258.589844,4248.589844,4281.410156,4328.717773,4214.487305,4235.641113,4028.589844,4197.692383,4232.307617,4200.641113,4505.128418,4492.179688,4366.538574,4433.077148,2917.0,1.0,15.0,,,,0.0,4.0,4.0,4.0,4.0,4.0,4.0,4.0,4.0,4.0,4.0,4.0,4.0,4.0,4.0,100.0,,,,,,,,,,,,,,,,,,,,,,,,,,,,,,,,,,,,,,,,,,,,,,,,,,,,,,,,,,,,,,,,,,,,,,,,,,,,,,,,,,,,,,,,,,,,,,,,,,,,,,,,,,,,,,,,,,,,,,,,,,,,,,,,,,,
1725710427.965801,1725710427.966687,191.0,0.0,4256.410156,4246.025879,4280.897461,4328.205078,4217.179688,4236.538574,4028.589844,4198.077148,4232.563965,4200.0,4507.436035,4491.666504,4367.179688,4431.666504,3151.0,1.0,15.0,,,,0.0,4.0,4.0,4.0,4.0,4.0,4.0,4.0,4.0,4.0,4.0,4.0,4.0,4.0,4.0,100.0,,,,,,,,,,,,,,,,,,,,,,,,,,,,,,,,,,,,,,,,,,,,,,,,,,,,,,,,,,,,,,,,,,,,,,,,,,,,,,,,,,,,,,,,,,,,,,,,,,,,,,,,,,,,,,,,,,,,,,,,,,,,,,,,,,,
1725710427.969705,1725710427.970591,192.0,0.0,4255.256348,4244.743652,4279.102539,4322.94873,4217.820313,4236.538574,4028.718018,4198.846191,4233.077148,4199.358887,4513.589844,4491.666504,4370.641113,4433.974121,3430.0,1.0,15.0,,,,0.0,4.0,4.0,4.0,4.0,4.0,4.0,4.0,4.0,4.0,4.0,4.0,4.0,4.0,4.0,100.0,,,,,,,,,,,,,,,,,,,,,,,,,,,,,,,,,,,,,,,,,,,,,,,,,,,,,,,,0.0,0.0,1.0,0.0,2048.0,0.0,,,,,,,,,,,,,,,,,,,,,,,,,,,,,,,,,,,,,,,,,,,,,,,,,,,,,,,,,,,,,,,,,,,,,,
1725710427.973609,1725710427.974495,193.0,0.0,4256.025879,4245.897461,4277.436035,4316.410156,4215.897461,4235.897461,4028.718018,4199.871582,4233.461426,4199.358887,4520.384766,4492.307617,4375.256348,4438.205078,3937.0,1.0,15.0,,,,0.0,4.0,4.0,4.0,4.0,4.0,4.0,4.0,4.0,4.0,4.0,4.0,4.0,4.0,4.0,100.0,,,,,,,,,,,,,,,,,,,,,,,,,,,,,,,,,,,,,,,,,,,,,,,,,,,,,,,,,,,,,,,,,,,,,,,,,,,,,,,,,,,,,,,,,,,,,,,,,,,,,,,,,,,,,,,,,,,,,,,,,,,,,,,,,,,
1725710427.977513,1725710427.9784,194.0,0.0,4258.461426,4249.358887,4276.794922,4313.333496,4212.179688,4235.128418,4028.974365,4201.282227,4233.333496,4200.128418,4524.871582,4493.589844,4378.974121,4442.179688,2917.0,1.0,15.0,,,,0.0,4.0,4.0,4.0,4.0,4.0,4.0,4.0,4.0,4.0,4.0,4.0,4.0,4.0,4.0,100.0,,,,,,,,,,,,,,,,,,,,,,,,,,,,,,,,,,,,,,,,,,,,,,,,,,,,,,,,,,,,,,,,,,,,,,,,,,,,,,,,,,,,,,,,,,,,,,,,,,,,,,,,,,,,,,,,,,,,,,,,,,,,,,,,,,,
