Timestamp,OriginalTimestamp,EEG.Counter,EEG.Interpolated,EEG.AF3,EEG.F7,EEG.F3,EEG.FC5,EEG.T7,EEG.P7,EEG.O1,EEG.O2,EEG.P8,EEG.T8,EEG.FC6,EEG.F4,EEG.F8,EEG.AF4,EEG.RawCq,EEG.Battery,EEG.BatteryPercent,MarkerIndex,MarkerType,MarkerValueInt,EEG.MarkerHardware,CQ.AF3,CQ.F7,CQ.F3,CQ.FC5,CQ.T7,CQ.P7,CQ.O1,CQ.O2,CQ.P8,CQ.T8,CQ.FC6,CQ.F4,CQ.F8,CQ.AF4,CQ.Overall,EQ.SampleRateQuality,EQ.OVERALL,EQ.AF3,EQ.F7,EQ.F3,EQ.FC5,EQ.T7,EQ.P7,EQ.O1,EQ.O2,EQ.P8,EQ.T8,EQ.FC6,EQ.F4,EQ.F8,EQ.AF4,MC.Action,MC.ActionPower,MC.IsActive,PM.Attention.IsActive,PM.Attention.Scaled,PM.Attention.Raw,PM.Attention.Min,PM.Attention.Max,PM.Engagement.IsActive,PM.Engagement.Scaled,PM.Engagement.Raw,PM.Engagement.Min,PM.Engagement.Max,PM.Excitement.IsActive,PM.Excitement.Scaled,PM.Excitement.Raw,PM.Excitement.Min,PM.Excitement.Max,PM.LongTermExcitement,PM.Stress.IsActive,PM.Stress.Scaled,PM.Stress.Raw,PM.Stress.Min,PM.Stress.Max,PM.Relaxation.IsActive,PM.Relaxation.Scaled,PM.Relaxation.Raw,PM.Relaxation.Min,PM.Relaxation.Max,PM.Interest.IsActive,PM.Interest.Scaled,PM.Interest.Raw,PM.Interest.Min,PM.Interest.Max,PM.Focus.IsActive,PM.Focus.Scaled,PM.Focus.Raw,PM.Focus.Min,PM.Focus.Max,FE.BlinkWink,FE.HorizontalEyesDirection,FE.UpperFaceAction,FE.UpperFaceActionPower,FE.LowerFaceAction,FE.LowerFaceActionPower,POW.AF3.Theta,POW.AF3.Alpha,POW.AF3.BetaL,POW.AF3.BetaH,POW.AF3.Gamma,POW.F7.Theta,POW.F7.Alpha,POW.F7.BetaL,POW.F7.BetaH,POW.F7.Gamma,POW.F3.Theta,POW.F3.Alpha,POW.F3.BetaL,POW.F3.BetaH,POW.F3.Gamma,POW.FC5.Theta,POW.FC5.Alpha,POW.FC5.BetaL,POW.FC5.BetaH,POW.FC5.Gamma,POW.T7.Theta,POW.T7.Alpha,POW.T7.BetaL,POW.T7.BetaH,POW.T7.Gamma,POW.P7.Theta,POW.P7.Alpha,POW.P7.BetaL,POW.P7.BetaH,POW.P7.Gamma,POW.O1.Theta,POW.O1.Alpha,POW.O1.BetaL,POW.O1.BetaH,POW.O1.Gamma,POW.O2.Theta,POW.O2.Alpha,POW.O2.BetaL,POW.O2.BetaH,POW.O2.Gamma,POW.P8.Theta,POW.P8.Alpha,POW.P8.BetaL,POW.P8.BetaH,POW.P8.Gamma,POW.T8.Theta,POW.T8.Alpha,POW.T8.BetaL,POW.T8.BetaH,POW.T8.Gamma,POW.FC6.Theta,POW.FC6.Alpha,POW.FC6.BetaL,POW.FC6.BetaH,POW.FC6.Gamma,POW.F4.Theta,POW.F4.Alpha,POW.F4.BetaL,POW.F4.BetaH,POW.F4.Gamma,POW.F8.Theta,POW.F8.Alpha,POW.F8.BetaL,POW.F8.BetaH,POW.F8.Gamma,POW.AF4.Theta,POW.AF4.Alpha,POW.AF4.BetaL,POW.AF4.BetaH,POW.AF4.Gamma
1725618267.254268,1725618267.253976,69.0,0.0,4261.922852,4226.282227,4296.538574,4264.487305,4208.205078,4222.307617,4233.461426,4232.692383,4200.256348,4213.974121,4538.077148,4546.794922,4375.769043,4459.743652,0.0,2.0,35.0,17.0,1.0,1.0,0.0,4.0,4.0,4.0,4.0,4.0,4.0,4.0,4.0,4.0,4.0,4.0,4.0,4.0,4.0,100.0,,,,,,,,,,,,,,,,,,,,,,,,,,,,,,,,,,,,,,,,,,,,,,,,,,,,,,,,,,,,,,,,,,,,,,,,,,,,,,,,,,,,,,,,,,,,,,,,,,,,,,,,,,,,,,,,,,,,,,,,,,,,,,,,,,,
1725618267.258172,1725618267.25788,70.0,0.0,4264.615234,4230.128418,4296.922852,4267.307617,4213.589844,4221.922852,4233.589844,4227.179688,4200.641113,4216.666504,4537.692383,4551.153809,4374.487305,4460.0,0.0,2.0,35.0,,,,0.0,4.0,4.0,4.0,4.0,4.0,4.0,4.0,4.0,4.0,4.0,4.0,4.0,4.0,4.0,100.0,,,,,,,,,,,,,,,,,,,,,,,,,,,,,,,,,,,,,,,,,,,,,,,,,,,,,,,,,,,,,,,,,,,,,,,,,,,,,,,,,,,,,,,,,,,,,,,,,,,,,,,,,,,,,,,,,,,,,,,,,,,,,,,,,,,
1725618267.262077,1725618267.261884,71.0,0.0,4264.871582,4232.307617,4296.282227,4271.666504,4216.794922,4220.0,4233.589844,4221.282227,4201.794922,4217.05127,4538.589844,4554.102539,4373.717773,4461.025879,0.0,2.0,35.0,,,,0.0,4.0,4.0,4.0,4.0,4.0,4.0,4.0,4.0,4.0,4.0,4.0,4.0,4.0,4.0,100.0,,,,,,,,,,,,,,,,,,,,,,,,,,,,,,,,,,,,,,,,,,,,,,,,,,,,,,,,,,,,,,,,,,,,,,,,,,,,,,,,,,,,,,,,,,,,,,,,,,,,,,,,,,,,,,,,,,,,,,,,,,,,,,,,,,,
1725618267.265981,1725618267.265789,72.0,0.0,4263.333496,4233.077148,4295.512695,4276.025879,4217.179688,4217.820313,4233.461426,4218.205078,4203.205078,4215.769043,4540.128418,4554.102539,4374.230957,4462.436035,0.0,2.0,35.0,,,,0.0,4.0,4.0,4.0,4.0,4.0,4.0,4.0,4.0,4.0,4.0,4.0,4.0,4.0,4.0,100.0,,,,,,,,,,,,,,,,,,,,,,,,,,,,,,,,,,,,,,,,,,,,,,,,,,,,,,,,,,,,,,,,,,,,,,,,,,,,,,,,,,,,,,,,,,,,,,,,,,,,,,,,,,,,,,,,,,,,,,,,,,,,,,,,,,,
1725618267.269885,1725618267.269693,73.0,0.0,4261.666504,4233.077148,4295.256348,4278.846191,4215.641113,4217.179688,4233.333496,4219.743652,4204.102539,4214.102539,4541.410156,4551.410156,4376.666504,4463.205078,0.0,2.0,35.0,,,,0.0,4.0,4.0,4.0,4.0,4.0,4.0,4.0,4.0,4.0,4.0,4.0,4.0,4.0,4.0,100.0,,,,,,,,,,,,,,,,,,,,,,,,,,,,,,,,,,,,,,,,,,,,,,,,,,,,,,,,,,,,,,,,,,,,,,,,,,,,,,,,,,,,,,,,,,,,,,,,,,,,,,,,,,,,,,,,,,,,,,,,,,,,,,,,,,,
1725618267.273789,1725618267.273597,74.0,0.0,4261.025879,4232.94873,4295.769043,4279.615234,4213.846191,4218.461426,4233.205078,4224.743652,4204.358887,4213.461426,4541.922852,4547.436035,4379.743652,4462.94873,0.0,2.0,35.0,,,,0.0,4.0,4.0,4.0,4.0,4.0,4.0,4.0,4.0,4.0,4.0,4.0,4.0,4.0,4.0,100.0,,,,,,,,,,,,,,,,,,,,,,,,,,,,,,,,,,,,,,,,,,,,,,,,,,,,,,,,0.0,0.0,1.0,0.0,1.0,0.0,,,,,,,,,,,,,,,,,,,,,,,,,,,,,,,,,,,,,,,,,,,,,,,,,,,,,,,,,,,,,,,,,,,,,,
1725618267.277693,1725618267.277601,75.0,0.0,4261.410156,4233.205078,4296.794922,4279.358887,4213.589844,4220.769043,4233.205078,4230.0,4203.846191,4214.230957,4541.922852,4544.230957,4381.538574,4462.307617,0.0,2.0,35.0,,,,0.0,4.0,4.0,4.0,4.0,4.0,4.0,4.0,4.0,4.0,4.0,4.0,4.0,4.0,4.0,100.0,,,,,,,,,,,,,,,,,,,,,,,,,,,,,,,,,,,,,,,,,,,,,,,,,,,,,,,,,,,,,,,,,,,,,,,,,,,,,,,,,,,,,,,,,,,,,,,,,,,,,,,,,,,,,,,,,,,,,,,,,,,,,,,,,,,
1725618267.281597,1725618267.281505,76.0,0.0,4262.563965,4234.230957,4297.563965,4278.846191,4215.0,4222.692383,4233.461426,4231.538574,4203.077148,4215.897461,4541.538574,4542.692383,4380.641113,4462.179688,0.0,2.0,35.0,,,,0.0,4.0,4.0,4.0,4.0,4.0,4.0,4.0,4.0,4.0,4.0,4.0,4.0,4.0,4.0,100.0,,,,,,,,,,,,,,,,,,,,,,,,,,,,,,,,,,,,,,,,,,,,,,,,,,,,,,,,,,,,,,,,,,,,,,,,,,,,,,,,,,,,,,,,,,,,,,,,,,,,,,,,,,,,,,,,,,,,,,,,,,,,,,,,,,,
1725618267.285501,1725618267.285409,77.0,0.0,4263.333496,4235.512695,4297.563965,4278.974121,4216.666504,4222.94873,4233.974121,4228.589844,4202.563965,4216.922852,4540.512695,4542.179688,4376.922852,4463.077148,0.0,2.0,35.0,,,,0.0,4.0,4.0,4.0,4.0,4.0,4.0,4.0,4.0,4.0,4.0,4.0,4.0,4.0,4.0,100.0,,,,,,,,,,,,,,,,,,,,,,,,,,,,,,,,,,,,,,,,,,,,,,,,,,,,,,,,,,,,,,,,,,,,,,,,,,,,,,,,,,,,,,,,,,,,,,,,,,,,,,,,,,,,,,,,,,,,,,,,,,,,,,,,,,,
1725618267.289405,1725618267.289413,78.0,0.0,4262.820313,4236.282227,4296.794922,4279.487305,4217.179688,4221.538574,4234.615234,4223.205078,4202.563965,4215.769043,4539.230957,4541.410156,4372.692383,4465.0,0.0,2.0,35.0,,,,0.0,4.0,4.0,4.0,4.0,4.0,4.0,4.0,4.0,4.0,4.0,4.0,4.0,4.0,4.0,100.0,,,,,,,,,,,,,,,,,,,,,,,,,,,,,,,,,,,,,,,,,,,,,,,,,,,,,,,,,,,,,,,,,,,,,,,,,,,,,,,,,,,,,,,,,,,,,,,,,,,,,,,,,,,,,,,,,,,,,,,,,,,,,,,,,,,
1725618267.293309,1725618267.293317,79.0,0.0,4261.410156,4235.769043,4295.641113,4280.0,4216.025879,4219.487305,4235.128418,4218.974121,4202.94873,4212.563965,4538.205078,4539.871582,4370.769043,4466.538574,0.0,2.0,35.0,,,,0.0,4.0,4.0,4.0,4.0,4.0,4.0,4.0,4.0,4.0,4.0,4.0,4.0,4.0,4.0,100.0,,,,,,,,,,,,,,,,,,,,,,,,,,,,,,,,,,,,,,,,,,,,,,,,,,,,,,,,,,,,,,,,,,,,,,,,,,,,,,,,,,,,,,,,,,,,,,,,,,,,,,,,,,,,,,,,,,,,,,,,,,,,,,,,,,,
1725618267.297213,1725618267.297221,80.0,0.0,4260.256348,4234.487305,4294.615234,4280.256348,4214.871582,4218.205078,4235.128418,4217.94873,4203.077148,4208.846191,4538.333496,4538.205078,4372.05127,4466.922852,0.0,2.0,35.0,,,,0.0,4.0,4.0,4.0,4.0,4.0,4.0,4.0,4.0,4.0,4.0,4.0,4.0,4.0,4.0,100.0,,,,,,,,,,,,,,,,,,,,,,,,,,,,,,,,,,,,,,,,,,,,,,,,,,,,,,,,,,,,,,,,,,,,,,,,,,,,,,,,,,,,,,,,,,,,,,,,,,,,,,,,,,,,,,,,,,,,,,,,,,,,,,,,,,,
1725618267.301118,1725618267.301125,81.0,0.0,4260.128418,4232.94873,4294.615234,4280.384766,4214.743652,4218.077148,4234.487305,4219.871582,4202.563965,4205.641113,4539.743652,4537.692383,4374.743652,4466.025879,0.0,2.0,35.0,,,,0.0,4.0,4.0,4.0,4.0,4.0,4.0,4.0,4.0,4.0,4.0,4.0,4.0,4.0,4.0,100.0,,,,,,,,,,,,,,,,,,,,,,,,,,,,,,,,,,,,,,,,,,,,,,,,,,,,,,,,,,,,,,,,,,,,,,,,,,,,,,,,,,,,,,,,,,,,,,,,,,,,,,,,,,,,,,,,,,,,,,,,,,,,,,,,,,,
1725618267.305022,1725618267.305029,82.0,0.0,4260.769043,4231.794922,4295.769043,4280.641113,4215.769043,4218.461426,4233.461426,4222.436035,4201.538574,4203.589844,4541.153809,4538.461426,4376.153809,4464.615234,0.0,2.0,35.0,,,,0.0,4.0,4.0,4.0,4.0,4.0,4.0,4.0,4.0,4.0,4.0,4.0,4.0,4.0,4.0,100.0,,,,,,,,,,,,,,,,,,,,,,,,,,,,,,,,,,,,,,,,,,,,,,,,,,,,,,,,0.0,0.0,1.0,0.0,1.0,0.0,,,,,,,,,,,,,,,,,,,,,,,,,,,,,,,,,,,,,,,,,,,,,,,,,,,,,,,,,,,,,,,,,,,,,,
1725618267.308926,1725618267.308834,83.0,0.0,4261.538574,4231.282227,4297.307617,4281.153809,4216.153809,4218.589844,4232.820313,4223.461426,4200.641113,4202.436035,4540.641113,4538.974121,4374.487305,4463.846191,0.0,2.0,35.0,,,,0.0,4.0,4.0,4.0,4.0,4.0,4.0,4.0,4.0,4.0,4.0,4.0,4.0,4.0,4.0,100.0,,,,,,,,,,,,,,,,,,,,,,,,,,,,,,,,,,,,,,,,,,,,,,,,,,,,,,,,,,,,,,,,,,,,,,,,,,,,,,,,,,,,,,,,,,,,,,,,,,,,,,,,,,,,,,,,,,,,,,,,,,,,,,,,,,,
1725618267.31283,1725618267.312738,84.0,0.0,4261.538574,4231.410156,4297.436035,4281.410156,4214.871582,4218.077148,4232.692383,4222.307617,4200.128418,4202.179688,4537.05127,4537.179688,4370.384766,4463.461426,0.0,2.0,35.0,,,,0.0,4.0,4.0,4.0,4.0,4.0,4.0,4.0,4.0,4.0,4.0,4.0,4.0,4.0,4.0,100.0,,,,,,,,,,,,,,,,,,,,,,,,,,,,,,,,,,,,,,,,,,,,,,,,,,,,,,,,,,,,,,,,,,,,,,,,,,,,,,,,,,,,,,,,,,,,,,,,,,,,,,,,,,,,,,,,,,,,,,,,,,,,,,,,,,,
1725618267.316734,1725618267.316642,85.0,0.0,4260.641113,4232.05127,4295.256348,4280.769043,4212.563965,4216.922852,4232.94873,4219.743652,4199.743652,4202.05127,4531.025879,4532.563965,4366.025879,4462.563965,0.0,2.0,35.0,,,,0.0,4.0,4.0,4.0,4.0,4.0,4.0,4.0,4.0,4.0,4.0,4.0,4.0,4.0,4.0,100.0,,,,,,,,,,,,,,,,,,,,,,,,,,,,,,,,,,,,,,,,,,,,,,,,,,,,,,,,,,,,,,,,,,,,,,,,,,,,,,,,,,,,,,,,,,,,,,,,,,,,,,,,,,,,,,,,,,,,,,,,,,,,,,,,,,,
1725618267.320638,1725618267.320646,86.0,0.0,4259.358887,4232.563965,4291.025879,4279.230957,4210.384766,4215.512695,4233.333496,4216.666504,4199.102539,4201.282227,4524.487305,4526.794922,4363.461426,4461.025879,0.0,2.0,35.0,,,,0.0,4.0,4.0,4.0,4.0,4.0,4.0,4.0,4.0,4.0,4.0,4.0,4.0,4.0,4.0,100.0,,,,,,,,,,,,,,,,,,,,,,,,,,,,,,,,,,,,,,,,,,,,,,,,,,,,,,,,,,,,,,,,,,,,,,,,,,,,,,,,,,,,,,,,,,,,,,,,,,,,,,,,,,,,,,,,,,,,,,,,,,,,,,,,,,,
1725618267.324542,1725618267.32455,87.0,0.0,4258.333496,4232.05127,4287.179688,4277.820313,4209.358887,4214.487305,4233.717773,4214.615234,4198.333496,4199.743652,4520.769043,4522.563965,4363.846191,4459.743652,0.0,2.0,35.0,,,,0.0,4.0,4.0,4.0,4.0,4.0,4.0,4.0,4.0,4.0,4.0,4.0,4.0,4.0,4.0,100.0,,,,,,,,,,,,,,,,,,,,,,,,,,,,,,,,,,,,,,,,,,,,,,,,,,,,,,,,,,,,,,,,,,,,,,,,,,,,,,,,,,,,,,,,,,,,,,,,,,,,,,,,,,,,,,,,,,,,,,,,,,,,,,,,,,,
1725618267.328446,1725618267.328454,88.0,0.0,4259.102539,4231.282227,4286.025879,4277.692383,4210.384766,4214.743652,4233.974121,4214.871582,4198.077148,4198.589844,4522.436035,4522.94873,4366.666504,4460.512695,0.0,2.0,35.0,,,,0.0,4.0,4.0,4.0,4.0,4.0,4.0,4.0,4.0,4.0,4.0,4.0,4.0,4.0,4.0,100.0,,,,,,,,,,,,,,,,,,,,,,,,,,,,,,,,,,,,,,,,,,,,,,,,,,,,,,,,,,,,,,,,,,,,,,,,,,,,,,,,,,,,,,,,,,,,,,,,,,,,,,,,,,,,,,,,,,,,,,,,,,,,,,,,,,,
1725618267.33235,1725618267.332358,89.0,0.0,4262.179688,4231.410156,4288.077148,4279.358887,4213.205078,4216.153809,4234.358887,4217.563965,4198.974121,4199.358887,4529.487305,4528.461426,4370.897461,4464.358887,0.0,2.0,35.0,,,,0.0,4.0,4.0,4.0,4.0,4.0,4.0,4.0,4.0,4.0,4.0,4.0,4.0,4.0,4.0,100.0,,,,,,,,,,,,,,,,,,,,,,,,,,,,,,,,,,,,,,,,,,,,,,,,,,,,,,,,,,,,,,,,,,,,,,,,,,,,,,,,,,,,,,,,,,,,,,,,,,,,,,,,,,,,,,,,,,,,,,,,,,,,,,,,,,,
1725618267.336254,1725618267.336262,90.0,0.0,4266.282227,4233.589844,4292.05127,4282.05127,4216.666504,4218.205078,4235.256348,4221.282227,4200.769043,4202.05127,4539.102539,4536.410156,4375.128418,4470.0,0.0,2.0,35.0,,,,0.0,4.0,4.0,4.0,4.0,4.0,4.0,4.0,4.0,4.0,4.0,4.0,4.0,4.0,4.0,100.0,,,,,,,,,,,,,,,,,,,,,,,,,,,,,,,,,,,,,,,,,,,,,,,,,,,,,,,,0.0,0.0,1.0,0.0,1.0,0.0,,,,,,,,,,,,,,,,,,,,,,,,,,,,,,,,,,,,,,,,,,,,,,,,,,,,,,,,,,,,,,,,,,,,,,
1725618267.340159,1725618267.340066,91.0,0.0,4268.974121,4237.05127,4295.769043,4283.846191,4218.589844,4219.743652,4236.538574,4223.974121,4202.179688,4205.256348,4545.641113,4542.563965,4377.563965,4475.0,0.0,2.0,35.0,,,,0.0,4.0,4.0,4.0,4.0,4.0,4.0,4.0,4.0,4.0,4.0,4.0,4.0,4.0,4.0,100.0,,,,,,,,,,,,,,,,,,,,,,,,,,,,,,,,,,,,,,,,,,,,,,,,,,,,,,,,,,,,,,,,,,,,,,,,,,,,,,,,,,,,,,,,,,,,,,,,,,,,,,,,,,,,,,,,,,,,,,,,,,,,,,,,,,,
1725618267.344063,1725618267.343971,92.0,0.0,4268.077148,4239.230957,4296.922852,4283.205078,4217.436035,4219.871582,4237.179688,4224.487305,4201.794922,4206.410156,4545.0,4543.333496,4376.794922,4476.282227,0.0,2.0,35.0,,,,0.0,4.0,4.0,4.0,4.0,4.0,4.0,4.0,4.0,4.0,4.0,4.0,4.0,4.0,4.0,100.0,,,,,,,,,,,,,,,,,,,,,,,,,,,,,,,,,,,,,,,,,,,,,,,,,,,,,,,,,,,,,,,,,,,,,,,,,,,,,,,,,,,,,,,,,,,,,,,,,,,,,,,,,,,,,,,,,,,,,,,,,,,,,,,,,,,
1725618267.347967,1725618267.347875,93.0,0.0,4263.461426,4237.820313,4293.974121,4278.846191,4213.333496,4218.846191,4235.897461,4222.820313,4198.717773,4203.717773,4536.922852,4538.589844,4372.05127,4472.692383,0.0,2.0,35.0,,,,0.0,4.0,4.0,4.0,4.0,4.0,4.0,4.0,4.0,4.0,4.0,4.0,4.0,4.0,4.0,100.0,,,,,,,,,,,,,,,,,,,,,,,,,,,,,,,,,,,,,,,,,,,,,,,,,,,,,,,,,,,,,,,,,,,,,,,,,,,,,,,,,,,,,,,,,,,,,,,,,,,,,,,,,,,,,,,,,,,,,,,,,,,,,,,,,,,
1725618267.351871,1725618267.351779,94.0,0.0,4256.538574,4232.307617,4287.436035,4271.410156,4208.461426,4217.307617,4232.179688,4219.487305,4193.205078,4197.563965,4525.128418,4530.0,4364.743652,4465.384766,0.0,2.0,35.0,,,,0.0,4.0,4.0,4.0,4.0,4.0,4.0,4.0,4.0,4.0,4.0,4.0,4.0,4.0,4.0,100.0,,,,,,,,,,,,,,,,,,,,,,,,,,,,,,,,,,,,,,,,,,,,,,,,,,,,,,,,,,,,,,,,,,,,,,,,,,,,,,,,,,,,,,,,,,,,,,,,,,,,,,,,,,,,,,,,,,,,,,,,,,,,,,,,,,,
1725618267.355775,1725618267.355583,95.0,0.0,4249.102539,4224.358887,4279.230957,4263.333496,4204.102539,4215.897461,4226.922852,4214.871582,4186.538574,4190.128418,4514.487305,4520.256348,4356.666504,4456.538574,0.0,2.0,35.0,,,,0.0,4.0,4.0,4.0,4.0,4.0,4.0,4.0,4.0,4.0,4.0,4.0,4.0,4.0,4.0,100.0,,,,,,,,,,,,,,,,,,,,,,,,,,,,,,,,,,,,,,,,,,,,,,,,,,,,,,,,,,,,,,,,,,,,,,,,,,,,,,,,,,,,,,,,,,,,,,,,,,,,,,,,,,,,,,,,,,,,,,,,,,,,,,,,,,,
1725618267.359679,1725618267.359487,96.0,0.0,4241.666504,4216.410156,4271.922852,4256.666504,4200.256348,4214.615234,4221.666504,4209.743652,4179.871582,4182.820313,4506.666504,4510.641113,4348.333496,4446.922852,0.0,2.0,35.0,,,,0.0,4.0,4.0,4.0,4.0,4.0,4.0,4.0,4.0,4.0,4.0,4.0,4.0,4.0,4.0,100.0,,,,,,,,,,,,,,,,,,,,,,,,,,,,,,,,,,,,,,,,,,,,,,,,,,,,,,,,,,,,,,,,,,,,,,,,,,,,,,,,,,,,,,,,,,,,,,,,,,,,,,,,,,,,,,,,,,,,,,,,,,,,,,,,,,,
1725618267.363583,1725618267.363391,97.0,0.0,4233.717773,4209.615234,4266.410156,4252.179688,4196.282227,4213.077148,4217.436035,4205.128418,4173.717773,4176.025879,4500.256348,4501.153809,4339.230957,4436.153809,0.0,2.0,35.0,,,,0.0,4.0,4.0,4.0,4.0,4.0,4.0,4.0,4.0,4.0,4.0,4.0,4.0,4.0,4.0,100.0,,,,,,,,,,,,,,,,,,,,,,,,,,,,,,,,,,,,,,,,,,,,,,,,,,,,,,,,,,,,,,,,,,,,,,,,,,,,,,,,,,,,,,,,,,,,,,,,,,,,,,,,,,,,,,,,,,,,,,,,,,,,,,,,,,,
1725618267.367487,1725618267.367395,98.0,0.0,4225.128418,4203.461426,4261.794922,4248.589844,4191.922852,4211.282227,4214.358887,4202.436035,4168.205078,4169.102539,4492.563965,4491.922852,4328.589844,4424.615234,0.0,2.0,35.0,,,,0.0,4.0,4.0,4.0,4.0,4.0,4.0,4.0,4.0,4.0,4.0,4.0,4.0,4.0,4.0,100.0,,,,,,,,,,,,,,,,,1.0,0.0,0.0,,,,,,,,,,,,,,,,,,,,,,,,,,,,,,,,,,,,,0.0,0.0,1.0,0.0,1.0,0.0,5.898937,2.334885,1.667441,0.273563,0.20209,1.952689,1.53614,1.50855,0.313632,0.166561,4.963551,1.999359,0.974319,0.163364,0.159072,2.430152,1.81165,1.167003,0.162544,0.175132,0.757024,0.633554,0.553218,0.066043,0.138134,0.165092,0.377651,0.340052,0.105103,0.110347,0.513818,0.776668,0.436461,0.116263,0.087736,2.108849,1.628009,1.28237,0.469466,0.588454,1.986005,1.164124,0.440268,0.324648,0.173049,3.904786,2.07291,0.659826,0.36404,0.207493,6.404185,3.058189,1.147809,0.580329,0.365055,8.186436,3.766137,1.680471,0.397992,0.373009,5.664901,2.12478,1.401427,0.452758,0.311773,8.044393,2.397673,1.297825,0.366003,0.275671
1725618267.371391,1725618267.371299,99.0,0.0,4217.307617,4197.307617,4257.563965,4244.743652,4187.94873,4210.256348,4212.692383,4202.820313,4164.102539,4162.820313,4483.461426,4484.102539,4317.692383,4414.358887,0.0,2.0,35.0,,,,0.0,4.0,4.0,4.0,4.0,4.0,4.0,4.0,4.0,4.0,4.0,4.0,4.0,4.0,4.0,100.0,,,,,,,,,,,,,,,,,,,,,,,,,,,,,,,,,,,,,,,,,,,,,,,,,,,,,,,,,,,,,,,,,,,,,,,,,,,,,,,,,,,,,,,,,,,,,,,,,,,,,,,,,,,,,,,,,,,,,,,,,,,,,,,,,,,
1725618267.375296,1725618267.375203,100.0,0.0,4212.820313,4192.563965,4254.871582,4241.282227,4185.897461,4210.897461,4212.692383,4207.307617,4163.461426,4159.743652,4475.897461,4480.641113,4310.0,4408.717773,0.0,2.0,35.0,,,,0.0,4.0,4.0,4.0,4.0,4.0,4.0,4.0,4.0,4.0,4.0,4.0,4.0,4.0,4.0,100.0,,,,,,,,,,,,,,,,,,,,,,,,,,,,,,,,,,,,,,,,,,,,,,,,,,,,,,,,,,,,,,,,,,,,,,,,,,,,,,,,,,,,,,,,,,,,,,,,,,,,,,,,,,,,,,,,,,,,,,,,,,,,,,,,,,,
1725618267.3792,1725618267.379108,101.0,0.0,4214.102539,4191.794922,4255.897461,4240.512695,4187.692383,4213.589844,4215.128418,4216.666504,4168.974121,4162.436035,4476.025879,4484.743652,4310.384766,4410.641113,0.0,2.0,35.0,,,,0.0,4.0,4.0,4.0,4.0,4.0,4.0,4.0,4.0,4.0,4.0,4.0,4.0,4.0,4.0,100.0,,,,,,,,,,,,,,,,,,,,,,,,,,,,,,,,,,,,,,,,,,,,,,,,,,,,,,,,,,,,,,,,,,,,,,,,,,,,,,,,,,,,,,,,,,,,,,,,,,,,,,,,,,,,,,,,,,,,,,,,,,,,,,,,,,,
1725618267.383104,1725618267.382912,102.0,0.0,4221.666504,4197.05127,4261.794922,4244.871582,4193.461426,4217.307617,4219.743652,4228.846191,4181.282227,4171.153809,4487.563965,4496.538574,4320.256348,4420.384766,0.0,2.0,35.0,,,,0.0,4.0,4.0,4.0,4.0,4.0,4.0,4.0,4.0,4.0,4.0,4.0,4.0,4.0,4.0,100.0,,,,,,,,,,,,,,,,,,,,,,,,,,,,,,,,,,,,,,,,,,,,,,,,,,,,,,,,,,,,,,,,,,,,,,,,,,,,,,,,,,,,,,,,,,,,,,,,,,,,,,,,,,,,,,,,,,,,,,,,,,,,,,,,,,,
1725618267.387008,1725618267.386816,103.0,0.0,4233.589844,4207.436035,4271.666504,4254.358887,4201.794922,4220.512695,4225.641113,4239.487305,4197.436035,4183.846191,4507.436035,4512.179688,4336.666504,4434.358887,0.0,2.0,35.0,,,,0.0,4.0,4.0,4.0,4.0,4.0,4.0,4.0,4.0,4.0,4.0,4.0,4.0,4.0,4.0,100.0,,,,,,,,,,,,,,,,,,,,,,,,,,,,,,,,,,,,,,,,,,,,,,,,,,,,,,,,,,,,,,,,,,,,,,,,,,,,,,,,,,,,,,,,,,,,,,,,,,,,,,,,,,,,,,,,,,,,,,,,,,,,,,,,,,,
1725618267.390912,1725618267.39072,104.0,0.0,4246.153809,4219.487305,4282.436035,4266.666504,4210.128418,4221.666504,4231.153809,4243.589844,4211.410156,4196.025879,4527.05127,4525.384766,4353.461426,4447.179688,0.0,2.0,35.0,,,,0.0,4.0,4.0,4.0,4.0,4.0,4.0,4.0,4.0,4.0,4.0,4.0,4.0,4.0,4.0,100.0,,,,,,,,,,,,,,,,,,,,,,,,,,,,,,,,,,,,,,,,,,,,,,,,,,,,,,,,,,,,,,,,,,,,,,,,,,,,,,,,,,,,,,,,,,,,,,,,,,,,,,,,,,,,,,,,,,,,,,,,,,,,,,,,,,,
1725618267.394816,1725618267.394724,105.0,0.0,4255.897461,4229.487305,4291.025879,4277.692383,4215.897461,4220.769043,4234.615234,4238.461426,4218.077148,4204.615234,4537.307617,4531.922852,4365.128418,4455.256348,0.0,2.0,35.0,,,,0.0,4.0,4.0,4.0,4.0,4.0,4.0,4.0,4.0,4.0,4.0,4.0,4.0,4.0,4.0,100.0,,,,,,,,,,,,,,,,,,,,,,,,,,,,,,,,,,,,,,,,,,,,,,,,,,,,,,,,,,,,,,,,,,,,,,,,,,,,,,,,,,,,,,,,,,,,,,,,,,,,,,,,,,,,,,,,,,,,,,,,,,,,,,,,,,,
1725618267.39872,1725618267.398628,106.0,0.0,4261.153809,4235.769043,4295.384766,4284.102539,4217.94873,4218.717773,4235.769043,4225.641113,4216.153809,4209.230957,4536.025879,4531.538574,4370.256348,4458.077148,0.0,2.0,35.0,,,,0.0,4.0,4.0,4.0,4.0,4.0,4.0,4.0,4.0,4.0,4.0,4.0,4.0,4.0,4.0,100.0,,,,,,,,,,,,,,,,,,,,,,,,,,,,,,,,,,,,,,,,,,,,,,,,,,,,,,,,0.0,0.0,1.0,0.0,1.0,0.0,,,,,,,,,,,,,,,,,,,,,,,,,,,,,,,,,,,,,,,,,,,,,,,,,,,,,,,,,,,,,,,,,,,,,,
1725618267.402624,1725618267.402532,107.0,0.0,4262.436035,4239.743652,4296.025879,4285.128418,4217.05127,4217.05127,4235.512695,4210.641113,4209.230957,4211.410156,4528.846191,4527.820313,4371.922852,4458.077148,0.0,2.0,35.0,,,,0.0,4.0,4.0,4.0,4.0,4.0,4.0,4.0,4.0,4.0,4.0,4.0,4.0,4.0,4.0,100.0,,,,,,,,,,,,,,,,,,,,,,,,,,,,,,,,,,,,,,,,,,,,,,,,,,,,,,,,,,,,,,,,,,,,,,,,,,,,,,,,,,,,,,,,,,,,,,,,,,,,,,,,,,,,,,,,,,,,,,,,,,,,,,,,,,,
1725618267.406528,1725618267.406436,108.0,0.0,4262.692383,4243.205078,4295.0,4283.077148,4215.512695,4216.922852,4235.0,4199.871582,4202.820313,4213.333496,4523.717773,4524.615234,4373.461426,4458.205078,0.0,2.0,35.0,,,,0.0,4.0,4.0,4.0,4.0,4.0,4.0,4.0,4.0,4.0,4.0,4.0,4.0,4.0,4.0,100.0,,,,,,,,,,,,,,,,,,,,,,,,,,,,,,,,,,,,,,,,,,,,,,,,,,,,,,,,,,,,,,,,,,,,,,,,,,,,,,,,,,,,,,,,,,,,,,,,,,,,,,,,,,,,,,,,,,,,,,,,,,,,,,,,,,,
1725618267.410432,1725618267.41044,109.0,0.0,4263.846191,4246.922852,4294.487305,4280.769043,4215.128418,4217.692383,4235.128418,4196.410156,4200.769043,4215.641113,4525.128418,4523.717773,4376.153809,4459.615234,0.0,2.0,35.0,,,,0.0,4.0,4.0,4.0,4.0,4.0,4.0,4.0,4.0,4.0,4.0,4.0,4.0,4.0,4.0,100.0,,,,,,,,,,,,,,,,,,,,,,,,,,,,,,,,,,,,,,,,,,,,,,,,,,,,,,,,,,,,,,,,,,,,,,,,,,,,,,,,,,,,,,,,,,,,,,,,,,,,,,,,,,,,,,,,,,,,,,,,,,,,,,,,,,,
1725618267.414337,1725618267.414344,110.0,0.0,4265.897461,4249.102539,4295.512695,4280.384766,4215.512695,4218.333496,4235.897461,4199.358887,4201.922852,4217.94873,4530.641113,4524.743652,4378.461426,4461.538574,0.0,2.0,35.0,,,,0.0,4.0,4.0,4.0,4.0,4.0,4.0,4.0,4.0,4.0,4.0,4.0,4.0,4.0,4.0,100.0,,,,,,,,,,,,,,,,,,,,,,,,,,,,,,,,,,,,,,,,,,,,,,,,,,,,,,,,,,,,,,,,,,,,,,,,,,,,,,,,,,,,,,,,,,,,,,,,,,,,,,,,,,,,,,,,,,,,,,,,,,,,,,,,,,,
1725618267.418241,1725618267.418248,111.0,0.0,4267.436035,4247.563965,4297.05127,4281.794922,4215.769043,4217.820313,4236.025879,4205.512695,4203.333496,4218.974121,4535.0,4526.410156,4378.717773,4462.436035,0.0,2.0,35.0,,,,0.0,4.0,4.0,4.0,4.0,4.0,4.0,4.0,4.0,4.0,4.0,4.0,4.0,4.0,4.0,100.0,,,,,,,,,,,,,,,,,,,,,,,,,,,,,,,,,,,,,,,,,,,,,,,,,,,,,,,,,,,,,,,,,,,,,,,,,,,,,,,,,,,,,,,,,,,,,,,,,,,,,,,,,,,,,,,,,,,,,,,,,,,,,,,,,,,
1725618267.422145,1725618267.422153,112.0,0.0,4266.666504,4242.436035,4297.307617,4283.333496,4215.256348,4216.538574,4235.128418,4211.666504,4202.692383,4218.333496,4535.256348,4528.461426,4376.282227,4461.282227,0.0,2.0,35.0,,,,0.0,4.0,4.0,4.0,4.0,4.0,4.0,4.0,4.0,4.0,4.0,4.0,4.0,4.0,4.0,100.0,,,,,,,,,,,,,,,,,,,,,,,,,,,,,,,,,,,,,,,,,,,,,,,,,,,,,,,,,,,,,,,,,,,,,,,,,,,,,,,,,,,,,,,,,,,,,,,,,,,,,,,,,,,,,,,,,,,,,,,,,,,,,,,,,,,
1725618267.426049,1725618267.426157,113.0,0.0,4262.692383,4236.025879,4295.128418,4283.077148,4214.102539,4215.512695,4233.333496,4215.769043,4201.282227,4216.153809,4533.333496,4531.282227,4372.94873,4458.974121,0.0,2.0,35.0,,,,0.0,4.0,4.0,4.0,4.0,4.0,4.0,4.0,4.0,4.0,4.0,4.0,4.0,4.0,4.0,100.0,,,,,,,,,,,,,,,,,,,,,,,,,,,,,,,,,,,,,,,,,,,,,,,,,,,,,,,,,,,,,,,,,,,,,,,,,,,,,,,,,,,,,,,,,,,,,,,,,,,,,,,,,,,,,,,,,,,,,,,,,,,,,,,,,,,
1725618267.429953,1725618267.430061,114.0,0.0,4256.666504,4231.666504,4292.179688,4280.897461,4212.692383,4215.769043,4232.05127,4218.461426,4202.179688,4213.077148,4532.94873,4535.0,4371.410156,4457.179688,0.0,2.0,35.0,,,,0.0,4.0,4.0,4.0,4.0,4.0,4.0,4.0,4.0,4.0,4.0,4.0,4.0,4.0,4.0,100.0,,,,,,,,,,,,,,,,,,,,,,,,,,,,,,,,,,,,,,,,,,,,,,,,,,,,,,,,0.0,0.0,1.0,0.0,1.0,0.0,,,,,,,,,,,,,,,,,,,,,,,,,,,,,,,,,,,,,,,,,,,,,,,,,,,,,,,,,,,,,,,,,,,,,,
1725618267.433857,1725618267.433965,115.0,0.0,4250.769043,4230.769043,4290.512695,4278.205078,4211.922852,4217.179688,4231.922852,4221.153809,4206.538574,4210.0,4535.128418,4538.589844,4372.307617,4457.05127,0.0,2.0,35.0,,,,0.0,4.0,4.0,4.0,4.0,4.0,4.0,4.0,4.0,4.0,4.0,4.0,4.0,4.0,4.0,100.0,,,,,,,,,,,,,,,,,,,,,,,,,,,,,,,,,,,,,,,,,,,,,,,,,,,,,,,,,,,,,,,,,,,,,,,,,,,,,,,,,,,,,,,,,,,,,,,,,,,,,,,,,,,,,,,,,,,,,,,,,,,,,,,,,,,
1725618267.437761,1725618267.437869,116.0,0.0,4247.307617,4232.563965,4291.282227,4276.666504,4211.922852,4218.589844,4232.563965,4224.871582,4212.05127,4207.436035,4537.94873,4540.128418,4373.589844,4458.205078,0.0,2.0,35.0,,,,0.0,4.0,4.0,4.0,4.0,4.0,4.0,4.0,4.0,4.0,4.0,4.0,4.0,4.0,4.0,100.0,,,,,,,,,,,,,,,,,,,,,,,,,,,,,,,,,,,,,,,,,,,,,,,,,,,,,,,,,,,,,,,,,,,,,,,,,,,,,,,,,,,,,,,,,,,,,,,,,,,,,,,,,,,,,,,,,,,,,,,,,,,,,,,,,,,
1725618267.441665,1725618267.441773,117.0,0.0,4246.922852,4234.230957,4292.820313,4276.410156,4213.205078,4218.717773,4232.94873,4228.717773,4214.487305,4205.256348,4537.436035,4538.974121,4372.692383,4459.743652,0.0,2.0,35.0,,,,0.0,4.0,4.0,4.0,4.0,4.0,4.0,4.0,4.0,4.0,4.0,4.0,4.0,4.0,4.0,100.0,,,,,,,,,,,,,,,,,,,,,,,,,,,,,,,,,,,,,,,,,,,,,,,,,,,,,,,,,,,,,,,,,,,,,,,,,,,,,,,,,,,,,,,,,,,,,,,,,,,,,,,,,,,,,,,,,,,,,,,,,,,,,,,,,,,
1725618267.445569,1725618267.445577,118.0,0.0,4248.205078,4234.102539,4292.692383,4276.794922,4214.871582,4217.94873,4232.820313,4231.153809,4211.922852,4203.461426,4532.436035,4536.153809,4368.461426,4460.641113,0.0,2.0,35.0,,,,0.0,4.0,4.0,4.0,4.0,4.0,4.0,4.0,4.0,4.0,4.0,4.0,4.0,4.0,4.0,100.0,,,,,,,,,,,,,,,,,,,,,,,,,,,,,,,,,,,,,,,,,,,,,,,,,,,,,,,,,,,,,,,,,,,,,,,,,,,,,,,,,,,,,,,,,,,,,,,,,,,,,,,,,,,,,,,,,,,,,,,,,,,,,,,,,,,
1725618267.449474,1725618267.449481,119.0,0.0,4249.358887,4232.820313,4290.769043,4277.179688,4215.897461,4218.077148,4232.563965,4231.410156,4206.410156,4202.05127,4525.128418,4534.102539,4362.692383,4459.871582,0.0,2.0,35.0,,,,0.0,4.0,4.0,4.0,4.0,4.0,4.0,4.0,4.0,4.0,4.0,4.0,4.0,4.0,4.0,100.0,,,,,,,,,,,,,,,,,,,,,,,,,,,,,,,,,,,,,,,,,,,,,,,,,,,,,,,,,,,,,,,,,,,,,,,,,,,,,,,,,,,,,,,,,,,,,,,,,,,,,,,,,,,,,,,,,,,,,,,,,,,,,,,,,,,
1725618267.453378,1725618267.453385,120.0,0.0,4249.230957,4231.666504,4288.077148,4277.563965,4216.153809,4220.769043,4232.436035,4231.153809,4202.436035,4201.666504,4519.743652,4535.0,4358.077148,4457.563965,0.0,2.0,35.0,,,,0.0,4.0,4.0,4.0,4.0,4.0,4.0,4.0,4.0,4.0,4.0,4.0,4.0,4.0,4.0,100.0,,,,,,,,,,,,,,,,,,,,,,,,,,,,,,,,,,,,,,,,,,,,,,,,,,,,,,,,,,,,,,,,,,,,,,,,,,,,,,,,,,,,,,,,,,,,,,,,,,,,,,,,,,,,,,,,,,,,,,,,,,,,,,,,,,,
1725618267.457282,1725618267.457389,121.0,0.0,4248.846191,4231.666504,4286.666504,4277.94873,4215.897461,4225.641113,4232.563965,4232.307617,4203.717773,4202.05127,4519.871582,4538.461426,4356.282227,4455.128418,0.0,2.0,35.0,,,,0.0,4.0,4.0,4.0,4.0,4.0,4.0,4.0,4.0,4.0,4.0,4.0,4.0,4.0,4.0,100.0,,,,,,,,,,,,,,,,,,,,,,,,,,,,,,,,,,,,,,,,,,,,,,,,,,,,,,,,,,,,,,,,,,,,,,,,,,,,,,,,,,,,,,,,,,,,,,,,,,,,,,,,,,,,,,,,,,,,,,,,,,,,,,,,,,,
1725618267.461186,1725618267.461294,122.0,0.0,4249.358887,4231.922852,4287.05127,4278.333496,4216.025879,4230.384766,4232.563965,4234.871582,4209.358887,4203.717773,4525.384766,4541.410156,4357.436035,4454.615234,0.0,2.0,35.0,,,,0.0,4.0,4.0,4.0,4.0,4.0,4.0,4.0,4.0,4.0,4.0,4.0,4.0,4.0,4.0,100.0,,,,,,,,,,,,,,,,,,,,,,,,,,,,,,,,,,,,,,,,,,,,,,,,,,,,,,,,0.0,0.0,1.0,0.0,1.0,0.0,,,,,,,,,,,,,,,,,,,,,,,,,,,,,,,,,,,,,,,,,,,,,,,,,,,,,,,,,,,,,,,,,,,,,,
1725618267.46509,1725618267.465198,123.0,0.0,4252.179688,4232.05127,4289.102539,4278.205078,4216.538574,4231.922852,4232.436035,4236.410156,4215.384766,4206.922852,4532.436035,4541.922852,4361.025879,4457.563965,0.0,2.0,35.0,,,,0.0,4.0,4.0,4.0,4.0,4.0,4.0,4.0,4.0,4.0,4.0,4.0,4.0,4.0,4.0,100.0,,,,,,,,,,,,,,,,,,,,,,,,,,,,,,,,,,,,,,,,,,,,,,,,,,,,,,,,,,,,,,,,,,,,,,,,,,,,,,,,,,,,,,,,,,,,,,,,,,,,,,,,,,,,,,,,,,,,,,,,,,,,,,,,,,,
1725618267.468994,1725618267.469102,124.0,0.0,4256.922852,4232.436035,4292.436035,4278.461426,4217.05127,4229.102539,4232.692383,4235.0,4218.077148,4211.922852,4537.692383,4540.641113,4366.538574,4463.333496,0.0,2.0,35.0,,,,0.0,4.0,4.0,4.0,4.0,4.0,4.0,4.0,4.0,4.0,4.0,4.0,4.0,4.0,4.0,100.0,,,,,,,,,,,,,,,,,,,,,,,,,,,,,,,,,,,,,,,,,,,,,,,,,,,,,,,,,,,,,,,,,,,,,,,,,,,,,,,,,,,,,,,,,,,,,,,,,,,,,,,,,,,,,,,,,,,,,,,,,,,,,,,,,,,
1725618267.472898,1725618267.472906,125.0,0.0,4262.94873,4234.487305,4296.153809,4280.128418,4217.307617,4223.589844,4233.589844,4231.410156,4217.179688,4217.307617,4540.256348,4540.384766,4373.077148,4470.0,0.0,2.0,35.0,,,,0.0,4.0,4.0,4.0,4.0,4.0,4.0,4.0,4.0,4.0,4.0,4.0,4.0,4.0,4.0,100.0,,,,,,,,,,,,,,,,,,,,,,,,,,,,,,,,,,,,,,,,,,,,,,,,,,,,,,,,,,,,,,,,,,,,,,,,,,,,,,,,,,,,,,,,,,,,,,,,,,,,,,,,,,,,,,,,,,,,,,,,,,,,,,,,,,,
1725618267.476802,1725618267.47681,126.0,0.0,4268.589844,4238.717773,4299.230957,4283.077148,4217.307617,4218.461426,4234.487305,4228.333496,4215.0,4220.641113,4541.282227,4542.820313,4378.974121,4475.512695,0.0,2.0,35.0,,,,0.0,4.0,4.0,4.0,4.0,4.0,4.0,4.0,4.0,4.0,4.0,4.0,4.0,4.0,4.0,100.0,,,,,,,,,,,,,,,,,,,,,,,,,,,,,,,,,,,,,,,,,,,,,,,,,,,,,,,,,,,,,,,,,,,,,,,,,,,,,,,,,,,,,,,,,,,,,,,,,,,,,,,,,,,,,,,,,,,,,,,,,,,,,,,,,,,
1725618267.480707,1725618267.480714,127.0,0.0,4273.077148,4244.230957,4301.410156,4286.282227,4217.05127,4216.410156,4234.871582,4228.461426,4213.717773,4220.256348,4542.05127,4546.794922,4382.94873,4478.717773,0.0,2.0,35.0,,,,0.0,4.0,4.0,4.0,4.0,4.0,4.0,4.0,4.0,4.0,4.0,4.0,4.0,4.0,4.0,100.0,,,,,,,,,,,,,,,,,,,,,,,,,,,,,,,,,,,,,,,,,,,,,,,,,,,,,,,,,,,,,,,,,,,,,,,,,,,,,,,,,,,,,,,,,,,,,,,,,,,,,,,,,,,,,,,,,,,,,,,,,,,,,,,,,,,
1725618267.484611,1725618267.484618,128.0,0.0,4276.282227,4248.589844,4302.563965,4287.94873,4216.794922,4217.179688,4234.615234,4231.666504,4213.461426,4216.922852,4542.692383,4549.358887,4383.974121,4479.615234,2621.0,2.0,35.0,,,,0.0,4.0,4.0,4.0,4.0,4.0,4.0,4.0,4.0,4.0,4.0,4.0,4.0,4.0,4.0,100.0,,,,,,,,,,,,,,,,,,,,,,,,,,,,,,,,,,,,,,,,,,,,,,,,,,,,,,,,,,,,,,,,,,,,,,,,,,,,,,,,,,,,,,,,,,,,,,,,,,,,,,,,,,,,,,,,,,,,,,,,,,,,,,,,,,,
1725618267.488515,1725618267.488422,129.0,0.0,4278.205078,4250.128418,4303.333496,4287.436035,4216.410156,4218.589844,4233.717773,4233.589844,4212.563965,4213.333496,4542.692383,4548.205078,4382.563965,4479.358887,2558.0,2.0,35.0,,,,0.0,4.0,4.0,4.0,4.0,4.0,4.0,4.0,4.0,4.0,4.0,4.0,4.0,4.0,4.0,100.0,,,,,,,,,,,,,,,,,,,,,,,,,,,,,,,,,,,,,,,,,,,,,,,,,,,,,,,,,,,,,,,,,,,,,,,,,,,,,,,,,,,,,,,,,,,,,,,,,,,,,,,,,,,,,,,,,,,,,,,,,,,,,,,,,,,
1725618267.492419,1725618267.492327,130.0,0.0,4279.230957,4248.717773,4304.102539,4285.641113,4216.025879,4218.589844,4232.820313,4229.615234,4209.487305,4211.922852,4541.794922,4544.102539,4380.769043,4478.717773,2454.0,2.0,35.0,,,,0.0,4.0,4.0,4.0,4.0,4.0,4.0,4.0,4.0,4.0,4.0,4.0,4.0,4.0,4.0,100.0,,,,,,,,,,,,,,,,,1.0,0.0,0.0,,,,,,,,,,,,,,,,,,,,,,,,,,,,,,,,,,,,,0.0,0.0,1.0,0.0,1.0,0.0,6.123074,2.509572,1.727806,0.265482,0.196406,1.934203,1.72838,1.443013,0.321289,0.172506,5.216218,2.097935,1.037751,0.152461,0.166822,2.345788,2.069653,1.287404,0.154986,0.168489,0.836689,0.665387,0.600081,0.061968,0.126781,0.143738,0.318869,0.272539,0.078004,0.101301,0.535565,0.800162,0.476919,0.111051,0.08267,2.198296,1.628374,1.311159,0.471489,0.585177,2.240722,1.062635,0.481889,0.308082,0.167507,4.258902,1.871159,0.683233,0.374921,0.200007,6.741513,2.956714,1.293349,0.512282,0.357319,8.61042,3.73491,2.075095,0.370502,0.380411,6.120506,2.031944,1.500706,0.43306,0.314653,8.356683,2.461896,1.453914,0.351477,0.257569
1725618267.496323,1725618267.496231,131.0,0.0,4279.743652,4246.538574,4305.128418,4284.615234,4215.769043,4216.794922,4232.436035,4219.230957,4204.871582,4213.205078,4540.0,4539.487305,4380.128418,4478.205078,2469.0,2.0,35.0,,,,0.0,4.0,4.0,4.0,4.0,4.0,4.0,4.0,4.0,4.0,4.0,4.0,4.0,4.0,4.0,100.0,,,,,,,,,,,,,,,,,,,,,,,,,,,,,,,,,,,,,,,,,,,,,,,,,,,,,,,,,,,,,,,,,,,,,,,,,,,,,,,,,,,,,,,,,,,,,,,,,,,,,,,,,,,,,,,,,,,,,,,,,,,,,,,,,,,
1725618267.500227,1725618267.500235,132.0,0.0,4279.871582,4246.025879,4306.922852,4285.897461,4215.897461,4214.615234,4232.820313,4207.307617,4201.153809,4214.871582,4537.94873,4536.666504,4381.410156,4477.94873,2424.0,2.0,35.0,,,,0.0,4.0,4.0,4.0,4.0,4.0,4.0,4.0,4.0,4.0,4.0,4.0,4.0,4.0,4.0,100.0,,,,,,,,,,,,,,,,,,,,,,,,,,,,,,,,,,,,,,,,,,,,,,,,,,,,,,,,,,,,,,,,,,,,,,,,,,,,,,,,,,,,,,,,,,,,,,,,,,,,,,,,,,,,,,,,,,,,,,,,,,,,,,,,,,,
1725618267.504131,1725618267.504239,133.0,0.0,4279.871582,4247.94873,4308.974121,4288.589844,4216.410156,4213.974121,4233.333496,4199.487305,4200.0,4214.102539,4536.282227,4536.153809,4383.717773,4477.820313,2393.0,2.0,35.0,,,,0.0,4.0,4.0,4.0,4.0,4.0,4.0,4.0,4.0,4.0,4.0,4.0,4.0,4.0,4.0,100.0,,,,,,,,,,,,,,,,,,,,,,,,,,,,,,,,,,,,,,,,,,,,,,,,,,,,,,,,,,,,,,,,,,,,,,,,,,,,,,,,,,,,,,,,,,,,,,,,,,,,,,,,,,,,,,,,,,,,,,,,,,,,,,,,,,,
1725618267.508035,1725618267.508143,134.0,0.0,4279.487305,4250.384766,4310.384766,4291.025879,4217.05127,4215.0,4233.717773,4198.974121,4200.641113,4210.256348,4535.769043,4537.307617,4385.384766,4477.563965,2179.0,2.0,35.0,,,,0.0,4.0,4.0,4.0,4.0,4.0,4.0,4.0,4.0,4.0,4.0,4.0,4.0,4.0,4.0,100.0,,,,,,,,,,,,,,,,,,,,,,,,,,,,,,,,,,,,,,,,,,,,,,,,,,,,,,,,,,,,,,,,,,,,,,,,,,,,,,,,,,,,,,,,,,,,,,,,,,,,,,,,,,,,,,,,,,,,,,,,,,,,,,,,,,,
1725618267.511939,1725618267.512047,135.0,0.0,4279.102539,4251.153809,4310.641113,4292.05127,4217.436035,4216.666504,4233.461426,4204.358887,4201.282227,4205.384766,4536.538574,4539.230957,4385.897461,4477.307617,2493.0,2.0,35.0,,,,0.0,4.0,4.0,4.0,4.0,4.0,4.0,4.0,4.0,4.0,4.0,4.0,4.0,4.0,4.0,100.0,,,,,,,,,,,,,,,,,,,,,,,,,,,,,,,,,,,,,,,,,,,,,,,,,,,,,,,,,,,,,,,,,,,,,,,,,,,,,,,,,,,,,,,,,,,,,,,,,,,,,,,,,,,,,,,,,,,,,,,,,,,,,,,,,,,
1725618267.515844,1725618267.515951,136.0,0.0,4279.230957,4249.615234,4310.256348,4292.179688,4217.436035,4217.692383,4232.820313,4212.179688,4201.282227,4203.077148,4538.461426,4542.05127,4384.743652,4477.563965,2473.0,2.0,35.0,,,,0.0,4.0,4.0,4.0,4.0,4.0,4.0,4.0,4.0,4.0,4.0,4.0,4.0,4.0,4.0,100.0,,,,,,,,,,,,,,,,,,,,,,,,,,,,,,,,,,,,,,,,,,,,,,,,,,,,,,,,,,,,,,,,,,,,,,,,,,,,,,,,,,,,,,,,,,,,,,,,,,,,,,,,,,,,,,,,,,,,,,,,,,,,,,,,,,,
1725618267.519748,1725618267.519855,137.0,0.0,4280.256348,4247.563965,4310.641113,4292.179688,4216.922852,4217.94873,4232.179688,4218.974121,4202.05127,4204.487305,4540.512695,4546.025879,4383.077148,4478.333496,2548.0,2.0,35.0,,,,0.0,4.0,4.0,4.0,4.0,4.0,4.0,4.0,4.0,4.0,4.0,4.0,4.0,4.0,4.0,100.0,,,,,,,,,,,,,,,,,,,,,,,,,,,,,,,,,,,,,,,,,,,,,,,,,,,,,,,,,,,,,,,,,,,,,,,,,,,,,,,,,,,,,,,,,,,,,,,,,,,,,,,,,,,,,,,,,,,,,,,,,,,,,,,,,,,
1725618267.523652,1725618267.523759,138.0,0.0,4281.666504,4246.922852,4311.922852,4292.820313,4216.410156,4218.205078,4232.05127,4223.077148,4204.230957,4207.94873,4541.666504,4550.128418,4381.922852,4479.230957,2889.0,2.0,35.0,,,,0.0,4.0,4.0,4.0,4.0,4.0,4.0,4.0,4.0,4.0,4.0,4.0,4.0,4.0,4.0,100.0,,,,,,,,,,,,,,,,,,,,,,,,,,,,,,,,,,,,,,,,,,,,,,,,,,,,,,,,0.0,0.0,1.0,0.0,1.0,0.0,,,,,,,,,,,,,,,,,,,,,,,,,,,,,,,,,,,,,,,,,,,,,,,,,,,,,,,,,,,,,,,,,,,,,,
1725618267.527556,1725618267.527663,139.0,0.0,4281.922852,4247.820313,4312.820313,4293.589844,4216.025879,4219.102539,4232.436035,4224.230957,4207.820313,4210.512695,4541.922852,4552.563965,4381.794922,4478.974121,3072.0,2.0,35.0,,,,0.0,4.0,4.0,4.0,4.0,4.0,4.0,4.0,4.0,4.0,4.0,4.0,4.0,4.0,4.0,100.0,,,,,,,,,,,,,,,,,,,,,,,,,,,,,,,,,,,,,,,,,,,,,,,,,,,,,,,,,,,,,,,,,,,,,,,,,,,,,,,,,,,,,,,,,,,,,,,,,,,,,,,,,,,,,,,,,,,,,,,,,,,,,,,,,,,
1725618267.53146,1725618267.531667,140.0,0.0,4279.743652,4248.333496,4311.538574,4292.820313,4215.897461,4220.128418,4232.94873,4224.102539,4211.666504,4209.743652,4541.794922,4551.666504,4382.179688,4477.436035,3421.0,2.0,35.0,,,,0.0,4.0,4.0,4.0,4.0,4.0,4.0,4.0,4.0,4.0,4.0,4.0,4.0,4.0,4.0,100.0,,,,,,,,,,,,,,,,,,,,,,,,,,,,,,,,,,,,,,,,,,,,,,,,,,,,,,,,,,,,,,,,,,,,,,,,,,,,,,,,,,,,,,,,,,,,,,,,,,,,,,,,,,,,,,,,,,,,,,,,,,,,,,,,,,,
1725618267.535364,1725618267.535571,141.0,0.0,4275.128418,4246.410156,4307.436035,4289.615234,4216.282227,4220.384766,4233.333496,4224.615234,4214.743652,4205.897461,4541.666504,4547.692383,4382.307617,4475.641113,3889.0,2.0,35.0,,,,0.0,4.0,4.0,4.0,4.0,4.0,4.0,4.0,4.0,4.0,4.0,4.0,4.0,4.0,4.0,100.0,,,,,,,,,,,,,,,,,,,,,,,,,,,,,,,,,,,,,,,,,,,,,,,,,,,,,,,,,,,,,,,,,,,,,,,,,,,,,,,,,,,,,,,,,,,,,,,,,,,,,,,,,,,,,,,,,,,,,,,,,,,,,,,,,,,
1725618267.539268,1725618267.539475,142.0,0.0,4269.615234,4241.794922,4302.436035,4284.743652,4216.922852,4219.743652,4233.077148,4227.179688,4216.794922,4201.410156,4541.794922,4542.692383,4382.179688,4475.0,2889.0,2.0,35.0,,,,0.0,4.0,4.0,4.0,4.0,4.0,4.0,4.0,4.0,4.0,4.0,4.0,4.0,4.0,4.0,100.0,,,,,,,,,,,,,,,,,,,,,,,,,,,,,,,,,,,,,,,,,,,,,,,,,,,,,,,,,,,,,,,,,,,,,,,,,,,,,,,,,,,,,,,,,,,,,,,,,,,,,,,,,,,,,,,,,,,,,,,,,,,,,,,,,,,
1725618267.543172,1725618267.54338,143.0,0.0,4265.128418,4236.538574,4298.589844,4280.641113,4217.05127,4218.846191,4232.563965,4231.153809,4217.563965,4199.615234,4542.179688,4539.615234,4381.538574,4475.512695,3072.0,2.0,35.0,,,,0.0,4.0,4.0,4.0,4.0,4.0,4.0,4.0,4.0,4.0,4.0,4.0,4.0,4.0,4.0,100.0,,,,,,,,,,,,,,,,,,,,,,,,,,,,,,,,,,,,,,,,,,,,,,,,,,,,,,,,,,,,,,,,,,,,,,,,,,,,,,,,,,,,,,,,,,,,,,,,,,,,,,,,,,,,,,,,,,,,,,,,,,,,,,,,,,,
1725618267.547076,1725618267.547384,144.0,0.0,4263.333496,4232.94873,4296.666504,4279.102539,4216.666504,4218.589844,4232.307617,4234.487305,4216.666504,4200.897461,4542.820313,4539.615234,4380.384766,4475.769043,3421.0,2.0,35.0,,,,0.0,4.0,4.0,4.0,4.0,4.0,4.0,4.0,4.0,4.0,4.0,4.0,4.0,4.0,4.0,100.0,,,,,,,,,,,,,,,,,,,,,,,,,,,,,,,,,,,,,,,,,,,,,,,,,,,,,,,,,,,,,,,,,,,,,,,,,,,,,,,,,,,,,,,,,,,,,,,,,,,,,,,,,,,,,,,,,,,,,,,,,,,,,,,,,,,
1725618267.55098,1725618267.551288,145.0,0.0,4263.974121,4232.307617,4295.128418,4279.487305,4216.153809,4219.358887,4232.307617,4234.615234,4213.974121,4203.205078,4543.205078,4541.410156,4378.846191,4474.230957,3889.0,2.0,35.0,,,,0.0,4.0,4.0,4.0,4.0,4.0,4.0,4.0,4.0,4.0,4.0,4.0,4.0,4.0,4.0,100.0,,,,,,,,,,,,,,,,,,,,,,,,,,,,,,,,,,,,,,,,,,,,,,,,,,,,,,,,,,,,,,,,,,,,,,,,,,,,,,,,,,,,,,,,,,,,,,,,,,,,,,,,,,,,,,,,,,,,,,,,,,,,,,,,,,,
1725618267.554885,1725618267.555192,146.0,0.0,4265.128418,4233.717773,4292.436035,4279.871582,4216.538574,4220.512695,4233.077148,4230.512695,4209.871582,4203.717773,4542.820313,4542.307617,4377.307617,4470.256348,2889.0,2.0,35.0,,,,0.0,4.0,4.0,4.0,4.0,4.0,4.0,4.0,4.0,4.0,4.0,4.0,4.0,4.0,4.0,100.0,,,,,,,,,,,,,,,,,,,,,,,,,,,,,,,,,,,,,,,,,,,,,,,,,,,,,,,,0.0,0.0,1.0,0.0,1.0,0.0,,,,,,,,,,,,,,,,,,,,,,,,,,,,,,,,,,,,,,,,,,,,,,,,,,,,,,,,,,,,,,,,,,,,,,
1725618267.558789,1725618267.559096,147.0,0.0,4265.0,4235.384766,4288.205078,4279.102539,4218.589844,4221.153809,4234.230957,4224.102539,4205.384766,4201.922852,4541.666504,4541.153809,4376.153809,4465.256348,3072.0,2.0,35.0,,,,0.0,4.0,4.0,4.0,4.0,4.0,4.0,4.0,4.0,4.0,4.0,4.0,4.0,4.0,4.0,100.0,,,,,,,,,,,,,,,,,,,,,,,,,,,,,,,,,,,,,,,,,,,,,,,,,,,,,,,,,,,,,,,,,,,,,,,,,,,,,,,,,,,,,,,,,,,,,,,,,,,,,,,,,,,,,,,,,,,,,,,,,,,,,,,,,,,
1725618267.562693,1725618267.5629,148.0,0.0,4262.563965,4235.897461,4284.358887,4277.820313,4222.179688,4220.897461,4235.384766,4218.974121,4202.307617,4199.871582,4541.025879,4538.333496,4375.256348,4461.282227,3421.0,2.0,35.0,,,,0.0,4.0,4.0,4.0,4.0,4.0,4.0,4.0,4.0,4.0,4.0,4.0,4.0,4.0,4.0,100.0,,,,,,,,,,,,,,,,,,,,,,,,,,,,,,,,,,,,,,,,,,,,,,,,,,,,,,,,,,,,,,,,,,,,,,,,,,,,,,,,,,,,,,,,,,,,,,,,,,,,,,,,,,,,,,,,,,,,,,,,,,,,,,,,,,,
1725618267.566597,1725618267.566804,149.0,0.0,4258.846191,4235.641113,4282.563965,4277.563965,4226.282227,4219.615234,4236.025879,4217.94873,4201.538574,4199.743652,4541.794922,4535.256348,4373.717773,4459.871582,3889.0,2.0,35.0,,,,0.0,4.0,4.0,4.0,4.0,4.0,4.0,4.0,4.0,4.0,4.0,4.0,4.0,4.0,4.0,100.0,,,,,,,,,,,,,,,,,,,,,,,,,,,,,,,,,,,,,,,,,,,,,,,,,,,,,,,,,,,,,,,,,,,,,,,,,,,,,,,,,,,,,,,,,,,,,,,,,,,,,,,,,,,,,,,,,,,,,,,,,,,,,,,,,,,
1725618267.570501,1725618267.570708,150.0,0.0,4254.871582,4235.128418,4283.077148,4278.333496,4229.487305,4218.205078,4236.025879,4220.0,4202.820313,4200.769043,4543.333496,4532.563965,4371.538574,4460.384766,2889.0,2.0,35.0,,,,0.0,4.0,4.0,4.0,4.0,4.0,4.0,4.0,4.0,4.0,4.0,4.0,4.0,4.0,4.0,100.0,,,,,,,,,,,,,,,,,,,,,,,,,,,,,,,,,,,,,,,,,,,,,,,,,,,,,,,,,,,,,,,,,,,,,,,,,,,,,,,,,,,,,,,,,,,,,,,,,,,,,,,,,,,,,,,,,,,,,,,,,,,,,,,,,,,
1725618267.574405,1725618267.574612,151.0,0.0,4251.538574,4234.615234,4284.358887,4278.461426,4230.769043,4217.307617,4235.384766,4221.666504,4204.358887,4200.256348,4543.974121,4529.230957,4368.717773,4460.512695,3072.0,2.0,35.0,,,,0.0,4.0,4.0,4.0,4.0,4.0,4.0,4.0,4.0,4.0,4.0,4.0,4.0,4.0,4.0,100.0,,,,,,,,,,,,,,,,,,,,,,,,,,,,,,,,,,,,,,,,,,,,,,,,,,,,,,,,,,,,,,,,,,,,,,,,,,,,,,,,,,,,,,,,,,,,,,,,,,,,,,,,,,,,,,,,,,,,,,,,,,,,,,,,,,,
1725618267.578309,1725618267.578417,152.0,0.0,4248.333496,4233.846191,4284.102539,4276.025879,4230.0,4216.794922,4234.871582,4218.974121,4203.846191,4196.282227,4541.922852,4523.846191,4364.871582,4457.563965,3421.0,2.0,35.0,,,,0.0,4.0,4.0,4.0,4.0,4.0,4.0,4.0,4.0,4.0,4.0,4.0,4.0,4.0,4.0,100.0,,,,,,,,,,,,,,,,,,,,,,,,,,,,,,,,,,,,,,,,,,,,,,,,,,,,,,,,,,,,,,,,,,,,,,,,,,,,,,,,,,,,,,,,,,,,,,,,,,,,,,,,,,,,,,,,,,,,,,,,,,,,,,,,,,,
1725618267.582213,1725618267.582321,153.0,0.0,4244.615234,4232.307617,4281.153809,4270.512695,4228.589844,4216.538574,4234.487305,4210.769043,4199.871582,4189.615234,4536.794922,4515.384766,4359.102539,4450.897461,3889.0,2.0,35.0,,,,0.0,4.0,4.0,4.0,4.0,4.0,4.0,4.0,4.0,4.0,4.0,4.0,4.0,4.0,4.0,100.0,,,,,,,,,,,,,,,,,,,,,,,,,,,,,,,,,,,,,,,,,,,,,,,,,,,,,,,,,,,,,,,,,,,,,,,,,,,,,,,,,,,,,,,,,,,,,,,,,,,,,,,,,,,,,,,,,,,,,,,,,,,,,,,,,,,
1725618267.586117,1725618267.586225,154.0,0.0,4239.871582,4230.512695,4276.538574,4264.358887,4227.563965,4216.282227,4234.358887,4199.358887,4192.94873,4183.461426,4529.615234,4505.512695,4352.307617,4442.05127,2889.0,2.0,35.0,,,,0.0,4.0,4.0,4.0,4.0,4.0,4.0,4.0,4.0,4.0,4.0,4.0,4.0,4.0,4.0,100.0,,,,,,,,,,,,,,,,,,,,,,,,,,,,,,,,,,,,,,,,,,,,,,,,,,,,,,,,0.0,0.0,1.0,0.0,1.0,0.0,,,,,,,,,,,,,,,,,,,,,,,,,,,,,,,,,,,,,,,,,,,,,,,,,,,,,,,,,,,,,,,,,,,,,,
1725618267.590021,1725618267.590129,155.0,0.0,4235.384766,4229.487305,4272.436035,4261.025879,4227.692383,4216.025879,4234.230957,4189.615234,4186.025879,4181.025879,4522.820313,4497.307617,4346.282227,4434.743652,3072.0,2.0,35.0,,,,0.0,4.0,4.0,4.0,4.0,4.0,4.0,4.0,4.0,4.0,4.0,4.0,4.0,4.0,4.0,100.0,,,,,,,,,,,,,,,,,,,,,,,,,,,,,,,,,,,,,,,,,,,,,,,,,,,,,,,,,,,,,,,,,,,,,,,,,,,,,,,,,,,,,,,,,,,,,,,,,,,,,,,,,,,,,,,,,,,,,,,,,,,,,,,,,,,
1725618267.593926,1725618267.593933,156.0,0.0,4232.563965,4230.0,4271.025879,4262.179688,4228.589844,4215.897461,4233.974121,4186.153809,4182.307617,4182.307617,4519.102539,4493.333496,4343.077148,4432.179688,3421.0,2.0,35.0,,,,0.0,4.0,4.0,4.0,4.0,4.0,4.0,4.0,4.0,4.0,4.0,4.0,4.0,4.0,4.0,100.0,,,,,,,,,,,,,,,,,,,,,,,,,,,,,,,,,,,,,,,,,,,,,,,,,,,,,,,,,,,,,,,,,,,,,,,,,,,,,,,,,,,,,,,,,,,,,,,,,,,,,,,,,,,,,,,,,,,,,,,,,,,,,,,,,,,
1725618267.59783,1725618267.597837,157.0,0.0,4231.794922,4231.410156,4272.179688,4266.794922,4229.487305,4216.282227,4233.589844,4190.256348,4183.333496,4184.871582,4519.615234,4494.358887,4343.205078,4435.384766,3889.0,2.0,35.0,,,,0.0,4.0,4.0,4.0,4.0,4.0,4.0,4.0,4.0,4.0,4.0,4.0,4.0,4.0,4.0,100.0,,,,,,,,,,,,,,,,,,,,,,,,,,,,,,,,,,,,,,,,,,,,,,,,,,,,,,,,,,,,,,,,,,,,,,,,,,,,,,,,,,,,,,,,,,,,,,,,,,,,,,,,,,,,,,,,,,,,,,,,,,,,,,,,,,,
1725618267.601734,1725618267.601741,158.0,0.0,4232.563965,4232.436035,4274.102539,4272.436035,4229.743652,4217.05127,4233.589844,4199.743652,4188.333496,4186.538574,4523.461426,4498.846191,4345.512695,4441.666504,2889.0,2.0,35.0,,,,0.0,4.0,4.0,4.0,4.0,4.0,4.0,4.0,4.0,4.0,4.0,4.0,4.0,4.0,4.0,100.0,,,,,,,,,,,,,,,,,,,,,,,,,,,,,,,,,,,,,,,,,,,,,,,,,,,,,,,,,,,,,,,,,,,,,,,,,,,,,,,,,,,,,,,,,,,,,,,,,,,,,,,,,,,,,,,,,,,,,,,,,,,,,,,,,,,
1725618267.605638,1725618267.605745,159.0,0.0,4233.205078,4232.307617,4275.256348,4276.538574,4229.487305,4218.077148,4234.358887,4210.128418,4194.871582,4186.538574,4527.94873,4504.743652,4347.692383,4446.794922,3072.0,2.0,35.0,,,,0.0,4.0,4.0,4.0,4.0,4.0,4.0,4.0,4.0,4.0,4.0,4.0,4.0,4.0,4.0,100.0,,,,,,,,,,,,,,,,,,,,,,,,,,,,,,,,,,,,,,,,,,,,,,,,,,,,,,,,,,,,,,,,,,,,,,,,,,,,,,,,,,,,,,,,,,,,,,,,,,,,,,,,,,,,,,,,,,,,,,,,,,,,,,,,,,,
1725618267.609542,1725618267.609649,160.0,0.0,4232.94873,4231.794922,4275.0,4277.94873,4228.974121,4219.487305,4235.256348,4217.436035,4200.769043,4185.384766,4530.0,4509.487305,4347.820313,4447.692383,3421.0,2.0,35.0,,,,0.0,4.0,4.0,4.0,4.0,4.0,4.0,4.0,4.0,4.0,4.0,4.0,4.0,4.0,4.0,100.0,,,,,,,,,,,,,,,,,,,,,,,,,,,,,,,,,,,,,,,,,,,,,,,,,,,,,,,,,,,,,,,,,,,,,,,,,,,,,,,,,,,,,,,,,,,,,,,,,,,,,,,,,,,,,,,,,,,,,,,,,,,,,,,,,,,
1725618267.613446,1725618267.613554,161.0,0.0,4232.307617,4231.922852,4273.974121,4276.794922,4228.589844,4220.641113,4235.128418,4219.743652,4204.102539,4183.589844,4528.333496,4510.897461,4344.871582,4444.358887,3889.0,2.0,35.0,,,,0.0,4.0,4.0,4.0,4.0,4.0,4.0,4.0,4.0,4.0,4.0,4.0,4.0,4.0,4.0,100.0,,,,,,,,,,,,,,,,,,,,,,,,,,,,,,,,,,,,,,,,,,,,,,,,,,,,,,,,,,,,,,,,,,,,,,,,,,,,,,,,,,,,,,,,,,,,,,,,,,,,,,,,,,,,,,,,,,,,,,,,,,,,,,,,,,,
1725618267.61735,1725618267.617558,162.0,0.0,4232.692383,4233.461426,4272.820313,4273.974121,4227.94873,4220.769043,4233.333496,4217.05127,4203.589844,4182.05127,4524.102539,4508.589844,4340.384766,4438.974121,2889.0,2.0,35.0,,,,0.0,4.0,4.0,4.0,4.0,4.0,4.0,4.0,4.0,4.0,4.0,4.0,4.0,4.0,4.0,100.0,,,,,,,,,,,,,,,,,1.0,0.0,0.0,,,,,,,,,,,,,,,,,,,,,,,,,,,,,,,,,,,,,0.0,0.0,1.0,0.0,1.0,0.0,5.879703,2.44718,1.649857,0.240189,0.181615,1.905225,1.757234,1.286504,0.303833,0.176949,5.080733,2.007807,1.044833,0.149684,0.164389,2.252735,2.135707,1.323712,0.148877,0.15469,0.901364,0.667897,0.620171,0.059083,0.110807,0.133985,0.270098,0.209259,0.059243,0.088523,0.574412,0.738324,0.482544,0.101778,0.075539,2.287552,1.601342,1.347312,0.476492,0.573898,2.569114,0.928787,0.490315,0.288313,0.155034,4.401995,1.624032,0.650656,0.358172,0.188074,6.658779,2.747277,1.321433,0.439388,0.342191,8.500484,3.5894,2.320269,0.354708,0.372891,6.246187,1.851427,1.448981,0.395866,0.300263,7.979356,2.36311,1.483019,0.326282,0.233164
1725618267.621254,1725618267.621462,163.0,0.0,4235.384766,4236.410156,4272.307617,4271.410156,4227.563965,4219.358887,4231.153809,4210.769043,4199.615234,4181.666504,4519.487305,4503.846191,4336.922852,4434.487305,3072.0,2.0,35.0,,,,0.0,4.0,4.0,4.0,4.0,4.0,4.0,4.0,4.0,4.0,4.0,4.0,4.0,4.0,4.0,100.0,,,,,,,,,,,,,,,,,,,,,,,,,,,,,,,,,,,,,,,,,,,,,,,,,,,,,,,,,,,,,,,,,,,,,,,,,,,,,,,,,,,,,,,,,,,,,,,,,,,,,,,,,,,,,,,,,,,,,,,,,,,,,,,,,,,
1725618267.625158,1725618267.625366,164.0,0.0,4240.769043,4241.025879,4273.589844,4271.025879,4227.820313,4217.436035,4230.641113,4203.846191,4195.512695,4183.205078,4517.436035,4500.256348,4337.179688,4433.589844,3421.0,2.0,35.0,,,,0.0,4.0,4.0,4.0,4.0,4.0,4.0,4.0,4.0,4.0,4.0,4.0,4.0,4.0,4.0,100.0,,,,,,,,,,,,,,,,,,,,,,,,,,,,,,,,,,,,,,,,,,,,,,,,,,,,,,,,,,,,,,,,,,,,,,,,,,,,,,,,,,,,,,,,,,,,,,,,,,,,,,,,,,,,,,,,,,,,,,,,,,,,,,,,,,,
1725618267.629063,1725618267.62927,165.0,0.0,4247.692383,4247.05127,4277.563965,4273.717773,4229.358887,4216.922852,4233.333496,4200.512695,4194.871582,4186.922852,4520.384766,4501.538574,4342.179688,4437.179688,3889.0,2.0,35.0,,,,0.0,4.0,4.0,4.0,4.0,4.0,4.0,4.0,4.0,4.0,4.0,4.0,4.0,4.0,4.0,100.0,,,,,,,,,,,,,,,,,,,,,,,,,,,,,,,,,,,,,,,,,,,,,,,,,,,,,,,,,,,,,,,,,,,,,,,,,,,,,,,,,,,,,,,,,,,,,,,,,,,,,,,,,,,,,,,,,,,,,,,,,,,,,,,,,,,
1725618267.632967,1725618267.633174,166.0,0.0,4254.615234,4253.846191,4283.974121,4278.974121,4231.794922,4219.615234,4238.077148,4204.358887,4199.102539,4192.563965,4528.717773,4509.743652,4350.512695,4444.871582,2889.0,2.0,35.0,,,,0.0,4.0,4.0,4.0,4.0,4.0,4.0,4.0,4.0,4.0,4.0,4.0,4.0,4.0,4.0,100.0,,,,,,,,,,,,,,,,,,,,,,,,,,,,,,,,,,,,,,,,,,,,,,,,,,,,,,,,,,,,,,,,,,,,,,,,,,,,,,,,,,,,,,,,,,,,,,,,,,,,,,,,,,,,,,,,,,,,,,,,,,,,,,,,,,,
1725618267.636871,1725618267.637178,167.0,0.0,4261.153809,4260.256348,4291.153809,4285.897461,4234.615234,4225.0,4242.563965,4215.256348,4206.794922,4198.974121,4540.512695,4522.820313,4359.743652,4454.743652,3072.0,2.0,35.0,,,,0.0,4.0,4.0,4.0,4.0,4.0,4.0,4.0,4.0,4.0,4.0,4.0,4.0,4.0,4.0,100.0,,,,,,,,,,,,,,,,,,,,,,,,,,,,,,,,,,,,,,,,,,,,,,,,,,,,,,,,,,,,,,,,,,,,,,,,,,,,,,,,,,,,,,,,,,,,,,,,,,,,,,,,,,,,,,,,,,,,,,,,,,,,,,,,,,,
1725618267.640775,1725618267.641082,168.0,0.0,4268.077148,4265.128418,4297.307617,4292.563965,4236.794922,4230.256348,4244.230957,4227.94873,4214.487305,4204.358887,4551.666504,4535.897461,4367.692383,4464.358887,3421.0,2.0,35.0,,,,0.0,4.0,4.0,4.0,4.0,4.0,4.0,4.0,4.0,4.0,4.0,4.0,4.0,4.0,4.0,100.0,,,,,,,,,,,,,,,,,,,,,,,,,,,,,,,,,,,,,,,,,,,,,,,,,,,,,,,,,,,,,,,,,,,,,,,,,,,,,,,,,,,,,,,,,,,,,,,,,,,,,,,,,,,,,,,,,,,,,,,,,,,,,,,,,,,
1725618267.644679,1725618267.644986,169.0,0.0,4275.128418,4267.692383,4301.025879,4296.922852,4237.563965,4232.179688,4242.563965,4235.641113,4218.974121,4207.179688,4557.563965,4543.461426,4373.077148,4471.410156,3889.0,2.0,35.0,,,,0.0,4.0,4.0,4.0,4.0,4.0,4.0,4.0,4.0,4.0,4.0,4.0,4.0,4.0,4.0,100.0,,,,,,,,,,,,,,,,,,,,,,,,,,,,,,,,,,,,,,,,,,,,,,,,,,,,,,,,,,,,,,,,,,,,,,,,,,,,,,,,,,,,,,,,,,,,,,,,,,,,,,,,,,,,,,,,,,,,,,,,,,,,,,,,,,,
1725618267.648583,1725618267.64889,170.0,0.0,4280.384766,4267.94873,4302.307617,4298.333496,4237.05127,4229.358887,4239.102539,4233.717773,4218.717773,4207.179688,4556.153809,4543.077148,4375.641113,4474.487305,2889.0,2.0,35.0,,,,0.0,4.0,4.0,4.0,4.0,4.0,4.0,4.0,4.0,4.0,4.0,4.0,4.0,4.0,4.0,100.0,,,,,,,,,,,,,,,,,,,,,,,,,,,,,,,,,,,,,,,,,,,,,,,,,,,,,,,,0.0,0.0,1.0,0.0,1.0,0.0,,,,,,,,,,,,,,,,,,,,,,,,,,,,,,,,,,,,,,,,,,,,,,,,,,,,,,,,,,,,,,,,,,,,,,
1725618267.652487,1725618267.652695,171.0,0.0,4281.282227,4267.179688,4301.538574,4297.307617,4235.769043,4223.461426,4235.769043,4223.461426,4215.384766,4205.256348,4548.974121,4536.025879,4375.512695,4473.461426,3072.0,2.0,35.0,,,,0.0,4.0,4.0,4.0,4.0,4.0,4.0,4.0,4.0,4.0,4.0,4.0,4.0,4.0,4.0,100.0,,,,,,,,,,,,,,,,,,,,,,,,,,,,,,,,,,,,,,,,,,,,,,,,,,,,,,,,,,,,,,,,,,,,,,,,,,,,,,,,,,,,,,,,,,,,,,,,,,,,,,,,,,,,,,,,,,,,,,,,,,,,,,,,,,,
1725618267.656391,1725618267.656599,172.0,0.0,4277.563965,4266.282227,4299.615234,4295.512695,4234.358887,4217.692383,4234.102539,4209.743652,4212.179688,4203.205078,4540.897461,4526.794922,4373.205078,4469.615234,3421.0,2.0,35.0,,,,0.0,4.0,4.0,4.0,4.0,4.0,4.0,4.0,4.0,4.0,4.0,4.0,4.0,4.0,4.0,100.0,,,,,,,,,,,,,,,,,,,,,,,,,,,,,,,,,,,,,,,,,,,,,,,,,,,,,,,,,,,,,,,,,,,,,,,,,,,,,,,,,,,,,,,,,,,,,,,,,,,,,,,,,,,,,,,,,,,,,,,,,,,,,,,,,,,
1725618267.660295,1725618267.660503,173.0,0.0,4271.410156,4265.641113,4297.436035,4294.615234,4233.589844,4214.743652,4234.230957,4198.589844,4211.922852,4202.563965,4535.641113,4520.384766,4371.025879,4465.128418,3889.0,2.0,35.0,,,,0.0,4.0,4.0,4.0,4.0,4.0,4.0,4.0,4.0,4.0,4.0,4.0,4.0,4.0,4.0,100.0,,,,,,,,,,,,,,,,,,,,,,,,,,,,,,,,,,,,,,,,,,,,,,,,,,,,,,,,,,,,,,,,,,,,,,,,,,,,,,,,,,,,,,,,,,,,,,,,,,,,,,,,,,,,,,,,,,,,,,,,,,,,,,,,,,,
1725618267.664199,1725618267.664407,174.0,0.0,4266.410156,4265.256348,4296.153809,4294.743652,4233.461426,4214.871582,4235.128418,4193.461426,4214.102539,4204.102539,4534.743652,4518.717773,4371.410156,4461.922852,2889.0,2.0,35.0,,,,0.0,4.0,4.0,4.0,4.0,4.0,4.0,4.0,4.0,4.0,4.0,4.0,4.0,4.0,4.0,100.0,,,,,,,,,,,,,,,,,,,,,,,,,,,,,,,,,,,,,,,,,,,,,,,,,,,,,,,,,,,,,,,,,,,,,,,,,,,,,,,,,,,,,,,,,,,,,,,,,,,,,,,,,,,,,,,,,,,,,,,,,,,,,,,,,,,
1725618267.668104,1725618267.668211,175.0,0.0,4264.871582,4265.128418,4295.512695,4295.256348,4233.589844,4216.666504,4235.641113,4194.743652,4215.512695,4206.922852,4537.436035,4520.641113,4375.0,4460.897461,3072.0,2.0,35.0,,,,0.0,4.0,4.0,4.0,4.0,4.0,4.0,4.0,4.0,4.0,4.0,4.0,4.0,4.0,4.0,100.0,,,,,,,,,,,,,,,,,,,,,,,,,,,,,,,,,,,,,,,,,,,,,,,,,,,,,,,,,,,,,,,,,,,,,,,,,,,,,,,,,,,,,,,,,,,,,,,,,,,,,,,,,,,,,,,,,,,,,,,,,,,,,,,,,,,
1725618267.672008,1725618267.672115,176.0,0.0,4266.282227,4265.641113,4294.871582,4295.512695,4233.589844,4218.846191,4235.641113,4200.769043,4213.717773,4210.256348,4541.282227,4523.461426,4379.743652,4461.922852,3421.0,2.0,35.0,,,,0.0,4.0,4.0,4.0,4.0,4.0,4.0,4.0,4.0,4.0,4.0,4.0,4.0,4.0,4.0,100.0,,,,,,,,,,,,,,,,,,,,,,,,,,,,,,,,,,,,,,,,,,,,,,,,,,,,,,,,,,,,,,,,,,,,,,,,,,,,,,,,,,,,,,,,,,,,,,,,,,,,,,,,,,,,,,,,,,,,,,,,,,,,,,,,,,,
1725618267.675912,1725618267.676019,177.0,0.0,4267.820313,4266.922852,4294.102539,4295.512695,4233.461426,4220.897461,4235.641113,4208.846191,4209.358887,4213.461426,4543.846191,4525.897461,4383.077148,4463.461426,3889.0,2.0,35.0,,,,0.0,4.0,4.0,4.0,4.0,4.0,4.0,4.0,4.0,4.0,4.0,4.0,4.0,4.0,4.0,100.0,,,,,,,,,,,,,,,,,,,,,,,,,,,,,,,,,,,,,,,,,,,,,,,,,,,,,,,,,,,,,,,,,,,,,,,,,,,,,,,,,,,,,,,,,,,,,,,,,,,,,,,,,,,,,,,,,,,,,,,,,,,,,,,,,,,
1725618267.679816,1725618267.679923,178.0,0.0,4267.563965,4268.717773,4293.717773,4295.897461,4233.589844,4223.077148,4235.897461,4215.769043,4206.153809,4216.153809,4544.102539,4527.692383,4383.205078,4464.102539,2889.0,2.0,35.0,,,,0.0,4.0,4.0,4.0,4.0,4.0,4.0,4.0,4.0,4.0,4.0,4.0,4.0,4.0,4.0,100.0,,,,,,,,,,,,,,,,,,,,,,,,,,,,,,,,,,,,,,,,,,,,,,,,,,,,,,,,0.0,0.0,1.0,0.0,1.0,0.0,,,,,,,,,,,,,,,,,,,,,,,,,,,,,,,,,,,,,,,,,,,,,,,,,,,,,,,,,,,,,,,,,,,,,,
1725618267.68372,1725618267.683728,179.0,0.0,4265.769043,4270.0,4294.487305,4296.153809,4234.102539,4225.128418,4236.025879,4219.230957,4206.282227,4217.563965,4542.436035,4528.077148,4380.512695,4463.333496,3072.0,2.0,35.0,,,,0.0,4.0,4.0,4.0,4.0,4.0,4.0,4.0,4.0,4.0,4.0,4.0,4.0,4.0,4.0,100.0,,,,,,,,,,,,,,,,,,,,,,,,,,,,,,,,,,,,,,,,,,,,,,,,,,,,,,,,,,,,,,,,,,,,,,,,,,,,,,,,,,,,,,,,,,,,,,,,,,,,,,,,,,,,,,,,,,,,,,,,,,,,,,,,,,,
1725618267.687624,1725618267.687632,180.0,0.0,4263.974121,4270.0,4295.384766,4295.128418,4234.871582,4225.512695,4235.641113,4219.102539,4208.846191,4216.153809,4540.0,4525.897461,4376.153809,4461.025879,3421.0,2.0,35.0,,,,0.0,4.0,4.0,4.0,4.0,4.0,4.0,4.0,4.0,4.0,4.0,4.0,4.0,4.0,4.0,100.0,,,,,,,,,,,,,,,,,,,,,,,,,,,,,,,,,,,,,,,,,,,,,,,,,,,,,,,,,,,,,,,,,,,,,,,,,,,,,,,,,,,,,,,,,,,,,,,,,,,,,,,,,,,,,,,,,,,,,,,,,,,,,,,,,,,
1725618267.691528,1725618267.691536,181.0,0.0,4262.820313,4268.333496,4295.0,4291.922852,4235.256348,4222.820313,4234.358887,4216.666504,4210.769043,4211.666504,4538.205078,4520.256348,4371.922852,4457.05127,3889.0,2.0,35.0,,,,0.0,4.0,4.0,4.0,4.0,4.0,4.0,4.0,4.0,4.0,4.0,4.0,4.0,4.0,4.0,100.0,,,,,,,,,,,,,,,,,,,,,,,,,,,,,,,,,,,,,,,,,,,,,,,,,,,,,,,,,,,,,,,,,,,,,,,,,,,,,,,,,,,,,,,,,,,,,,,,,,,,,,,,,,,,,,,,,,,,,,,,,,,,,,,,,,,
1725618267.695432,1725618267.69554,182.0,0.0,4261.538574,4265.641113,4291.922852,4286.666504,4234.871582,4217.563965,4233.077148,4213.846191,4209.615234,4205.897461,4536.794922,4512.563965,4368.333496,4451.922852,2889.0,2.0,35.0,,,,0.0,4.0,4.0,4.0,4.0,4.0,4.0,4.0,4.0,4.0,4.0,4.0,4.0,4.0,4.0,100.0,,,,,,,,,,,,,,,,,,,,,,,,,,,,,,,,,,,,,,,,,,,,,,,,,,,,,,,,,,,,,,,,,,,,,,,,,,,,,,,,,,,,,,,,,,,,,,,,,,,,,,,,,,,,,,,,,,,,,,,,,,,,,,,,,,,
1725618267.699336,1725618267.699444,183.0,0.0,4258.974121,4262.94873,4286.666504,4281.282227,4233.717773,4213.333496,4232.563965,4212.436035,4206.666504,4201.410156,4535.384766,4507.05127,4365.897461,4447.179688,3072.0,2.0,35.0,,,,0.0,4.0,4.0,4.0,4.0,4.0,4.0,4.0,4.0,4.0,4.0,4.0,4.0,4.0,4.0,100.0,,,,,,,,,,,,,,,,,,,,,,,,,,,,,,,,,,,,,,,,,,,,,,,,,,,,,,,,,,,,,,,,,,,,,,,,,,,,,,,,,,,,,,,,,,,,,,,,,,,,,,,,,,,,,,,,,,,,,,,,,,,,,,,,,,,
1725618267.703241,1725618267.703348,184.0,0.0,4255.128418,4261.025879,4281.666504,4277.820313,4232.436035,4213.717773,4232.94873,4213.461426,4205.128418,4200.641113,4533.717773,4506.922852,4364.871582,4445.256348,3421.0,2.0,35.0,,,,0.0,4.0,4.0,4.0,4.0,4.0,4.0,4.0,4.0,4.0,4.0,4.0,4.0,4.0,4.0,100.0,,,,,,,,,,,,,,,,,,,,,,,,,,,,,,,,,,,,,,,,,,,,,,,,,,,,,,,,,,,,,,,,,,,,,,,,,,,,,,,,,,,,,,,,,,,,,,,,,,,,,,,,,,,,,,,,,,,,,,,,,,,,,,,,,,,
1725618267.707145,1725618267.707252,185.0,0.0,4252.05127,4260.0,4279.358887,4277.820313,4232.05127,4219.871582,4233.846191,4216.410156,4207.179688,4203.974121,4533.333496,4512.179688,4365.512695,4447.563965,3889.0,2.0,35.0,,,,0.0,4.0,4.0,4.0,4.0,4.0,4.0,4.0,4.0,4.0,4.0,4.0,4.0,4.0,4.0,100.0,,,,,,,,,,,,,,,,,,,,,,,,,,,,,,,,,,,,,,,,,,,,,,,,,,,,,,,,,,,,,,,,,,,,,,,,,,,,,,,,,,,,,,,,,,,,,,,,,,,,,,,,,,,,,,,,,,,,,,,,,,,,,,,,,,,
1725618267.711049,1725618267.711256,186.0,0.0,4251.922852,4259.487305,4281.410156,4280.769043,4232.692383,4228.717773,4234.230957,4218.974121,4212.307617,4210.128418,4535.256348,4519.102539,4368.077148,4453.077148,2889.0,2.0,35.0,,,,0.0,4.0,4.0,4.0,4.0,4.0,4.0,4.0,4.0,4.0,4.0,4.0,4.0,4.0,4.0,100.0,,,,,,,,,,,,,,,,,,,,,,,,,,,,,,,,,,,,,,,,,,,,,,,,,,,,,,,,0.0,0.0,1.0,0.0,1.0,0.0,,,,,,,,,,,,,,,,,,,,,,,,,,,,,,,,,,,,,,,,,,,,,,,,,,,,,,,,,,,,,,,,,,,,,,
1725618267.714953,1725618267.71516,187.0,0.0,4255.897461,4260.128418,4286.794922,4285.384766,4234.358887,4234.487305,4234.230957,4219.358887,4217.94873,4216.153809,4539.487305,4524.102539,4372.436035,4458.974121,3072.0,2.0,35.0,,,,0.0,4.0,4.0,4.0,4.0,4.0,4.0,4.0,4.0,4.0,4.0,4.0,4.0,4.0,4.0,100.0,,,,,,,,,,,,,,,,,,,,,,,,,,,,,,,,,,,,,,,,,,,,,,,,,,,,,,,,,,,,,,,,,,,,,,,,,,,,,,,,,,,,,,,,,,,,,,,,,,,,,,,,,,,,,,,,,,,,,,,,,,,,,,,,,,,
1725618267.718857,1725618267.719064,188.0,0.0,4261.794922,4262.436035,4292.820313,4289.743652,4236.025879,4233.205078,4234.230957,4218.077148,4221.538574,4219.230957,4545.128418,4525.769043,4377.307617,4462.436035,3421.0,2.0,35.0,,,,0.0,4.0,4.0,4.0,4.0,4.0,4.0,4.0,4.0,4.0,4.0,4.0,4.0,4.0,4.0,100.0,,,,,,,,,,,,,,,,,,,,,,,,,,,,,,,,,,,,,,,,,,,,,,,,,,,,,,,,,,,,,,,,,,,,,,,,,,,,,,,,,,,,,,,,,,,,,,,,,,,,,,,,,,,,,,,,,,,,,,,,,,,,,,,,,,,
1725618267.722761,1725618267.723068,189.0,0.0,4266.153809,4265.769043,4296.282227,4292.307617,4236.794922,4225.769043,4234.487305,4217.179688,4222.307617,4218.589844,4550.384766,4526.153809,4380.897461,4462.179688,3889.0,2.0,35.0,,,,0.0,4.0,4.0,4.0,4.0,4.0,4.0,4.0,4.0,4.0,4.0,4.0,4.0,4.0,4.0,100.0,,,,,,,,,,,,,,,,,,,,,,,,,,,,,,,,,,,,,,,,,,,,,,,,,,,,,,,,,,,,,,,,,,,,,,,,,,,,,,,,,,,,,,,,,,,,,,,,,,,,,,,,,,,,,,,,,,,,,,,,,,,,,,,,,,,
1725618267.726665,1725618267.726972,190.0,0.0,4266.666504,4267.692383,4296.153809,4292.563965,4236.025879,4217.436035,4234.743652,4218.333496,4220.384766,4215.897461,4554.102539,4528.077148,4382.563965,4459.743652,2889.0,2.0,35.0,,,,0.0,4.0,4.0,4.0,4.0,4.0,4.0,4.0,4.0,4.0,4.0,4.0,4.0,4.0,4.0,100.0,,,,,,,,,,,,,,,,,,,,,,,,,,,,,,,,,,,,,,,,,,,,,,,,,,,,,,,,,,,,,,,,,,,,,,,,,,,,,,,,,,,,,,,,,,,,,,,,,,,,,,,,,,,,,,,,,,,,,,,,,,,,,,,,,,,
1725618267.730569,1725618267.730876,191.0,0.0,4263.461426,4265.769043,4293.589844,4290.769043,4233.974121,4214.230957,4234.230957,4221.153809,4217.307617,4214.230957,4555.512695,4532.307617,4382.820313,4457.563965,3072.0,2.0,35.0,,,,0.0,4.0,4.0,4.0,4.0,4.0,4.0,4.0,4.0,4.0,4.0,4.0,4.0,4.0,4.0,100.0,,,,,,,,,,,,,,,,,,,,,,,,,,,,,,,,,,,,,,,,,,,,,,,,,,,,,,,,,,,,,,,,,,,,,,,,,,,,,,,,,,,,,,,,,,,,,,,,,,,,,,,,,,,,,,,,,,,,,,,,,,,,,,,,,,,
1725618267.734473,1725618267.734781,192.0,0.0,4259.358887,4259.871582,4291.282227,4287.820313,4231.794922,4217.692383,4232.820313,4223.333496,4215.641113,4215.641113,4554.871582,4536.922852,4382.94873,4457.179688,3421.0,2.0,35.0,,,,0.0,4.0,4.0,4.0,4.0,4.0,4.0,4.0,4.0,4.0,4.0,4.0,4.0,4.0,4.0,100.0,,,,,,,,,,,,,,,,,,,,,,,,,,,,,,,,,,,,,,,,,,,,,,,,,,,,,,,,,,,,,,,,,,,,,,,,,,,,,,,,,,,,,,,,,,,,,,,,,,,,,,,,,,,,,,,,,,,,,,,,,,,,,,,,,,,
1725618267.738377,1725618267.738685,193.0,0.0,4257.05127,4252.820313,4290.769043,4284.102539,4230.512695,4224.358887,4230.897461,4223.333496,4216.538574,4219.230957,4552.820313,4539.358887,4384.102539,4458.846191,3889.0,2.0,35.0,,,,0.0,4.0,4.0,4.0,4.0,4.0,4.0,4.0,4.0,4.0,4.0,4.0,4.0,4.0,4.0,100.0,,,,,,,,,,,,,,,,,,,,,,,,,,,,,,,,,,,,,,,,,,,,,,,,,,,,,,,,,,,,,,,,,,,,,,,,,,,,,,,,,,,,,,,,,,,,,,,,,,,,,,,,,,,,,,,,,,,,,,,,,,,,,,,,,,,
1725618267.742282,1725618267.742489,194.0,0.0,4257.692383,4248.974121,4292.05127,4280.641113,4230.384766,4228.846191,4229.615234,4222.307617,4219.871582,4222.692383,4551.282227,4538.974121,4385.384766,4461.025879,2889.0,2.0,35.0,,,,0.0,4.0,4.0,4.0,4.0,4.0,4.0,4.0,4.0,4.0,4.0,4.0,4.0,4.0,4.0,100.0,1.0,75.0,4.0,4.0,4.0,4.0,4.0,1.0,4.0,4.0,4.0,4.0,4.0,4.0,4.0,4.0,1.0,0.0,0.0,,,,,,,,,,,,,,,,,,,,,,,,,,,,,,,,,,,,,0.0,0.0,1.0,0.0,1.0,0.0,5.249959,2.210999,1.522155,0.21419,0.159811,1.840317,1.648481,1.116047,0.277724,0.176544,4.623255,1.792144,1.000026,0.156798,0.150547,2.153848,2.029711,1.277756,0.148844,0.135577,0.959184,0.645314,0.632459,0.064501,0.095934,0.129383,0.221094,0.158576,0.050127,0.074009,0.600028,0.617879,0.453305,0.092427,0.065504,2.36691,1.512954,1.357964,0.497753,0.558284,2.877758,0.770606,0.484456,0.277686,0.139466,4.26302,1.332226,0.614003,0.318175,0.172681,6.184581,2.437288,1.24947,0.396004,0.323165,7.930463,3.292879,2.347128,0.370013,0.348727,5.874658,1.663337,1.330231,0.357277,0.269322,7.021572,2.123744,1.408165,0.308004,0.205924
1725618267.746186,1725618267.746393,195.0,0.0,4259.871582,4251.025879,4293.717773,4278.846191,4231.153809,4228.077148,4229.615234,4222.563965,4223.717773,4223.589844,4551.794922,4538.077148,4385.384766,4462.692383,3072.0,2.0,35.0,,,,0.0,4.0,4.0,4.0,4.0,4.0,4.0,4.0,4.0,4.0,4.0,4.0,4.0,4.0,4.0,100.0,,,,,,,,,,,,,,,,,,,,,,,,,,,,,,,,,,,,,,,,,,,,,,,,,,,,,,,,,,,,,,,,,,,,,,,,,,,,,,,,,,,,,,,,,,,,,,,,,,,,,,,,,,,,,,,,,,,,,,,,,,,,,,,,,,,
1725618267.75009,1725618267.750297,196.0,0.0,4262.05127,4257.179688,4294.615234,4279.230957,4231.666504,4222.820313,4230.641113,4224.615234,4226.538574,4222.179688,4553.974121,4538.974121,4383.589844,4462.820313,3421.0,2.0,35.0,,,,0.0,4.0,4.0,4.0,4.0,4.0,4.0,4.0,4.0,4.0,4.0,4.0,4.0,4.0,4.0,100.0,,,,,,,,,,,,,,,,,,,,,,,,,,,,,,,,,,,,,,,,,,,,,,,,,,,,,,,,,,,,,,,,,,,,,,,,,,,,,,,,,,,,,,,,,,,,,,,,,,,,,,,,,,,,,,,,,,,,,,,,,,,,,,,,,,,
1725618267.753994,1725618267.754201,197.0,0.0,4263.333496,4263.333496,4294.743652,4281.153809,4231.282227,4216.794922,4231.538574,4225.512695,4227.307617,4220.128418,4555.897461,4541.025879,4381.153809,4462.05127,3889.0,2.0,35.0,,,,0.0,4.0,4.0,4.0,4.0,4.0,4.0,4.0,4.0,4.0,4.0,4.0,4.0,4.0,4.0,100.0,,,,,,,,,,,,,,,,,,,,,,,,,,,,,,,,,,,,,,,,,,,,,,,,,,,,,,,,,,,,,,,,,,,,,,,,,,,,,,,,,,,,,,,,,,,,,,,,,,,,,,,,,,,,,,,,,,,,,,,,,,,,,,,,,,,
1725618267.757898,1725618267.758005,198.0,0.0,4263.974121,4265.641113,4295.0,4283.077148,4230.256348,4214.230957,4231.666504,4221.922852,4225.769043,4218.846191,4555.512695,4541.794922,4379.743652,4460.769043,2889.0,2.0,35.0,,,,0.0,4.0,4.0,4.0,4.0,4.0,4.0,4.0,4.0,4.0,4.0,4.0,4.0,4.0,4.0,100.0,,,,,,,,,,,,,,,,,,,,,,,,,,,,,,,,,,,,,,,,,,,,,,,,,,,,,,,,,,,,,,,,,,,,,,,,,,,,,,,,,,,,,,,,,,,,,,,,,,,,,,,,,,,,,,,,,,,,,,,,,,,,,,,,,,,
1725618267.761802,1725618267.76191,199.0,0.0,4264.615234,4263.717773,4295.256348,4283.717773,4229.615234,4216.025879,4231.410156,4214.358887,4222.436035,4218.077148,4552.307617,4538.461426,4380.256348,4460.0,3072.0,2.0,35.0,,,,0.0,4.0,4.0,4.0,4.0,4.0,4.0,4.0,4.0,4.0,4.0,4.0,4.0,4.0,4.0,100.0,,,,,,,,,,,,,,,,,,,,,,,,,,,,,,,,,,,,,,,,,,,,,,,,,,,,,,,,,,,,,,,,,,,,,,,,,,,,,,,,,,,,,,,,,,,,,,,,,,,,,,,,,,,,,,,,,,,,,,,,,,,,,,,,,,,
1725618267.765706,1725618267.765814,200.0,0.0,4264.615234,4259.871582,4294.615234,4283.205078,4230.128418,4219.743652,4231.410156,4207.179688,4218.589844,4217.563965,4547.563965,4531.922852,4381.666504,4459.871582,3421.0,2.0,35.0,,,,0.0,4.0,4.0,4.0,4.0,4.0,4.0,4.0,4.0,4.0,4.0,4.0,4.0,4.0,4.0,100.0,,,,,,,,,,,,,,,,,,,,,,,,,,,,,,,,,,,,,,,,,,,,,,,,,,,,,,,,,,,,,,,,,,,,,,,,,,,,,,,,,,,,,,,,,,,,,,,,,,,,,,,,,,,,,,,,,,,,,,,,,,,,,,,,,,,
1725618267.76961,1725618267.769718,201.0,0.0,4262.94873,4257.05127,4292.307617,4282.563965,4231.282227,4221.666504,4231.538574,4203.974121,4215.769043,4216.922852,4543.205078,4525.512695,4381.922852,4460.384766,3889.0,2.0,35.0,,,,0.0,4.0,4.0,4.0,4.0,4.0,4.0,4.0,4.0,4.0,4.0,4.0,4.0,4.0,4.0,100.0,,,,,,,,,,,,,,,,,,,,,,,,,,,,,,,,,,,,,,,,,,,,,,,,,,,,,,,,,,,,,,,,,,,,,,,,,,,,,,,,,,,,,,,,,,,,,,,,,,,,,,,,,,,,,,,,,,,,,,,,,,,,,,,,,,,
1725618267.773514,1725618267.773522,202.0,0.0,4259.358887,4256.153809,4288.717773,4282.692383,4231.538574,4220.256348,4231.282227,4205.128418,4214.871582,4216.666504,4540.128418,4522.307617,4380.0,4460.641113,2889.0,2.0,35.0,,,,0.0,4.0,4.0,4.0,4.0,4.0,4.0,4.0,4.0,4.0,4.0,4.0,4.0,4.0,4.0,100.0,,,,,,,,,,,,,,,,,,,,,,,,,,,,,,,,,,,,,,,,,,,,,,,,,,,,,,,,0.0,0.0,1.0,0.0,1.0,0.0,,,,,,,,,,,,,,,,,,,,,,,,,,,,,,,,,,,,,,,,,,,,,,,,,,,,,,,,,,,,,,,,,,,,,,
1725618267.777419,1725618267.777426,203.0,0.0,4255.128418,4256.153809,4285.0,4283.333496,4229.230957,4216.794922,4229.743652,4207.563965,4215.897461,4216.666504,4538.717773,4522.436035,4376.666504,4459.743652,3072.0,2.0,35.0,,,,0.0,4.0,4.0,4.0,4.0,4.0,4.0,4.0,4.0,4.0,4.0,4.0,4.0,4.0,4.0,100.0,,,,,,,,,,,,,,,,,,,,,,,,,,,,,,,,,,,,,,,,,,,,,,,,,,,,,,,,,,,,,,,,,,,,,,,,,,,,,,,,,,,,,,,,,,,,,,,,,,,,,,,,,,,,,,,,,,,,,,,,,,,,,,,,,,,
1725618267.781323,1725618267.78133,204.0,0.0,4251.538574,4255.641113,4282.563965,4283.077148,4224.358887,4213.974121,4226.410156,4208.589844,4218.589844,4216.666504,4538.717773,4523.717773,4374.102539,4458.205078,3421.0,2.0,35.0,,,,0.0,4.0,4.0,4.0,4.0,4.0,4.0,4.0,4.0,4.0,4.0,4.0,4.0,4.0,4.0,100.0,,,,,,,,,,,,,,,,,,,,,,,,,,,,,,,,,,,,,,,,,,,,,,,,,,,,,,,,,,,,,,,,,,,,,,,,,,,,,,,,,,,,,,,,,,,,,,,,,,,,,,,,,,,,,,,,,,,,,,,,,,,,,,,,,,,
1725618267.785227,1725618267.785234,205.0,0.0,4249.358887,4253.717773,4282.05127,4281.025879,4218.974121,4213.589844,4222.179688,4207.692383,4222.94873,4216.666504,4539.743652,4524.358887,4373.846191,4457.307617,3889.0,2.0,35.0,,,,0.0,4.0,4.0,4.0,4.0,4.0,4.0,4.0,4.0,4.0,4.0,4.0,4.0,4.0,4.0,100.0,,,,,,,,,,,,,,,,,,,,,,,,,,,,,,,,,,,,,,,,,,,,,,,,,,,,,,,,,,,,,,,,,,,,,,,,,,,,,,,,,,,,,,,,,,,,,,,,,,,,,,,,,,,,,,,,,,,,,,,,,,,,,,,,,,,
1725618267.789131,1725618267.789038,206.0,0.0,4248.846191,4251.538574,4282.94873,4278.333496,4216.025879,4215.256348,4218.461426,4207.179688,4228.974121,4217.179688,4541.025879,4525.0,4375.512695,4458.205078,2889.0,2.0,35.0,,,,0.0,4.0,4.0,4.0,4.0,4.0,4.0,4.0,4.0,4.0,4.0,4.0,4.0,4.0,4.0,100.0,,,,,,,,,,,,,,,,,,,,,,,,,,,,,,,,,,,,,,,,,,,,,,,,,,,,,,,,,,,,,,,,,,,,,,,,,,,,,,,,,,,,,,,,,,,,,,,,,,,,,,,,,,,,,,,,,,,,,,,,,,,,,,,,,,,
1725618267.793035,1725618267.792943,207.0,0.0,4249.743652,4250.512695,4283.846191,4277.307617,4216.666504,4216.794922,4216.538574,4208.589844,4234.871582,4218.077148,4541.282227,4525.897461,4376.666504,4460.0,3072.0,2.0,35.0,,,,0.0,4.0,4.0,4.0,4.0,4.0,4.0,4.0,4.0,4.0,4.0,4.0,4.0,4.0,4.0,100.0,,,,,,,,,,,,,,,,,,,,,,,,,,,,,,,,,,,,,,,,,,,,,,,,,,,,,,,,,,,,,,,,,,,,,,,,,,,,,,,,,,,,,,,,,,,,,,,,,,,,,,,,,,,,,,,,,,,,,,,,,,,,,,,,,,,
1725618267.796939,1725618267.796847,208.0,0.0,4250.897461,4251.410156,4284.102539,4278.974121,4219.743652,4216.666504,4216.666504,4210.384766,4237.94873,4218.461426,4539.743652,4526.410156,4375.256348,4460.512695,3421.0,2.0,35.0,,,,0.0,4.0,4.0,4.0,4.0,4.0,4.0,4.0,4.0,4.0,4.0,4.0,4.0,4.0,4.0,100.0,,,,,,,,,,,,,,,,,,,,,,,,,,,,,,,,,,,,,,,,,,,,,,,,,,,,,,,,,,,,,,,,,,,,,,,,,,,,,,,,,,,,,,,,,,,,,,,,,,,,,,,,,,,,,,,,,,,,,,,,,,,,,,,,,,,
1725618267.800843,1725618267.800851,209.0,0.0,4250.897461,4253.077148,4283.333496,4281.538574,4222.436035,4215.256348,4217.94873,4208.974121,4236.666504,4216.922852,4536.410156,4524.871582,4370.897461,4457.820313,3889.0,2.0,35.0,,,,0.0,4.0,4.0,4.0,4.0,4.0,4.0,4.0,4.0,4.0,4.0,4.0,4.0,4.0,4.0,100.0,,,,,,,,,,,,,,,,,,,,,,,,,,,,,,,,,,,,,,,,,,,,,,,,,,,,,,,,,,,,,,,,,,,,,,,,,,,,,,,,,,,,,,,,,,,,,,,,,,,,,,,,,,,,,,,,,,,,,,,,,,,,,,,,,,,
1725618267.804747,1725618267.804755,210.0,0.0,4249.358887,4253.974121,4282.436035,4282.179688,4222.820313,4214.487305,4218.846191,4203.589844,4232.692383,4213.589844,4532.179688,4521.153809,4365.512695,4452.692383,2889.0,2.0,35.0,,,,0.0,4.0,4.0,4.0,4.0,4.0,4.0,4.0,4.0,4.0,4.0,4.0,4.0,4.0,4.0,100.0,,,,,,,,,,,,,,,,,,,,,,,,,,,,,,,,,,,,,,,,,,,,,,,,,,,,,,,,0.0,0.0,1.0,0.0,1.0,0.0,,,,,,,,,,,,,,,,,,,,,,,,,,,,,,,,,,,,,,,,,,,,,,,,,,,,,,,,,,,,,,,,,,,,,,
1725618267.808651,1725618267.808659,211.0,0.0,4246.538574,4253.461426,4281.666504,4278.974121,4220.641113,4215.256348,4218.461426,4198.077148,4230.0,4209.102539,4528.333496,4516.410156,4361.282227,4447.307617,3072.0,2.0,35.0,,,,0.0,4.0,4.0,4.0,4.0,4.0,4.0,4.0,4.0,4.0,4.0,4.0,4.0,4.0,4.0,100.0,,,,,,,,,,,,,,,,,,,,,,,,,,,,,,,,,,,,,,,,,,,,,,,,,,,,,,,,,,,,,,,,,,,,,,,,,,,,,,,,,,,,,,,,,,,,,,,,,,,,,,,,,,,,,,,,,,,,,,,,,,,,,,,,,,,
1725618267.812555,1725618267.812563,212.0,0.0,4243.077148,4252.05127,4280.512695,4273.077148,4217.692383,4216.794922,4217.436035,4196.410156,4230.641113,4204.871582,4525.256348,4512.307617,4358.077148,4442.820313,3421.0,2.0,35.0,,,,0.0,4.0,4.0,4.0,4.0,4.0,4.0,4.0,4.0,4.0,4.0,4.0,4.0,4.0,4.0,100.0,,,,,,,,,,,,,,,,,,,,,,,,,,,,,,,,,,,,,,,,,,,,,,,,,,,,,,,,,,,,,,,,,,,,,,,,,,,,,,,,,,,,,,,,,,,,,,,,,,,,,,,,,,,,,,,,,,,,,,,,,,,,,,,,,,,
1725618267.81646,1725618267.816567,213.0,0.0,4238.717773,4250.0,4277.820313,4266.666504,4216.025879,4216.282227,4216.794922,4198.589844,4233.077148,4201.794922,4521.794922,4509.102539,4353.974121,4438.589844,3889.0,2.0,35.0,,,,0.0,4.0,4.0,4.0,4.0,4.0,4.0,4.0,4.0,4.0,4.0,4.0,4.0,4.0,4.0,100.0,,,,,,,,,,,,,,,,,,,,,,,,,,,,,,,,,,,,,,,,,,,,,,,,,,,,,,,,,,,,,,,,,,,,,,,,,,,,,,,,,,,,,,,,,,,,,,,,,,,,,,,,,,,,,,,,,,,,,,,,,,,,,,,,,,,
1725618267.820364,1725618267.820471,214.0,0.0,4232.820313,4247.94873,4272.820313,4261.794922,4216.153809,4212.307617,4216.922852,4200.641113,4233.846191,4199.358887,4516.538574,4505.384766,4346.922852,4432.94873,2889.0,2.0,35.0,,,,0.0,4.0,4.0,4.0,4.0,4.0,4.0,4.0,4.0,4.0,4.0,4.0,4.0,4.0,4.0,100.0,,,,,,,,,,,,,,,,,,,,,,,,,,,,,,,,,,,,,,,,,,,,,,,,,,,,,,,,,,,,,,,,,,,,,,,,,,,,,,,,,,,,,,,,,,,,,,,,,,,,,,,,,,,,,,,,,,,,,,,,,,,,,,,,,,,
1725618267.824268,1725618267.824375,215.0,0.0,4225.897461,4246.666504,4266.282227,4259.102539,4217.692383,4206.538574,4217.307617,4198.717773,4231.282227,4197.307617,4509.743652,4500.512695,4337.307617,4425.384766,3072.0,2.0,35.0,,,,0.0,4.0,4.0,4.0,4.0,4.0,4.0,4.0,4.0,4.0,4.0,4.0,4.0,4.0,4.0,100.0,,,,,,,,,,,,,,,,,,,,,,,,,,,,,,,,,,,,,,,,,,,,,,,,,,,,,,,,,,,,,,,,,,,,,,,,,,,,,,,,,,,,,,,,,,,,,,,,,,,,,,,,,,,,,,,,,,,,,,,,,,,,,,,,,,,
1725618267.828172,1725618267.828379,216.0,0.0,4219.615234,4246.538574,4260.256348,4257.563965,4219.102539,4202.436035,4217.05127,4192.563965,4227.307617,4196.153809,4503.846191,4494.615234,4328.589844,4417.436035,3421.0,2.0,35.0,,,,0.0,4.0,4.0,4.0,4.0,4.0,4.0,4.0,4.0,4.0,4.0,4.0,4.0,4.0,4.0,100.0,,,,,,,,,,,,,,,,,,,,,,,,,,,,,,,,,,,,,,,,,,,,,,,,,,,,,,,,,,,,,,,,,,,,,,,,,,,,,,,,,,,,,,,,,,,,,,,,,,,,,,,,,,,,,,,,,,,,,,,,,,,,,,,,,,,
1725618267.832076,1725618267.832283,217.0,0.0,4215.769043,4247.05127,4257.05127,4255.384766,4218.846191,4202.692383,4216.025879,4186.538574,4225.512695,4196.666504,4501.666504,4489.487305,4324.230957,4411.794922,3889.0,2.0,35.0,,,,0.0,4.0,4.0,4.0,4.0,4.0,4.0,4.0,4.0,4.0,4.0,4.0,4.0,4.0,4.0,100.0,,,,,,,,,,,,,,,,,,,,,,,,,,,,,,,,,,,,,,,,,,,,,,,,,,,,,,,,,,,,,,,,,,,,,,,,,,,,,,,,,,,,,,,,,,,,,,,,,,,,,,,,,,,,,,,,,,,,,,,,,,,,,,,,,,,
1725618267.83598,1725618267.836187,218.0,0.0,4214.743652,4246.922852,4256.922852,4251.538574,4216.794922,4206.025879,4214.743652,4185.769043,4227.179688,4198.333496,4502.820313,4487.179688,4324.743652,4410.128418,2889.0,2.0,35.0,,,,0.0,4.0,4.0,4.0,4.0,4.0,4.0,4.0,4.0,4.0,4.0,4.0,4.0,4.0,4.0,100.0,,,,,,,,,,,,,,,,,,,,,,,,,,,,,,,,,,,,,,,,,,,,,,,,,,,,,,,,0.0,0.0,1.0,0.0,1.0,0.0,,,,,,,,,,,,,,,,,,,,,,,,,,,,,,,,,,,,,,,,,,,,,,,,,,,,,,,,,,,,,,,,,,,,,,
1725618267.839884,1725618267.840092,219.0,0.0,4215.512695,4245.384766,4258.589844,4247.05127,4213.974121,4208.974121,4213.846191,4191.282227,4230.512695,4199.102539,4503.846191,4487.94873,4326.666504,4411.794922,3072.0,2.0,35.0,,,,0.0,4.0,4.0,4.0,4.0,4.0,4.0,4.0,4.0,4.0,4.0,4.0,4.0,4.0,4.0,100.0,,,,,,,,,,,,,,,,,,,,,,,,,,,,,,,,,,,,,,,,,,,,,,,,,,,,,,,,,,,,,,,,,,,,,,,,,,,,,,,,,,,,,,,,,,,,,,,,,,,,,,,,,,,,,,,,,,,,,,,,,,,,,,,,,,,
1725618267.843788,1725618267.843996,220.0,0.0,4216.410156,4242.307617,4260.128418,4244.102539,4211.794922,4208.974121,4213.717773,4198.461426,4232.436035,4197.692383,4501.666504,4490.256348,4326.153809,4413.589844,3421.0,2.0,35.0,,,,0.0,4.0,4.0,4.0,4.0,4.0,4.0,4.0,4.0,4.0,4.0,4.0,4.0,4.0,4.0,100.0,,,,,,,,,,,,,,,,,,,,,,,,,,,,,,,,,,,,,,,,,,,,,,,,,,,,,,,,,,,,,,,,,,,,,,,,,,,,,,,,,,,,,,,,,,,,,,,,,,,,,,,,,,,,,,,,,,,,,,,,,,,,,,,,,,,
1725618267.847692,1725618267.8478,221.0,0.0,4216.666504,4238.717773,4260.641113,4244.487305,4211.153809,4206.794922,4214.230957,4201.922852,4232.563965,4195.0,4497.05127,4491.666504,4322.179688,4413.589844,3889.0,2.0,35.0,,,,0.0,4.0,4.0,4.0,4.0,4.0,4.0,4.0,4.0,4.0,4.0,4.0,4.0,4.0,4.0,100.0,,,,,,,,,,,,,,,,,,,,,,,,,,,,,,,,,,,,,,,,,,,,,,,,,,,,,,,,,,,,,,,,,,,,,,,,,,,,,,,,,,,,,,,,,,,,,,,,,,,,,,,,,,,,,,,,,,,,,,,,,,,,,,,,,,,
1725618267.851596,1725618267.851704,222.0,0.0,4216.282227,4235.641113,4260.128418,4247.94873,4212.05127,4205.384766,4215.256348,4200.128418,4232.05127,4193.461426,4494.358887,4491.410156,4317.563965,4412.05127,2889.0,2.0,35.0,,,,0.0,4.0,4.0,4.0,4.0,4.0,4.0,4.0,4.0,4.0,4.0,4.0,4.0,4.0,4.0,100.0,,,,,,,,,,,,,,,,,,,,,,,,,,,,,,,,,,,,,,,,,,,,,,,,,,,,,,,,,,,,,,,,,,,,,,,,,,,,,,,,,,,,,,,,,,,,,,,,,,,,,,,,,,,,,,,,,,,,,,,,,,,,,,,,,,,
1725618267.855501,1725618267.855608,223.0,0.0,4216.025879,4233.589844,4259.743652,4252.307617,4213.717773,4207.179688,4216.410156,4197.179688,4232.05127,4194.230957,4497.307617,4490.641113,4316.153809,4411.025879,3072.0,2.0,35.0,,,,0.0,4.0,4.0,4.0,4.0,4.0,4.0,4.0,4.0,4.0,4.0,4.0,4.0,4.0,4.0,100.0,,,,,,,,,,,,,,,,,,,,,,,,,,,,,,,,,,,,,,,,,,,,,,,,,,,,,,,,,,,,,,,,,,,,,,,,,,,,,,,,,,,,,,,,,,,,,,,,,,,,,,,,,,,,,,,,,,,,,,,,,,,,,,,,,,,
1725618267.859405,1725618267.859512,224.0,0.0,4216.025879,4232.94873,4259.743652,4255.0,4215.384766,4211.666504,4217.307617,4197.692383,4232.307617,4196.794922,4505.897461,4490.897461,4318.589844,4412.563965,3421.0,2.0,35.0,,,,0.0,4.0,4.0,4.0,4.0,4.0,4.0,4.0,4.0,4.0,4.0,4.0,4.0,4.0,4.0,100.0,,,,,,,,,,,,,,,,,,,,,,,,,,,,,,,,,,,,,,,,,,,,,,,,,,,,,,,,,,,,,,,,,,,,,,,,,,,,,,,,,,,,,,,,,,,,,,,,,,,,,,,,,,,,,,,,,,,,,,,,,,,,,,,,,,,
1725618267.863309,1725618267.863316,225.0,0.0,4216.282227,4234.487305,4260.0,4254.615234,4216.410156,4216.025879,4217.692383,4201.922852,4231.410156,4198.589844,4515.128418,4492.563965,4322.307617,4415.769043,3889.0,2.0,35.0,,,,0.0,4.0,4.0,4.0,4.0,4.0,4.0,4.0,4.0,4.0,4.0,4.0,4.0,4.0,4.0,100.0,,,,,,,,,,,,,,,,,,,,,,,,,,,,,,,,,,,,,,,,,,,,,,,,,,,,,,,,,,,,,,,,,,,,,,,,,,,,,,,,,,,,,,,,,,,,,,,,,,,,,,,,,,,,,,,,,,,,,,,,,,,,,,,,,,,
1725618267.867213,1725618267.86722,226.0,0.0,4216.794922,4238.333496,4260.256348,4252.05127,4216.410156,4217.820313,4217.436035,4206.025879,4228.333496,4197.307617,4519.358887,4494.230957,4323.333496,4418.333496,2889.0,2.0,35.0,,,,0.0,4.0,4.0,4.0,4.0,4.0,4.0,4.0,4.0,4.0,4.0,4.0,4.0,4.0,4.0,100.0,,,,,,,,,,,,,,,,,1.0,0.0,0.0,,,,,,,,,,,,,,,,,,,,,,,,,,,,,,,,,,,,,0.0,0.0,1.0,0.0,1.0,0.0,4.536178,1.967874,1.498281,0.209279,0.135912,1.798664,1.507962,1.044986,0.266737,0.169293,4.060171,1.583934,0.953752,0.181358,0.129349,2.090846,1.862023,1.202317,0.162016,0.1151,1.027122,0.606929,0.658565,0.084602,0.085591,0.125681,0.174267,0.123679,0.049633,0.0611,0.598517,0.482906,0.40959,0.088468,0.053224,2.404394,1.396201,1.345445,0.550301,0.54144,3.088796,0.660978,0.527216,0.293985,0.12667,3.959066,1.08466,0.685114,0.276734,0.155136,5.488836,2.138134,1.196823,0.420891,0.304974,7.182226,2.935853,2.223829,0.43828,0.313147,5.158234,1.640716,1.328525,0.346539,0.229251,5.861896,1.869565,1.3528,0.323774,0.179646
1725618267.871117,1725618267.871125,227.0,0.0,4217.563965,4243.333496,4260.128418,4249.487305,4215.897461,4216.410156,4216.922852,4206.282227,4223.205078,4192.563965,4516.538574,4493.974121,4319.743652,4417.820313,3072.0,2.0,35.0,,,,0.0,4.0,4.0,4.0,4.0,4.0,4.0,4.0,4.0,4.0,4.0,4.0,4.0,4.0,4.0,100.0,,,,,,,,,,,,,,,,,,,,,,,,,,,,,,,,,,,,,,,,,,,,,,,,,,,,,,,,,,,,,,,,,,,,,,,,,,,,,,,,,,,,,,,,,,,,,,,,,,,,,,,,,,,,,,,,,,,,,,,,,,,,,,,,,,,
1725618267.875021,1725618267.875029,228.0,0.0,4217.94873,4247.436035,4260.0,4249.358887,4215.384766,4213.846191,4216.666504,4202.436035,4218.205078,4186.922852,4509.487305,4492.05127,4313.205078,4414.487305,3421.0,2.0,35.0,,,,0.0,4.0,4.0,4.0,4.0,4.0,4.0,4.0,4.0,4.0,4.0,4.0,4.0,4.0,4.0,100.0,,,,,,,,,,,,,,,,,,,,,,,,,,,,,,,,,,,,,,,,,,,,,,,,,,,,,,,,,,,,,,,,,,,,,,,,,,,,,,,,,,,,,,,,,,,,,,,,,,,,,,,,,,,,,,,,,,,,,,,,,,,,,,,,,,,
1725618267.878925,1725618267.878833,229.0,0.0,4218.077148,4248.589844,4260.641113,4252.179688,4215.769043,4212.692383,4216.794922,4197.94873,4215.897461,4183.846191,4504.230957,4490.128418,4307.94873,4411.538574,3889.0,2.0,35.0,,,,0.0,4.0,4.0,4.0,4.0,4.0,4.0,4.0,4.0,4.0,4.0,4.0,4.0,4.0,4.0,100.0,,,,,,,,,,,,,,,,,,,,,,,,,,,,,,,,,,,,,,,,,,,,,,,,,,,,,,,,,,,,,,,,,,,,,,,,,,,,,,,,,,,,,,,,,,,,,,,,,,,,,,,,,,,,,,,,,,,,,,,,,,,,,,,,,,,
1725618267.882829,1725618267.882737,230.0,0.0,4218.333496,4245.897461,4262.05127,4256.666504,4217.05127,4213.589844,4217.307617,4196.282227,4217.307617,4185.256348,4503.846191,4490.256348,4307.179688,4411.282227,2889.0,2.0,35.0,,,,0.0,4.0,4.0,4.0,4.0,4.0,4.0,4.0,4.0,4.0,4.0,4.0,4.0,4.0,4.0,100.0,,,,,,,,,,,,,,,,,,,,,,,,,,,,,,,,,,,,,,,,,,,,,,,,,,,,,,,,,,,,,,,,,,,,,,,,,,,,,,,,,,,,,,,,,,,,,,,,,,,,,,,,,,,,,,,,,,,,,,,,,,,,,,,,,,,
1725618267.886734,1725618267.886641,231.0,0.0,4218.846191,4240.128418,4263.717773,4260.0,4218.077148,4214.743652,4217.820313,4198.589844,4220.384766,4189.102539,4507.05127,4491.922852,4310.384766,4413.589844,3072.0,2.0,35.0,,,,0.0,4.0,4.0,4.0,4.0,4.0,4.0,4.0,4.0,4.0,4.0,4.0,4.0,4.0,4.0,100.0,,,,,,,,,,,,,,,,,,,,,,,,,,,,,,,,,,,,,,,,,,,,,,,,,,,,,,,,,,,,,,,,,,,,,,,,,,,,,,,,,,,,,,,,,,,,,,,,,,,,,,,,,,,,,,,,,,,,,,,,,,,,,,,,,,,
1725618267.890638,1725618267.890545,232.0,0.0,4219.230957,4233.589844,4264.743652,4259.871582,4217.820313,4214.230957,4217.94873,4201.538574,4221.922852,4191.153809,4509.487305,4493.461426,4313.589844,4415.897461,3421.0,2.0,35.0,,,,0.0,4.0,4.0,4.0,4.0,4.0,4.0,4.0,4.0,4.0,4.0,4.0,4.0,4.0,4.0,100.0,,,,,,,,,,,,,,,,,,,,,,,,,,,,,,,,,,,,,,,,,,,,,,,,,,,,,,,,,,,,,,,,,,,,,,,,,,,,,,,,,,,,,,,,,,,,,,,,,,,,,,,,,,,,,,,,,,,,,,,,,,,,,,,,,,,
1725618267.894542,1725618267.894349,233.0,0.0,4219.102539,4228.974121,4264.615234,4256.282227,4216.025879,4212.563965,4217.179688,4201.794922,4220.512695,4188.974121,4507.94873,4493.205078,4313.333496,4415.641113,3889.0,2.0,35.0,,,,0.0,4.0,4.0,4.0,4.0,4.0,4.0,4.0,4.0,4.0,4.0,4.0,4.0,4.0,4.0,100.0,,,,,,,,,,,,,,,,,,,,,,,,,,,,,,,,,,,,,,,,,,,,,,,,,,,,,,,,,,,,,,,,,,,,,,,,,,,,,,,,,,,,,,,,,,,,,,,,,,,,,,,,,,,,,,,,,,,,,,,,,,,,,,,,,,,
1725618267.898446,1725618267.898253,234.0,0.0,4218.333496,4228.205078,4263.846191,4251.410156,4214.230957,4211.666504,4215.769043,4199.615234,4217.563965,4184.230957,4503.974121,4491.282227,4309.230957,4413.589844,2889.0,2.0,35.0,,,,0.0,4.0,4.0,4.0,4.0,4.0,4.0,4.0,4.0,4.0,4.0,4.0,4.0,4.0,4.0,100.0,,,,,,,,,,,,,,,,,,,,,,,,,,,,,,,,,,,,,,,,,,,,,,,,,,,,,,,,0.0,0.0,1.0,0.0,1.0,0.0,,,,,,,,,,,,,,,,,,,,,,,,,,,,,,,,,,,,,,,,,,,,,,,,,,,,,,,,,,,,,,,,,,,,,,
1725618267.90235,1725618267.902158,235.0,0.0,4217.692383,4230.769043,4263.717773,4248.461426,4213.589844,4213.077148,4214.358887,4197.563965,4215.641113,4180.641113,4501.538574,4489.230957,4304.358887,4412.563965,3072.0,2.0,35.0,,,,0.0,4.0,4.0,4.0,4.0,4.0,4.0,4.0,4.0,4.0,4.0,4.0,4.0,4.0,4.0,100.0,,,,,,,,,,,,,,,,,,,,,,,,,,,,,,,,,,,,,,,,,,,,,,,,,,,,,,,,,,,,,,,,,,,,,,,,,,,,,,,,,,,,,,,,,,,,,,,,,,,,,,,,,,,,,,,,,,,,,,,,,,,,,,,,,,,
1725618267.906254,1725618267.906162,236.0,0.0,4218.077148,4233.589844,4264.743652,4248.205078,4213.846191,4215.384766,4213.717773,4197.820313,4216.153809,4180.256348,4502.820313,4488.461426,4301.922852,4413.974121,3421.0,2.0,35.0,,,,0.0,4.0,4.0,4.0,4.0,4.0,4.0,4.0,4.0,4.0,4.0,4.0,4.0,4.0,4.0,100.0,,,,,,,,,,,,,,,,,,,,,,,,,,,,,,,,,,,,,,,,,,,,,,,,,,,,,,,,,,,,,,,,,,,,,,,,,,,,,,,,,,,,,,,,,,,,,,,,,,,,,,,,,,,,,,,,,,,,,,,,,,,,,,,,,,,
1725618267.910158,1725618267.910066,237.0,0.0,4219.487305,4233.974121,4266.282227,4249.358887,4213.974121,4215.256348,4214.102539,4199.487305,4218.205078,4182.307617,4505.769043,4489.230957,4302.436035,4417.307617,3889.0,2.0,35.0,,,,0.0,4.0,4.0,4.0,4.0,4.0,4.0,4.0,4.0,4.0,4.0,4.0,4.0,4.0,4.0,100.0,,,,,,,,,,,,,,,,,,,,,,,,,,,,,,,,,,,,,,,,,,,,,,,,,,,,,,,,,,,,,,,,,,,,,,,,,,,,,,,,,,,,,,,,,,,,,,,,,,,,,,,,,,,,,,,,,,,,,,,,,,,,,,,,,,,
1725618267.914062,1725618267.91397,238.0,0.0,4221.666504,4231.025879,4267.05127,4249.871582,4213.077148,4211.410156,4214.871582,4200.256348,4219.871582,4184.230957,4506.794922,4490.897461,4304.487305,4420.641113,2889.0,2.0,35.0,,,,0.0,4.0,4.0,4.0,4.0,4.0,4.0,4.0,4.0,4.0,4.0,4.0,4.0,4.0,4.0,100.0,,,,,,,,,,,,,,,,,,,,,,,,,,,,,,,,,,,,,,,,,,,,,,,,,,,,,,,,,,,,,,,,,,,,,,,,,,,,,,,,,,,,,,,,,,,,,,,,,,,,,,,,,,,,,,,,,,,,,,,,,,,,,,,,,,,
1725618267.917966,1725618267.917874,239.0,0.0,4224.487305,4226.153809,4266.153809,4249.230957,4211.025879,4205.897461,4215.0,4198.717773,4219.743652,4185.897461,4505.0,4492.05127,4306.282227,4422.307617,3072.0,2.0,35.0,,,,0.0,4.0,4.0,4.0,4.0,4.0,4.0,4.0,4.0,4.0,4.0,4.0,4.0,4.0,4.0,100.0,,,,,,,,,,,,,,,,,,,,,,,,,,,,,,,,,,,,,,,,,,,,,,,,,,,,,,,,,,,,,,,,,,,,,,,,,,,,,,,,,,,,,,,,,,,,,,,,,,,,,,,,,,,,,,,,,,,,,,,,,,,,,,,,,,,
1725618267.921871,1725618267.921878,240.0,0.0,4227.563965,4221.282227,4264.230957,4248.461426,4208.974121,4202.307617,4214.230957,4195.512695,4218.461426,4188.589844,4502.820313,4492.179688,4307.05127,4422.436035,3421.0,2.0,35.0,,,,0.0,4.0,4.0,4.0,4.0,4.0,4.0,4.0,4.0,4.0,4.0,4.0,4.0,4.0,4.0,100.0,,,,,,,,,,,,,,,,,,,,,,,,,,,,,,,,,,,,,,,,,,,,,,,,,,,,,,,,,,,,,,,,,,,,,,,,,,,,,,,,,,,,,,,,,,,,,,,,,,,,,,,,,,,,,,,,,,,,,,,,,,,,,,,,,,,
1725618267.925775,1725618267.925782,241.0,0.0,4230.0,4217.692383,4262.692383,4248.461426,4208.333496,4201.922852,4212.94873,4192.692383,4217.179688,4192.94873,4502.692383,4491.666504,4306.666504,4422.05127,3889.0,2.0,35.0,,,,0.0,4.0,4.0,4.0,4.0,4.0,4.0,4.0,4.0,4.0,4.0,4.0,4.0,4.0,4.0,100.0,,,,,,,,,,,,,,,,,,,,,,,,,,,,,,,,,,,,,,,,,,,,,,,,,,,,,,,,,,,,,,,,,,,,,,,,,,,,,,,,,,,,,,,,,,,,,,,,,,,,,,,,,,,,,,,,,,,,,,,,,,,,,,,,,,,
1725618267.929679,1725618267.929686,242.0,0.0,4230.769043,4216.025879,4262.563965,4249.230957,4209.871582,4203.846191,4212.307617,4192.436035,4217.05127,4197.179688,4504.743652,4491.282227,4305.769043,4422.307617,2889.0,2.0,35.0,,,,0.0,4.0,4.0,4.0,4.0,4.0,4.0,4.0,4.0,4.0,4.0,4.0,4.0,4.0,4.0,100.0,,,,,,,,,,,,,,,,,,,,,,,,,,,,,,,,,,,,,,,,,,,,,,,,,,,,,,,,0.0,0.0,1.0,0.0,1.0,0.0,,,,,,,,,,,,,,,,,,,,,,,,,,,,,,,,,,,,,,,,,,,,,,,,,,,,,,,,,,,,,,,,,,,,,,
1725618267.933583,1725618267.93369,243.0,0.0,4229.615234,4216.666504,4263.717773,4249.871582,4213.205078,4205.512695,4212.820313,4195.128418,4217.94873,4198.461426,4506.794922,4491.282227,4304.743652,4423.974121,3072.0,2.0,35.0,,,,0.0,4.0,4.0,4.0,4.0,4.0,4.0,4.0,4.0,4.0,4.0,4.0,4.0,4.0,4.0,100.0,,,,,,,,,,,,,,,,,,,,,,,,,,,,,,,,,,,,,,,,,,,,,,,,,,,,,,,,,,,,,,,,,,,,,,,,,,,,,,,,,,,,,,,,,,,,,,,,,,,,,,,,,,,,,,,,,,,,,,,,,,,,,,,,,,,
1725618267.937487,1725618267.937594,244.0,0.0,4227.436035,4218.974121,4265.0,4250.0,4216.538574,4205.641113,4214.230957,4199.615234,4219.358887,4195.897461,4507.94873,4491.794922,4304.615234,4426.794922,3421.0,2.0,35.0,,,,0.0,4.0,4.0,4.0,4.0,4.0,4.0,4.0,4.0,4.0,4.0,4.0,4.0,4.0,4.0,100.0,,,,,,,,,,,,,,,,,,,,,,,,,,,,,,,,,,,,,,,,,,,,,,,,,,,,,,,,,,,,,,,,,,,,,,,,,,,,,,,,,,,,,,,,,,,,,,,,,,,,,,,,,,,,,,,,,,,,,,,,,,,,,,,,,,,
1725618267.941391,1725618267.941498,245.0,0.0,4226.282227,4221.538574,4265.128418,4250.0,4218.205078,4204.358887,4215.897461,4203.589844,4220.641113,4191.282227,4508.461426,4492.05127,4305.769043,4429.615234,3889.0,2.0,35.0,,,,0.0,4.0,4.0,4.0,4.0,4.0,4.0,4.0,4.0,4.0,4.0,4.0,4.0,4.0,4.0,100.0,,,,,,,,,,,,,,,,,,,,,,,,,,,,,,,,,,,,,,,,,,,,,,,,,,,,,,,,,,,,,,,,,,,,,,,,,,,,,,,,,,,,,,,,,,,,,,,,,,,,,,,,,,,,,,,,,,,,,,,,,,,,,,,,,,,
1725618267.945295,1725618267.945402,246.0,0.0,4226.538574,4222.179688,4264.358887,4250.256348,4217.563965,4203.333496,4216.410156,4204.743652,4220.897461,4187.307617,4508.846191,4492.179688,4307.94873,4430.769043,2889.0,2.0,35.0,,,,0.0,4.0,4.0,4.0,4.0,4.0,4.0,4.0,4.0,4.0,4.0,4.0,4.0,4.0,4.0,100.0,,,,,,,,,,,,,,,,,,,,,,,,,,,,,,,,,,,,,,,,,,,,,,,,,,,,,,,,,,,,,,,,,,,,,,,,,,,,,,,,,,,,,,,,,,,,,,,,,,,,,,,,,,,,,,,,,,,,,,,,,,,,,,,,,,,
1725618267.949199,1725618267.949307,247.0,0.0,4227.179688,4220.128418,4263.333496,4250.641113,4215.512695,4204.230957,4215.256348,4201.794922,4220.128418,4185.897461,4508.205078,4491.922852,4309.743652,4428.846191,3072.0,2.0,35.0,,,,0.0,4.0,4.0,4.0,4.0,4.0,4.0,4.0,4.0,4.0,4.0,4.0,4.0,4.0,4.0,100.0,,,,,,,,,,,,,,,,,,,,,,,,,,,,,,,,,,,,,,,,,,,,,,,,,,,,,,,,,,,,,,,,,,,,,,,,,,,,,,,,,,,,,,,,,,,,,,,,,,,,,,,,,,,,,,,,,,,,,,,,,,,,,,,,,,,
1725618267.953103,1725618267.953111,248.0,0.0,4226.922852,4216.538574,4262.692383,4251.410156,4213.461426,4207.692383,4213.333496,4194.871582,4218.589844,4186.922852,4506.025879,4491.282227,4309.615234,4423.846191,3421.0,2.0,35.0,,,,0.0,4.0,4.0,4.0,4.0,4.0,4.0,4.0,4.0,4.0,4.0,4.0,4.0,4.0,4.0,100.0,,,,,,,,,,,,,,,,,,,,,,,,,,,,,,,,,,,,,,,,,,,,,,,,,,,,,,,,,,,,,,,,,,,,,,,,,,,,,,,,,,,,,,,,,,,,,,,,,,,,,,,,,,,,,,,,,,,,,,,,,,,,,,,,,,,
1725618267.957008,1725618267.957015,249.0,0.0,4225.769043,4214.230957,4262.820313,4252.692383,4212.563965,4212.179688,4212.179688,4186.922852,4217.563965,4188.589844,4502.692383,4490.0,4307.94873,4418.333496,3889.0,2.0,35.0,,,,0.0,4.0,4.0,4.0,4.0,4.0,4.0,4.0,4.0,4.0,4.0,4.0,4.0,4.0,4.0,100.0,,,,,,,,,,,,,,,,,,,,,,,,,,,,,,,,,,,,,,,,,,,,,,,,,,,,,,,,,,,,,,,,,,,,,,,,,,,,,,,,,,,,,,,,,,,,,,,,,,,,,,,,,,,,,,,,,,,,,,,,,,,,,,,,,,,
1725618267.960912,1725618267.960919,250.0,0.0,4224.743652,4215.128418,4263.333496,4254.743652,4213.205078,4215.512695,4213.077148,4182.179688,4217.820313,4189.102539,4499.358887,4488.461426,4306.025879,4415.128418,2889.0,2.0,35.0,,,,0.0,4.0,4.0,4.0,4.0,4.0,4.0,4.0,4.0,4.0,4.0,4.0,4.0,4.0,4.0,100.0,,,,,,,,,,,,,,,,,,,,,,,,,,,,,,,,,,,,,,,,,,,,,,,,,,,,,,,,0.0,0.0,1.0,0.0,1.0,0.0,,,,,,,,,,,,,,,,,,,,,,,,,,,,,,,,,,,,,,,,,,,,,,,,,,,,,,,,,,,,,,,,,,,,,,
1725618267.964816,1725618267.964823,251.0,0.0,4224.871582,4218.333496,4263.589844,4256.666504,4214.487305,4215.641113,4215.0,4183.205078,4218.974121,4188.077148,4497.436035,4487.820313,4305.641113,4416.025879,3072.0,2.0,35.0,,,,0.0,4.0,4.0,4.0,4.0,4.0,4.0,4.0,4.0,4.0,4.0,4.0,4.0,4.0,4.0,100.0,,,,,,,,,,,,,,,,,,,,,,,,,,,,,,,,,,,,,,,,,,,,,,,,,,,,,,,,,,,,,,,,,,,,,,,,,,,,,,,,,,,,,,,,,,,,,,,,,,,,,,,,,,,,,,,,,,,,,,,,,,,,,,,,,,,
1725618267.96872,1725618267.968627,252.0,0.0,4226.282227,4221.153809,4263.205078,4257.563965,4214.871582,4212.436035,4216.025879,4189.230957,4220.256348,4186.538574,4497.820313,4488.589844,4307.179688,4420.384766,3421.0,2.0,35.0,,,,0.0,4.0,4.0,4.0,4.0,4.0,4.0,4.0,4.0,4.0,4.0,4.0,4.0,4.0,4.0,100.0,,,,,,,,,,,,,,,,,,,,,,,,,,,,,,,,,,,,,,,,,,,,,,,,,,,,,,,,,,,,,,,,,,,,,,,,,,,,,,,,,,,,,,,,,,,,,,,,,,,,,,,,,,,,,,,,,,,,,,,,,,,,,,,,,,,
1725618267.972624,1725618267.972531,253.0,0.0,4227.94873,4221.153809,4262.179688,4256.538574,4213.717773,4207.94873,4214.358887,4196.025879,4220.512695,4186.153809,4500.512695,4490.641113,4309.871582,4425.256348,3889.0,2.0,35.0,,,,0.0,4.0,4.0,4.0,4.0,4.0,4.0,4.0,4.0,4.0,4.0,4.0,4.0,4.0,4.0,100.0,,,,,,,,,,,,,,,,,,,,,,,,,,,,,,,,,,,,,,,,,,,,,,,,,,,,,,,,,,,,,,,,,,,,,,,,,,,,,,,,,,,,,,,,,,,,,,,,,,,,,,,,,,,,,,,,,,,,,,,,,,,,,,,,,,,
1725618267.976528,1725618267.976435,254.0,0.0,4228.589844,4219.102539,4260.769043,4254.102539,4211.282227,4204.230957,4210.512695,4199.102539,4219.615234,4186.922852,4503.846191,4492.820313,4311.922852,4428.077148,2889.0,2.0,35.0,,,,0.0,4.0,4.0,4.0,4.0,4.0,4.0,4.0,4.0,4.0,4.0,4.0,4.0,4.0,4.0,100.0,,,,,,,,,,,,,,,,,,,,,,,,,,,,,,,,,,,,,,,,,,,,,,,,,,,,,,,,,,,,,,,,,,,,,,,,,,,,,,,,,,,,,,,,,,,,,,,,,,,,,,,,,,,,,,,,,,,,,,,,,,,,,,,,,,,
1725618267.980432,1725618267.980439,255.0,0.0,4228.077148,4217.563965,4259.871582,4252.179688,4208.205078,4202.436035,4207.05127,4195.769043,4218.077148,4187.692383,4505.384766,4493.717773,4312.307617,4426.922852,35.0,2.0,35.0,,,,0.0,4.0,4.0,4.0,4.0,4.0,4.0,4.0,4.0,4.0,4.0,4.0,4.0,4.0,4.0,100.0,,,,,,,,,,,,,,,,,,,,,,,,,,,,,,,,,,,,,,,,,,,,,,,,,,,,,,,,,,,,,,,,,,,,,,,,,,,,,,,,,,,,,,,,,,,,,,,,,,,,,,,,,,,,,,,,,,,,,,,,,,,,,,,,,,,
1725618267.984336,1725618267.984344,0.0,0.0,4227.436035,4219.102539,4259.487305,4252.436035,4205.512695,4202.179688,4206.794922,4188.333496,4216.666504,4187.820313,4504.102539,4492.436035,4311.282227,4422.436035,2618.0,2.0,35.0,,,,0.0,4.0,4.0,4.0,4.0,4.0,4.0,4.0,4.0,4.0,4.0,4.0,4.0,4.0,4.0,100.0,,,,,,,,,,,,,,,,,,,,,,,,,,,,,,,,,,,,,,,,,,,,,,,,,,,,,,,,,,,,,,,,,,,,,,,,,,,,,,,,,,,,,,,,,,,,,,,,,,,,,,,,,,,,,,,,,,,,,,,,,,,,,,,,,,,
1725618267.98824,1725618267.988248,1.0,0.0,4228.077148,4223.589844,4260.128418,4255.128418,4204.102539,4202.820313,4209.871582,4181.282227,4216.153809,4187.820313,4501.538574,4489.743652,4310.128418,4417.820313,2566.0,2.0,35.0,,,,0.0,4.0,4.0,4.0,4.0,4.0,4.0,4.0,4.0,4.0,4.0,4.0,4.0,4.0,4.0,100.0,,,,,,,,,,,,,,,,,,,,,,,,,,,,,,,,,,,,,,,,,,,,,,,,,,,,,,,,,,,,,,,,,,,,,,,,,,,,,,,,,,,,,,,,,,,,,,,,,,,,,,,,,,,,,,,,,,,,,,,,,,,,,,,,,,,
1725618267.992144,1725618267.992152,2.0,0.0,4229.743652,4229.102539,4261.922852,4258.974121,4203.974121,4203.333496,4213.846191,4178.974121,4216.538574,4188.717773,4500.256348,4487.563965,4310.256348,4416.538574,2454.0,2.0,35.0,,,,0.0,4.0,4.0,4.0,4.0,4.0,4.0,4.0,4.0,4.0,4.0,4.0,4.0,4.0,4.0,100.0,,,,,,,,,,,,,,,,,1.0,0.0,0.0,,,,,,,,,,,,,,,,,,,,,,,,,,,,,,,,,,,,,0.0,0.0,1.0,0.0,1.0,0.0,4.128983,1.908003,1.683997,0.238033,0.115094,1.889033,1.441671,1.136654,0.287307,0.155666,3.64717,1.515242,0.953686,0.224942,0.107135,2.124941,1.754972,1.152952,0.193174,0.098082,1.102578,0.558727,0.70164,0.119886,0.079482,0.125123,0.138735,0.103624,0.055114,0.054546,0.572484,0.373216,0.375094,0.093544,0.040716,2.367419,1.310852,1.315839,0.633502,0.5259,3.173227,0.667748,0.661735,0.343317,0.122244,3.728222,0.981795,0.927872,0.255561,0.137926,4.815433,1.97352,1.268285,0.521813,0.291162,6.598287,2.673311,2.047262,0.561629,0.276137,4.530229,1.914266,1.571472,0.381583,0.190628,4.971159,1.753721,1.422234,0.387176,0.158432
1725618267.996049,1725618267.996056,3.0,0.0,4231.025879,4232.307617,4264.230957,4262.05127,4203.974121,4203.846191,4215.128418,4181.538574,4217.307617,4190.512695,4501.410156,4487.179688,4311.410156,4419.487305,2469.0,2.0,35.0,,,,0.0,4.0,4.0,4.0,4.0,4.0,4.0,4.0,4.0,4.0,4.0,4.0,4.0,4.0,4.0,100.0,,,,,,,,,,,,,,,,,,,,,,,,,,,,,,,,,,,,,,,,,,,,,,,,,,,,,,,,,,,,,,,,,,,,,,,,,,,,,,,,,,,,,,,,,,,,,,,,,,,,,,,,,,,,,,,,,,,,,,,,,,,,,,,,,,,
1725618267.999953,1725618267.99986,4.0,0.0,4230.0,4231.794922,4265.769043,4263.077148,4203.333496,4204.615234,4212.436035,4185.897461,4217.94873,4191.922852,4503.461426,4488.717773,4312.179688,4424.230957,2426.0,2.0,35.0,,,,0.0,4.0,4.0,4.0,4.0,4.0,4.0,4.0,4.0,4.0,4.0,4.0,4.0,4.0,4.0,100.0,,,,,,,,,,,,,,,,,,,,,,,,,,,,,,,,,,,,,,,,,,,,,,,,,,,,,,,,,,,,,,,,,,,,,,,,,,,,,,,,,,,,,,,,,,,,,,,,,,,,,,,,,,,,,,,,,,,,,,,,,,,,,,,,,,,
1725618268.003857,1725618268.003764,5.0,0.0,4226.922852,4228.589844,4265.769043,4262.692383,4202.307617,4206.410156,4206.922852,4188.717773,4217.94873,4191.410156,4504.358887,4491.025879,4311.282227,4427.307617,2393.0,2.0,35.0,,,,0.0,4.0,4.0,4.0,4.0,4.0,4.0,4.0,4.0,4.0,4.0,4.0,4.0,4.0,4.0,100.0,,,,,,,,,,,,,,,,,,,,,,,,,,,,,,,,,,,,,,,,,,,,,,,,,,,,,,,,,,,,,,,,,,,,,,,,,,,,,,,,,,,,,,,,,,,,,,,,,,,,,,,,,,,,,,,,,,,,,,,,,,,,,,,,,,,
1725618268.007761,1725618268.007668,6.0,0.0,4223.974121,4226.025879,4264.230957,4262.179688,4202.179688,4209.871582,4202.179688,4189.615234,4217.563965,4189.358887,4502.94873,4492.563965,4309.743652,4427.820313,2182.0,2.0,35.0,,,,0.0,4.0,4.0,4.0,4.0,4.0,4.0,4.0,4.0,4.0,4.0,4.0,4.0,4.0,4.0,100.0,,,,,,,,,,,,,,,,,,,,,,,,,,,,,,,,,,,,,,,,,,,,,,,,,,,,,,,,,,,,,,,,,,,,,,,,,,,,,,,,,,,,,,,,,,,,,,,,,,,,,,,,,,,,,,,,,,,,,,,,,,,,,,,,,,,
1725618268.011665,1725618268.011672,7.0,0.0,4224.102539,4226.666504,4262.692383,4262.820313,4203.974121,4213.974121,4200.769043,4190.384766,4217.05127,4186.922852,4501.153809,4492.692383,4309.358887,4427.307617,2469.0,2.0,35.0,,,,0.0,4.0,4.0,4.0,4.0,4.0,4.0,4.0,4.0,4.0,4.0,4.0,4.0,4.0,4.0,100.0,,,,,,,,,,,,,,,,,,,,,,,,,,,,,,,,,,,,,,,,,,,,,,,,,,,,,,,,,,,,,,,,,,,,,,,,,,,,,,,,,,,,,,,,,,,,,,,,,,,,,,,,,,,,,,,,,,,,,,,,,,,,,,,,,,,
1725618268.015569,1725618268.015576,8.0,0.0,4228.077148,4230.512695,4262.692383,4264.487305,4207.692383,4216.153809,4202.820313,4192.692383,4216.794922,4185.512695,4501.153809,4492.436035,4311.025879,4427.820313,2476.0,2.0,35.0,,,,0.0,4.0,4.0,4.0,4.0,4.0,4.0,4.0,4.0,4.0,4.0,4.0,4.0,4.0,4.0,100.0,,,,,,,,,,,,,,,,,,,,,,,,,,,,,,,,,,,,,,,,,,,,,,,,,,,,,,,,,,,,,,,,,,,,,,,,,,,,,,,,,,,,,,,,,,,,,,,,,,,,,,,,,,,,,,,,,,,,,,,,,,,,,,,,,,,
1725618268.019473,1725618268.019481,9.0,0.0,4233.461426,4234.743652,4264.358887,4266.153809,4212.179688,4214.743652,4205.897461,4196.410156,4216.538574,4185.384766,4503.461426,4492.692383,4313.333496,4429.871582,2551.0,2.0,35.0,,,,0.0,4.0,4.0,4.0,4.0,4.0,4.0,4.0,4.0,4.0,4.0,4.0,4.0,4.0,4.0,100.0,,,,,,,,,,,,,,,,,,,,,,,,,,,,,,,,,,,,,,,,,,,,,,,,,,,,,,,,,,,,,,,,,,,,,,,,,,,,,,,,,,,,,,,,,,,,,,,,,,,,,,,,,,,,,,,,,,,,,,,,,,,,,,,,,,,
1725618268.023377,1725618268.023385,10.0,0.0,4236.666504,4235.641113,4266.282227,4266.153809,4215.641113,4210.0,4207.307617,4199.615234,4216.025879,4185.769043,4506.282227,4493.461426,4313.589844,4431.794922,2905.0,2.0,35.0,,,,0.0,4.0,4.0,4.0,4.0,4.0,4.0,4.0,4.0,4.0,4.0,4.0,4.0,4.0,4.0,100.0,,,,,,,,,,,,,,,,,,,,,,,,,,,,,,,,,,,,,,,,,,,,,,,,,,,,,,,,0.0,0.0,1.0,0.0,1.0,0.0,,,,,,,,,,,,,,,,,,,,,,,,,,,,,,,,,,,,,,,,,,,,,,,,,,,,,,,,,,,,,,,,,,,,,,
1725618268.027281,1725618268.027389,11.0,0.0,4236.153809,4231.794922,4266.922852,4264.487305,4216.794922,4205.128418,4206.410156,4200.512695,4214.487305,4185.641113,4507.307617,4493.461426,4310.256348,4431.666504,3072.0,2.0,35.0,,,,0.0,4.0,4.0,4.0,4.0,4.0,4.0,4.0,4.0,4.0,4.0,4.0,4.0,4.0,4.0,100.0,,,,,,,,,,,,,,,,,,,,,,,,,,,,,,,,,,,,,,,,,,,,,,,,,,,,,,,,,,,,,,,,,,,,,,,,,,,,,,,,,,,,,,,,,,,,,,,,,,,,,,,,,,,,,,,,,,,,,,,,,,,,,,,,,,,
1725618268.031186,1725618268.031293,12.0,0.0,4233.333496,4225.128418,4266.538574,4262.692383,4215.769043,4203.077148,4204.487305,4199.102539,4212.692383,4184.102539,4506.282227,4492.436035,4304.743652,4428.846191,3423.0,2.0,35.0,,,,0.0,4.0,4.0,4.0,4.0,4.0,4.0,4.0,4.0,4.0,4.0,4.0,4.0,4.0,4.0,100.0,,,,,,,,,,,,,,,,,,,,,,,,,,,,,,,,,,,,,,,,,,,,,,,,,,,,,,,,,,,,,,,,,,,,,,,,,,,,,,,,,,,,,,,,,,,,,,,,,,,,,,,,,,,,,,,,,,,,,,,,,,,,,,,,,,,
1725618268.03509,1725618268.035197,13.0,0.0,4231.025879,4218.846191,4266.666504,4262.692383,4214.358887,4205.256348,4203.846191,4197.563965,4211.922852,4182.179688,4504.358887,4491.794922,4300.256348,4425.512695,3889.0,2.0,35.0,,,,0.0,4.0,4.0,4.0,4.0,4.0,4.0,4.0,4.0,4.0,4.0,4.0,4.0,4.0,4.0,100.0,,,,,,,,,,,,,,,,,,,,,,,,,,,,,,,,,,,,,,,,,,,,,,,,,,,,,,,,,,,,,,,,,,,,,,,,,,,,,,,,,,,,,,,,,,,,,,,,,,,,,,,,,,,,,,,,,,,,,,,,,,,,,,,,,,,
1725618268.038994,1725618268.039201,14.0,0.0,4231.153809,4215.769043,4268.717773,4264.358887,4214.102539,4210.256348,4205.0,4197.94873,4213.333496,4181.282227,4502.692383,4493.846191,4299.615234,4424.102539,2905.0,2.0,35.0,,,,0.0,4.0,4.0,4.0,4.0,4.0,4.0,4.0,4.0,4.0,4.0,4.0,4.0,4.0,4.0,100.0,,,,,,,,,,,,,,,,,,,,,,,,,,,,,,,,,,,,,,,,,,,,,,,,,,,,,,,,,,,,,,,,,,,,,,,,,,,,,,,,,,,,,,,,,,,,,,,,,,,,,,,,,,,,,,,,,,,,,,,,,,,,,,,,,,,
1725618268.042898,1725618268.043105,15.0,0.0,4233.461426,4215.897461,4272.94873,4266.025879,4214.743652,4214.230957,4206.666504,4200.384766,4216.666504,4182.820313,4502.179688,4498.974121,4302.94873,4426.153809,3072.0,2.0,35.0,,,,0.0,4.0,4.0,4.0,4.0,4.0,4.0,4.0,4.0,4.0,4.0,4.0,4.0,4.0,4.0,100.0,,,,,,,,,,,,,,,,,,,,,,,,,,,,,,,,,,,,,,,,,,,,,,,,,,,,,,,,,,,,,,,,,,,,,,,,,,,,,,,,,,,,,,,,,,,,,,,,,,,,,,,,,,,,,,,,,,,,,,,,,,,,,,,,,,,
1725618268.046802,1725618268.047009,16.0,0.0,4236.153809,4217.820313,4277.94873,4266.153809,4215.0,4214.358887,4207.307617,4203.461426,4219.743652,4187.05127,4503.333496,4505.256348,4307.94873,4430.897461,3423.0,2.0,35.0,,,,0.0,4.0,4.0,4.0,4.0,4.0,4.0,4.0,4.0,4.0,4.0,4.0,4.0,4.0,4.0,100.0,,,,,,,,,,,,,,,,,,,,,,,,,,,,,,,,,,,,,,,,,,,,,,,,,,,,,,,,,,,,,,,,,,,,,,,,,,,,,,,,,,,,,,,,,,,,,,,,,,,,,,,,,,,,,,,,,,,,,,,,,,,,,,,,,,,
1725618268.050706,1725618268.050913,17.0,0.0,4237.820313,4220.128418,4281.282227,4265.641113,4213.589844,4210.769043,4206.153809,4205.769043,4221.025879,4192.692383,4505.641113,4509.615234,4312.05127,4435.897461,3889.0,2.0,35.0,,,,0.0,4.0,4.0,4.0,4.0,4.0,4.0,4.0,4.0,4.0,4.0,4.0,4.0,4.0,4.0,100.0,,,,,,,,,,,,,,,,,,,,,,,,,,,,,,,,,,,,,,,,,,,,,,,,,,,,,,,,,,,,,,,,,,,,,,,,,,,,,,,,,,,,,,,,,,,,,,,,,,,,,,,,,,,,,,,,,,,,,,,,,,,,,,,,,,,
1725618268.05461,1725618268.054817,18.0,0.0,4237.820313,4221.538574,4281.538574,4265.641113,4210.256348,4206.153809,4204.358887,4206.282227,4220.641113,4197.692383,4508.077148,4510.641113,4313.717773,4438.333496,2905.0,2.0,35.0,,,,0.0,4.0,4.0,4.0,4.0,4.0,4.0,4.0,4.0,4.0,4.0,4.0,4.0,4.0,4.0,100.0,,,,,,,,,,,,,,,,,,,,,,,,,,,,,,,,,,,,,,,,,,,,,,,,,,,,,,,,0.0,0.0,1.0,0.0,1.0,0.0,,,,,,,,,,,,,,,,,,,,,,,,,,,,,,,,,,,,,,,,,,,,,,,,,,,,,,,,,,,,,,,,,,,,,,
1725618268.058514,1725618268.058621,19.0,0.0,4236.666504,4221.025879,4278.205078,4266.153809,4205.769043,4203.333496,4202.94873,4206.025879,4219.743652,4200.897461,4509.615234,4509.743652,4313.205078,4437.436035,3072.0,2.0,35.0,,,,0.0,4.0,4.0,4.0,4.0,4.0,4.0,4.0,4.0,4.0,4.0,4.0,4.0,4.0,4.0,100.0,,,,,,,,,,,,,,,,,,,,,,,,,,,,,,,,,,,,,,,,,,,,,,,,,,,,,,,,,,,,,,,,,,,,,,,,,,,,,,,,,,,,,,,,,,,,,,,,,,,,,,,,,,,,,,,,,,,,,,,,,,,,,,,,,,,
1725618268.062418,1725618268.062526,20.0,0.0,4234.743652,4217.94873,4273.077148,4265.897461,4201.794922,4203.077148,4202.692383,4206.153809,4220.256348,4202.436035,4510.128418,4508.461426,4311.410156,4433.846191,3423.0,2.0,35.0,,,,0.0,4.0,4.0,4.0,4.0,4.0,4.0,4.0,4.0,4.0,4.0,4.0,4.0,4.0,4.0,100.0,,,,,,,,,,,,,,,,,,,,,,,,,,,,,,,,,,,,,,,,,,,,,,,,,,,,,,,,,,,,,,,,,,,,,,,,,,,,,,,,,,,,,,,,,,,,,,,,,,,,,,,,,,,,,,,,,,,,,,,,,,,,,,,,,,,
1725618268.066322,1725618268.06643,21.0,0.0,4232.94873,4212.563965,4268.205078,4263.461426,4199.615234,4204.358887,4202.692383,4206.666504,4222.179688,4202.820313,4510.128418,4507.436035,4309.230957,4430.0,3889.0,2.0,35.0,,,,0.0,4.0,4.0,4.0,4.0,4.0,4.0,4.0,4.0,4.0,4.0,4.0,4.0,4.0,4.0,100.0,,,,,,,,,,,,,,,,,,,,,,,,,,,,,,,,,,,,,,,,,,,,,,,,,,,,,,,,,,,,,,,,,,,,,,,,,,,,,,,,,,,,,,,,,,,,,,,,,,,,,,,,,,,,,,,,,,,,,,,,,,,,,,,,,,,
1725618268.070227,1725618268.070334,22.0,0.0,4231.538574,4206.922852,4265.641113,4258.717773,4199.358887,4205.0,4202.692383,4206.666504,4224.102539,4201.922852,4509.487305,4506.153809,4307.179688,4427.692383,2905.0,2.0,35.0,,,,0.0,4.0,4.0,4.0,4.0,4.0,4.0,4.0,4.0,4.0,4.0,4.0,4.0,4.0,4.0,100.0,,,,,,,,,,,,,,,,,,,,,,,,,,,,,,,,,,,,,,,,,,,,,,,,,,,,,,,,,,,,,,,,,,,,,,,,,,,,,,,,,,,,,,,,,,,,,,,,,,,,,,,,,,,,,,,,,,,,,,,,,,,,,,,,,,,
1725618268.074131,1725618268.074138,23.0,0.0,4230.641113,4202.563965,4265.128418,4253.589844,4200.0,4203.717773,4202.307617,4204.487305,4224.230957,4199.871582,4507.94873,4503.846191,4305.384766,4427.307617,3072.0,2.0,35.0,,,,0.0,4.0,4.0,4.0,4.0,4.0,4.0,4.0,4.0,4.0,4.0,4.0,4.0,4.0,4.0,100.0,,,,,,,,,,,,,,,,,,,,,,,,,,,,,,,,,,,,,,,,,,,,,,,,,,,,,,,,,,,,,,,,,,,,,,,,,,,,,,,,,,,,,,,,,,,,,,,,,,,,,,,,,,,,,,,,,,,,,,,,,,,,,,,,,,,
1725618268.078035,1725618268.078042,24.0,0.0,4230.512695,4200.512695,4265.384766,4250.641113,4200.641113,4201.153809,4201.922852,4199.615234,4222.179688,4197.563965,4505.641113,4500.769043,4304.358887,4427.820313,3423.0,2.0,35.0,,,,0.0,4.0,4.0,4.0,4.0,4.0,4.0,4.0,4.0,4.0,4.0,4.0,4.0,4.0,4.0,100.0,,,,,,,,,,,,,,,,,,,,,,,,,,,,,,,,,,,,,,,,,,,,,,,,,,,,,,,,,,,,,,,,,,,,,,,,,,,,,,,,,,,,,,,,,,,,,,,,,,,,,,,,,,,,,,,,,,,,,,,,,,,,,,,,,,,
1725618268.081939,1725618268.081946,25.0,0.0,4231.025879,4200.384766,4265.897461,4251.282227,4200.769043,4199.487305,4201.410156,4193.461426,4218.974121,4196.410156,4503.974121,4498.333496,4305.128418,4428.205078,3889.0,2.0,35.0,,,,0.0,4.0,4.0,4.0,4.0,4.0,4.0,4.0,4.0,4.0,4.0,4.0,4.0,4.0,4.0,100.0,,,,,,,,,,,,,,,,,,,,,,,,,,,,,,,,,,,,,,,,,,,,,,,,,,,,,,,,,,,,,,,,,,,,,,,,,,,,,,,,,,,,,,,,,,,,,,,,,,,,,,,,,,,,,,,,,,,,,,,,,,,,,,,,,,,
1725618268.085843,1725618268.08585,26.0,0.0,4231.922852,4201.794922,4266.410156,4255.128418,4200.256348,4200.0,4201.282227,4187.94873,4216.794922,4197.307617,4503.846191,4497.820313,4307.692383,4428.205078,2905.0,2.0,35.0,,,,0.0,4.0,4.0,4.0,4.0,4.0,4.0,4.0,4.0,4.0,4.0,4.0,4.0,4.0,4.0,100.0,,,,,,,,,,,,,,,,,,,,,,,,,,,,,,,,,,,,,,,,,,,,,,,,,,,,,,,,0.0,0.0,1.0,0.0,1.0,0.0,,,,,,,,,,,,,,,,,,,,,,,,,,,,,,,,,,,,,,,,,,,,,,,,,,,,,,,,,,,,,,,,,,,,,,
1725618268.089747,1725618268.089654,27.0,0.0,4232.820313,4203.717773,4267.05127,4259.871582,4199.743652,4202.05127,4201.538574,4185.0,4216.794922,4199.615234,4505.128418,4499.102539,4311.153809,4428.461426,3072.0,2.0,35.0,,,,0.0,4.0,4.0,4.0,4.0,4.0,4.0,4.0,4.0,4.0,4.0,4.0,4.0,4.0,4.0,100.0,,,,,,,,,,,,,,,,,,,,,,,,,,,,,,,,,,,,,,,,,,,,,,,,,,,,,,,,,,,,,,,,,,,,,,,,,,,,,,,,,,,,,,,,,,,,,,,,,,,,,,,,,,,,,,,,,,,,,,,,,,,,,,,,,,,
1725618268.093651,1725618268.093559,28.0,0.0,4233.333496,4205.0,4267.820313,4262.820313,4199.871582,4204.230957,4202.179688,4184.615234,4218.077148,4201.538574,4506.282227,4500.256348,4313.333496,4429.230957,3423.0,2.0,35.0,,,,0.0,4.0,4.0,4.0,4.0,4.0,4.0,4.0,4.0,4.0,4.0,4.0,4.0,4.0,4.0,100.0,,,,,,,,,,,,,,,,,,,,,,,,,,,,,,,,,,,,,,,,,,,,,,,,,,,,,,,,,,,,,,,,,,,,,,,,,,,,,,,,,,,,,,,,,,,,,,,,,,,,,,,,,,,,,,,,,,,,,,,,,,,,,,,,,,,
1725618268.097555,1725618268.097463,29.0,0.0,4233.077148,4204.743652,4268.077148,4262.94873,4200.512695,4205.384766,4202.436035,4185.512695,4218.717773,4200.512695,4505.384766,4499.358887,4312.563965,4430.128418,3889.0,2.0,35.0,,,,0.0,4.0,4.0,4.0,4.0,4.0,4.0,4.0,4.0,4.0,4.0,4.0,4.0,4.0,4.0,100.0,,,,,,,,,,,,,,,,,,,,,,,,,,,,,,,,,,,,,,,,,,,,,,,,,,,,,,,,,,,,,,,,,,,,,,,,,,,,,,,,,,,,,,,,,,,,,,,,,,,,,,,,,,,,,,,,,,,,,,,,,,,,,,,,,,,
1725618268.101459,1725618268.101367,30.0,0.0,4232.436035,4202.820313,4267.94873,4261.153809,4200.769043,4205.256348,4201.922852,4186.666504,4217.179688,4196.153809,4502.05127,4496.410156,4309.230957,4430.512695,2905.0,2.0,35.0,,,,0.0,4.0,4.0,4.0,4.0,4.0,4.0,4.0,4.0,4.0,4.0,4.0,4.0,4.0,4.0,100.0,,,,,,,,,,,,,,,,,,,,,,,,,,,,,,,,,,,,,,,,,,,,,,,,,,,,,,,,,,,,,,,,,,,,,,,,,,,,,,,,,,,,,,,,,,,,,,,,,,,,,,,,,,,,,,,,,,,,,,,,,,,,,,,,,,,
1725618268.105363,1725618268.105171,31.0,0.0,4231.666504,4200.641113,4268.205078,4259.615234,4200.512695,4204.230957,4200.641113,4187.692383,4213.717773,4190.128418,4497.692383,4493.717773,4305.641113,4430.256348,3072.0,2.0,35.0,,,,0.0,4.0,4.0,4.0,4.0,4.0,4.0,4.0,4.0,4.0,4.0,4.0,4.0,4.0,4.0,100.0,,,,,,,,,,,,,,,,,,,,,,,,,,,,,,,,,,,,,,,,,,,,,,,,,,,,,,,,,,,,,,,,,,,,,,,,,,,,,,,,,,,,,,,,,,,,,,,,,,,,,,,,,,,,,,,,,,,,,,,,,,,,,,,,,,,
1725618268.109268,1725618268.109075,32.0,0.0,4231.025879,4199.230957,4269.358887,4259.871582,4200.0,4202.563965,4199.230957,4188.974121,4210.128418,4185.384766,4494.102539,4494.230957,4304.487305,4430.0,0.0,2.0,35.0,,,,0.0,4.0,4.0,4.0,4.0,4.0,4.0,4.0,4.0,4.0,4.0,4.0,4.0,4.0,4.0,100.0,,,,,,,,,,,,,,,,,,,,,,,,,,,,,,,,,,,,,,,,,,,,,,,,,,,,,,,,,,,,,,,,,,,,,,,,,,,,,,,,,,,,,,,,,,,,,,,,,,,,,,,,,,,,,,,,,,,,,,,,,,,,,,,,,,,
1725618268.113172,1725618268.112979,33.0,0.0,4230.769043,4199.230957,4271.025879,4261.538574,4200.0,4201.410156,4198.589844,4191.282227,4208.461426,4184.230957,4492.179688,4498.974121,4306.410156,4430.128418,0.0,2.0,35.0,,,,0.0,4.0,4.0,4.0,4.0,4.0,4.0,4.0,4.0,4.0,4.0,4.0,4.0,4.0,4.0,100.0,,,,,,,,,,,,,,,,,,,,,,,,,,,,,,,,,,,,,,,,,,,,,,,,,,,,,,,,,,,,,,,,,,,,,,,,,,,,,,,,,,,,,,,,,,,,,,,,,,,,,,,,,,,,,,,,,,,,,,,,,,,,,,,,,,,
1725618268.117076,1725618268.116983,34.0,0.0,4230.512695,4200.256348,4272.179688,4263.333496,4200.641113,4201.922852,4198.846191,4194.615234,4209.102539,4186.410156,4491.794922,4505.641113,4309.871582,4430.769043,0.0,2.0,35.0,,,,0.0,4.0,4.0,4.0,4.0,4.0,4.0,4.0,4.0,4.0,4.0,4.0,4.0,4.0,4.0,100.0,,,,,,,,,,,,,,,,,1.0,0.0,0.0,,,,,,,,,,,,,,,,,,,,,,,,,,,,,,,,,,,,,0.0,0.0,1.0,0.0,1.0,0.0,4.308745,2.107461,2.052449,0.295211,0.100854,2.171226,1.500254,1.358422,0.337185,0.139362,3.562057,1.627155,1.006097,0.278926,0.089586,2.293355,1.770256,1.153904,0.239361,0.088438,1.16122,0.502674,0.743168,0.163202,0.074983,0.129649,0.121565,0.100079,0.064828,0.058751,0.525431,0.30732,0.358248,0.10663,0.030327,2.253213,1.308752,1.294748,0.732267,0.514044,3.110826,0.795066,0.87575,0.413041,0.128785,3.725186,1.040148,1.300021,0.262147,0.123994,4.388086,1.974119,1.480995,0.666605,0.283632,6.400598,2.58516,1.887365,0.713525,0.247665,4.424346,2.434945,2.035451,0.454399,0.162151,4.703048,1.82911,1.632847,0.484445,0.145576
1725618268.12098,1725618268.120887,35.0,0.0,4230.256348,4201.538574,4272.05127,4263.717773,4201.538574,4205.128418,4199.871582,4197.94873,4211.666504,4189.358887,4492.05127,4510.384766,4312.05127,4431.153809,0.0,2.0,35.0,,,,0.0,4.0,4.0,4.0,4.0,4.0,4.0,4.0,4.0,4.0,4.0,4.0,4.0,4.0,4.0,100.0,,,,,,,,,,,,,,,,,,,,,,,,,,,,,,,,,,,,,,,,,,,,,,,,,,,,,,,,,,,,,,,,,,,,,,,,,,,,,,,,,,,,,,,,,,,,,,,,,,,,,,,,,,,,,,,,,,,,,,,,,,,,,,,,,,,
1725618268.124884,1725618268.124791,36.0,0.0,4229.871582,4202.05127,4270.512695,4262.94873,4202.179688,4210.256348,4200.897461,4200.128418,4215.0,4190.512695,4492.563965,4510.384766,4311.666504,4430.512695,0.0,2.0,35.0,,,,0.0,4.0,4.0,4.0,4.0,4.0,4.0,4.0,4.0,4.0,4.0,4.0,4.0,4.0,4.0,100.0,,,,,,,,,,,,,,,,,,,,,,,,,,,,,,,,,,,,,,,,,,,,,,,,,,,,,,,,,,,,,,,,,,,,,,,,,,,,,,,,,,,,,,,,,,,,,,,,,,,,,,,,,,,,,,,,,,,,,,,,,,,,,,,,,,,
1725618268.128788,1725618268.128696,37.0,0.0,4229.102539,4201.666504,4267.94873,4262.179688,4202.436035,4214.743652,4201.666504,4200.641113,4217.692383,4189.102539,4492.820313,4506.282227,4309.358887,4429.102539,0.0,2.0,35.0,,,,0.0,4.0,4.0,4.0,4.0,4.0,4.0,4.0,4.0,4.0,4.0,4.0,4.0,4.0,4.0,100.0,,,,,,,,,,,,,,,,,,,,,,,,,,,,,,,,,,,,,,,,,,,,,,,,,,,,,,,,,,,,,,,,,,,,,,,,,,,,,,,,,,,,,,,,,,,,,,,,,,,,,,,,,,,,,,,,,,,,,,,,,,,,,,,,,,,
1725618268.132692,1725618268.1327,38.0,0.0,4227.563965,4200.512695,4265.512695,4261.794922,4202.179688,4215.769043,4202.179688,4200.0,4218.461426,4186.922852,4492.820313,4501.794922,4307.563965,4427.692383,0.0,2.0,35.0,,,,0.0,4.0,4.0,4.0,4.0,4.0,4.0,4.0,4.0,4.0,4.0,4.0,4.0,4.0,4.0,100.0,,,,,,,,,,,,,,,,,,,,,,,,,,,,,,,,,,,,,,,,,,,,,,,,,,,,,,,,,,,,,,,,,,,,,,,,,,,,,,,,,,,,,,,,,,,,,,,,,,,,,,,,,,,,,,,,,,,,,,,,,,,,,,,,,,,
1725618268.136596,1725618268.136604,39.0,0.0,4225.128418,4199.487305,4264.230957,4261.025879,4201.538574,4212.692383,4202.436035,4199.230957,4216.282227,4186.153809,4492.820313,4500.641113,4307.820313,4426.922852,0.0,2.0,35.0,,,,0.0,4.0,4.0,4.0,4.0,4.0,4.0,4.0,4.0,4.0,4.0,4.0,4.0,4.0,4.0,100.0,,,,,,,,,,,,,,,,,,,,,,,,,,,,,,,,,,,,,,,,,,,,,,,,,,,,,,,,,,,,,,,,,,,,,,,,,,,,,,,,,,,,,,,,,,,,,,,,,,,,,,,,,,,,,,,,,,,,,,,,,,,,,,,,,,,
1725618268.1405,1725618268.140508,40.0,0.0,4222.307617,4199.871582,4264.230957,4259.615234,4200.897461,4207.563965,4202.563965,4199.102539,4211.794922,4187.179688,4493.333496,4503.461426,4309.487305,4426.538574,0.0,2.0,35.0,,,,0.0,4.0,4.0,4.0,4.0,4.0,4.0,4.0,4.0,4.0,4.0,4.0,4.0,4.0,4.0,100.0,,,,,,,,,,,,,,,,,,,,,,,,,,,,,,,,,,,,,,,,,,,,,,,,,,,,,,,,,,,,,,,,,,,,,,,,,,,,,,,,,,,,,,,,,,,,,,,,,,,,,,,,,,,,,,,,,,,,,,,,,,,,,,,,,,,
1725618268.144405,1725618268.144512,41.0,0.0,4220.128418,4201.794922,4265.128418,4258.461426,4200.641113,4203.846191,4202.179688,4198.974121,4207.05127,4188.974121,4493.846191,4506.922852,4311.153809,4426.410156,0.0,2.0,35.0,,,,0.0,4.0,4.0,4.0,4.0,4.0,4.0,4.0,4.0,4.0,4.0,4.0,4.0,4.0,4.0,100.0,,,,,,,,,,,,,,,,,,,,,,,,,,,,,,,,,,,,,,,,,,,,,,,,,,,,,,,,,,,,,,,,,,,,,,,,,,,,,,,,,,,,,,,,,,,,,,,,,,,,,,,,,,,,,,,,,,,,,,,,,,,,,,,,,,,
1725618268.148309,1725618268.148416,42.0,0.0,4218.846191,4204.230957,4265.641113,4258.333496,4200.769043,4202.820313,4201.410156,4198.974121,4204.487305,4189.871582,4493.205078,4507.179688,4311.538574,4426.538574,0.0,2.0,35.0,,,,0.0,4.0,4.0,4.0,4.0,4.0,4.0,4.0,4.0,4.0,4.0,4.0,4.0,4.0,4.0,100.0,,,,,,,,,,,,,,,,,,,,,,,,,,,,,,,,,,,,,,,,,,,,,,,,,,,,,,,,0.0,0.0,1.0,0.0,1.0,0.0,,,,,,,,,,,,,,,,,,,,,,,,,,,,,,,,,,,,,,,,,,,,,,,,,,,,,,,,,,,,,,,,,,,,,,
1725618268.152213,1725618268.15232,43.0,0.0,4218.333496,4205.256348,4265.256348,4259.102539,4201.282227,4203.846191,4200.641113,4198.974121,4204.615234,4189.358887,4491.410156,4502.94873,4310.769043,4426.538574,0.0,2.0,35.0,,,,0.0,4.0,4.0,4.0,4.0,4.0,4.0,4.0,4.0,4.0,4.0,4.0,4.0,4.0,4.0,100.0,,,,,,,,,,,,,,,,,,,,,,,,,,,,,,,,,,,,,,,,,,,,,,,,,,,,,,,,,,,,,,,,,,,,,,,,,,,,,,,,,,,,,,,,,,,,,,,,,,,,,,,,,,,,,,,,,,,,,,,,,,,,,,,,,,,
1725618268.156117,1725618268.156224,44.0,0.0,4218.205078,4204.102539,4264.102539,4260.128418,4201.538574,4204.743652,4200.384766,4199.615234,4207.436035,4188.205078,4490.256348,4496.794922,4310.384766,4426.538574,0.0,2.0,35.0,,,,0.0,4.0,4.0,4.0,4.0,4.0,4.0,4.0,4.0,4.0,4.0,4.0,4.0,4.0,4.0,100.0,,,,,,,,,,,,,,,,,,,,,,,,,,,,,,,,,,,,,,,,,,,,,,,,,,,,,,,,,,,,,,,,,,,,,,,,,,,,,,,,,,,,,,,,,,,,,,,,,,,,,,,,,,,,,,,,,,,,,,,,,,,,,,,,,,,
1725618268.160021,1725618268.160128,45.0,0.0,4218.461426,4201.666504,4263.205078,4260.384766,4201.410156,4204.615234,4200.512695,4201.153809,4211.794922,4187.563965,4492.05127,4492.94873,4311.922852,4426.282227,0.0,2.0,35.0,,,,0.0,4.0,4.0,4.0,4.0,4.0,4.0,4.0,4.0,4.0,4.0,4.0,4.0,4.0,4.0,100.0,,,,,,,,,,,,,,,,,,,,,,,,,,,,,,,,,,,,,,,,,,,,,,,,,,,,,,,,,,,,,,,,,,,,,,,,,,,,,,,,,,,,,,,,,,,,,,,,,,,,,,,,,,,,,,,,,,,,,,,,,,,,,,,,,,,
1725618268.163925,1725618268.163932,46.0,0.0,4218.717773,4199.743652,4263.205078,4260.0,4201.025879,4204.230957,4200.897461,4202.94873,4216.538574,4187.94873,4497.05127,4493.846191,4315.256348,4426.153809,0.0,2.0,35.0,,,,0.0,4.0,4.0,4.0,4.0,4.0,4.0,4.0,4.0,4.0,4.0,4.0,4.0,4.0,4.0,100.0,,,,,,,,,,,,,,,,,,,,,,,,,,,,,,,,,,,,,,,,,,,,,,,,,,,,,,,,,,,,,,,,,,,,,,,,,,,,,,,,,,,,,,,,,,,,,,,,,,,,,,,,,,,,,,,,,,,,,,,,,,,,,,,,,,,
1725618268.167829,1725618268.167836,47.0,0.0,4219.230957,4200.256348,4263.717773,4259.615234,4200.897461,4205.641113,4201.282227,4203.846191,4219.871582,4188.589844,4503.205078,4498.333496,4319.102539,4426.282227,0.0,2.0,35.0,,,,0.0,4.0,4.0,4.0,4.0,4.0,4.0,4.0,4.0,4.0,4.0,4.0,4.0,4.0,4.0,100.0,,,,,,,,,,,,,,,,,,,,,,,,,,,,,,,,,,,,,,,,,,,,,,,,,,,,,,,,,,,,,,,,,,,,,,,,,,,,,,,,,,,,,,,,,,,,,,,,,,,,,,,,,,,,,,,,,,,,,,,,,,,,,,,,,,,
1725618268.171733,1725618268.171741,48.0,0.0,4219.487305,4203.077148,4264.358887,4260.256348,4201.025879,4209.743652,4201.538574,4202.820313,4219.230957,4188.846191,4506.666504,4501.922852,4321.794922,4426.282227,0.0,2.0,35.0,,,,0.0,4.0,4.0,4.0,4.0,4.0,4.0,4.0,4.0,4.0,4.0,4.0,4.0,4.0,4.0,100.0,,,,,,,,,,,,,,,,,,,,,,,,,,,,,,,,,,,,,,,,,,,,,,,,,,,,,,,,,,,,,,,,,,,,,,,,,,,,,,,,,,,,,,,,,,,,,,,,,,,,,,,,,,,,,,,,,,,,,,,,,,,,,,,,,,,
1725618268.175637,1725618268.175645,49.0,0.0,4219.615234,4206.282227,4264.230957,4261.282227,4201.538574,4214.871582,4201.794922,4200.641113,4213.974121,4188.205078,4505.128418,4501.410156,4322.307617,4426.025879,0.0,2.0,35.0,,,,0.0,4.0,4.0,4.0,4.0,4.0,4.0,4.0,4.0,4.0,4.0,4.0,4.0,4.0,4.0,100.0,,,,,,,,,,,,,,,,,,,,,,,,,,,,,,,,,,,,,,,,,,,,,,,,,,,,,,,,,,,,,,,,,,,,,,,,,,,,,,,,,,,,,,,,,,,,,,,,,,,,,,,,,,,,,,,,,,,,,,,,,,,,,,,,,,,
1725618268.179541,1725618268.179449,50.0,0.0,4219.358887,4207.94873,4262.820313,4261.538574,4202.179688,4217.94873,4201.794922,4198.461426,4206.410156,4187.179688,4499.743652,4497.05127,4320.512695,4425.769043,0.0,2.0,35.0,,,,0.0,4.0,4.0,4.0,4.0,4.0,4.0,4.0,4.0,4.0,4.0,4.0,4.0,4.0,4.0,100.0,,,,,,,,,,,,,,,,,,,,,,,,,,,,,,,,,,,,,,,,,,,,,,,,,,,,,,,,0.0,0.0,1.0,0.0,1.0,0.0,,,,,,,,,,,,,,,,,,,,,,,,,,,,,,,,,,,,,,,,,,,,,,,,,,,,,,,,,,,,,,,,,,,,,,
1725618268.183446,1725618268.183353,51.0,0.0,4218.717773,4206.794922,4260.0,4259.615234,4202.436035,4217.05127,4200.897461,4197.692383,4201.025879,4186.922852,4493.846191,4491.922852,4317.94873,4425.641113,0.0,2.0,35.0,,,,0.0,4.0,4.0,4.0,4.0,4.0,4.0,4.0,4.0,4.0,4.0,4.0,4.0,4.0,4.0,100.0,,,,,,,,,,,,,,,,,,,,,,,,,,,,,,,,,,,,,,,,,,,,,,,,,,,,,,,,,,,,,,,,,,,,,,,,,,,,,,,,,,,,,,,,,,,,,,,,,,,,,,,,,,,,,,,,,,,,,,,,,,,,,,,,,,,
1725618268.18735,1725618268.187257,52.0,0.0,4217.94873,4203.589844,4256.538574,4255.769043,4202.179688,4212.820313,4198.846191,4198.717773,4201.025879,4187.563965,4490.897461,4489.615234,4315.512695,4425.641113,0.0,2.0,35.0,,,,0.0,4.0,4.0,4.0,4.0,4.0,4.0,4.0,4.0,4.0,4.0,4.0,4.0,4.0,4.0,100.0,,,,,,,,,,,,,,,,,,,,,,,,,,,,,,,,,,,,,,,,,,,,,,,,,,,,,,,,,,,,,,,,,,,,,,,,,,,,,,,,,,,,,,,,,,,,,,,,,,,,,,,,,,,,,,,,,,,,,,,,,,,,,,,,,,,
1725618268.191254,1725618268.191161,53.0,0.0,4217.563965,4200.384766,4253.461426,4251.538574,4201.794922,4207.692383,4195.769043,4200.897461,4205.769043,4188.461426,4491.794922,4490.897461,4313.846191,4424.871582,0.0,2.0,35.0,,,,0.0,4.0,4.0,4.0,4.0,4.0,4.0,4.0,4.0,4.0,4.0,4.0,4.0,4.0,4.0,100.0,,,,,,,,,,,,,,,,,,,,,,,,,,,,,,,,,,,,,,,,,,,,,,,,,,,,,,,,,,,,,,,,,,,,,,,,,,,,,,,,,,,,,,,,,,,,,,,,,,,,,,,,,,,,,,,,,,,,,,,,,,,,,,,,,,,
1725618268.195158,1725618268.194965,54.0,0.0,4217.179688,4198.589844,4251.153809,4249.230957,4201.282227,4203.717773,4192.563965,4203.077148,4211.922852,4187.94873,4494.358887,4492.94873,4312.563965,4422.307617,0.0,2.0,35.0,,,,0.0,4.0,4.0,4.0,4.0,4.0,4.0,4.0,4.0,4.0,4.0,4.0,4.0,4.0,4.0,100.0,,,,,,,,,,,,,,,,,,,,,,,,,,,,,,,,,,,,,,,,,,,,,,,,,,,,,,,,,,,,,,,,,,,,,,,,,,,,,,,,,,,,,,,,,,,,,,,,,,,,,,,,,,,,,,,,,,,,,,,,,,,,,,,,,,,
1725618268.199062,1725618268.19887,55.0,0.0,4216.538574,4198.846191,4249.487305,4250.384766,4200.512695,4201.922852,4190.512695,4203.333496,4215.128418,4185.512695,4495.128418,4493.333496,4311.282227,4418.589844,0.0,2.0,35.0,,,,0.0,4.0,4.0,4.0,4.0,4.0,4.0,4.0,4.0,4.0,4.0,4.0,4.0,4.0,4.0,100.0,,,,,,,,,,,,,,,,,,,,,,,,,,,,,,,,,,,,,,,,,,,,,,,,,,,,,,,,,,,,,,,,,,,,,,,,,,,,,,,,,,,,,,,,,,,,,,,,,,,,,,,,,,,,,,,,,,,,,,,,,,,,,,,,,,,
1725618268.202966,1725618268.202774,56.0,0.0,4215.512695,4200.128418,4248.974121,4254.743652,4199.487305,4201.538574,4189.871582,4201.282227,4213.077148,4182.563965,4492.94873,4491.666504,4310.512695,4415.512695,0.0,2.0,35.0,,,,0.0,4.0,4.0,4.0,4.0,4.0,4.0,4.0,4.0,4.0,4.0,4.0,4.0,4.0,4.0,100.0,,,,,,,,,,,,,,,,,,,,,,,,,,,,,,,,,,,,,,,,,,,,,,,,,,,,,,,,,,,,,,,,,,,,,,,,,,,,,,,,,,,,,,,,,,,,,,,,,,,,,,,,,,,,,,,,,,,,,,,,,,,,,,,,,,,
1725618268.20687,1725618268.206778,57.0,0.0,4215.384766,4201.410156,4250.128418,4259.615234,4198.846191,4201.666504,4190.512695,4197.436035,4207.05127,4181.410156,4489.230957,4490.0,4311.153809,4415.512695,0.0,2.0,35.0,,,,0.0,4.0,4.0,4.0,4.0,4.0,4.0,4.0,4.0,4.0,4.0,4.0,4.0,4.0,4.0,100.0,,,,,,,,,,,,,,,,,,,,,,,,,,,,,,,,,,,,,,,,,,,,,,,,,,,,,,,,,,,,,,,,,,,,,,,,,,,,,,,,,,,,,,,,,,,,,,,,,,,,,,,,,,,,,,,,,,,,,,,,,,,,,,,,,,,
1725618268.210774,1725618268.210682,58.0,0.0,4217.307617,4201.666504,4253.205078,4261.922852,4199.487305,4201.922852,4191.153809,4192.94873,4201.282227,4182.820313,4487.436035,4490.256348,4313.589844,4419.102539,0.0,2.0,35.0,,,,0.0,4.0,4.0,4.0,4.0,4.0,4.0,4.0,4.0,4.0,4.0,4.0,4.0,4.0,4.0,100.0,,,,,,,,,,,,,,,,,,,,,,,,,,,,,,,,,,,,,,,,,,,,,,,,,,,,,,,,0.0,0.0,1.0,0.0,1.0,0.0,,,,,,,,,,,,,,,,,,,,,,,,,,,,,,,,,,,,,,,,,,,,,,,,,,,,,,,,,,,,,,,,,,,,,,
1725618268.214678,1725618268.214586,59.0,0.0,4221.025879,4201.282227,4256.922852,4260.641113,4200.897461,4202.436035,4190.384766,4188.205078,4199.102539,4185.641113,4489.102539,4491.538574,4317.05127,4424.487305,0.0,2.0,35.0,,,,0.0,4.0,4.0,4.0,4.0,4.0,4.0,4.0,4.0,4.0,4.0,4.0,4.0,4.0,4.0,100.0,,,,,,,,,,,,,,,,,,,,,,,,,,,,,,,,,,,,,,,,,,,,,,,,,,,,,,,,,,,,,,,,,,,,,,,,,,,,,,,,,,,,,,,,,,,,,,,,,,,,,,,,,,,,,,,,,,,,,,,,,,,,,,,,,,,
1725618268.218583,1725618268.21849,60.0,0.0,4224.743652,4201.153809,4259.615234,4257.179688,4201.410156,4202.94873,4188.077148,4184.230957,4200.897461,4187.05127,4492.563965,4491.025879,4319.871582,4428.589844,0.0,2.0,35.0,,,,0.0,4.0,4.0,4.0,4.0,4.0,4.0,4.0,4.0,4.0,4.0,4.0,4.0,4.0,4.0,100.0,,,,,,,,,,,,,,,,,,,,,,,,,,,,,,,,,,,,,,,,,,,,,,,,,,,,,,,,,,,,,,,,,,,,,,,,,,,,,,,,,,,,,,,,,,,,,,,,,,,,,,,,,,,,,,,,,,,,,,,,,,,,,,,,,,,
1725618268.222487,1725618268.222494,61.0,0.0,4226.666504,4201.666504,4260.0,4253.717773,4199.487305,4203.589844,4185.512695,4181.922852,4203.205078,4185.384766,4493.846191,4487.820313,4320.384766,4429.102539,0.0,2.0,35.0,,,,0.0,4.0,4.0,4.0,4.0,4.0,4.0,4.0,4.0,4.0,4.0,4.0,4.0,4.0,4.0,100.0,,,,,,,,,,,,,,,,,,,,,,,,,,,,,,,,,,,,,,,,,,,,,,,,,,,,,,,,,,,,,,,,,,,,,,,,,,,,,,,,,,,,,,,,,,,,,,,,,,,,,,,,,,,,,,,,,,,,,,,,,,,,,,,,,,,
1725618268.226391,1725618268.226398,62.0,0.0,4226.410156,4202.436035,4258.077148,4251.153809,4195.384766,4204.230957,4184.743652,4182.179688,4202.692383,4181.153809,4490.384766,4483.205078,4317.307617,4425.641113,0.0,2.0,35.0,,,,0.0,4.0,4.0,4.0,4.0,4.0,4.0,4.0,4.0,4.0,4.0,4.0,4.0,4.0,4.0,100.0,,,,,,,,,,,,,,,,,,,,,,,,,,,,,,,,,,,,,,,,,,,,,,,,,,,,,,,,,,,,,,,,,,,,,,,,,,,,,,,,,,,,,,,,,,,,,,,,,,,,,,,,,,,,,,,,,,,,,,,,,,,,,,,,,,,
1725618268.230295,1725618268.230302,63.0,0.0,4224.358887,4201.794922,4254.487305,4248.846191,4190.512695,4204.487305,4185.897461,4183.846191,4198.461426,4175.641113,4482.94873,4479.358887,4310.384766,4419.358887,0.0,2.0,35.0,,,,0.0,4.0,4.0,4.0,4.0,4.0,4.0,4.0,4.0,4.0,4.0,4.0,4.0,4.0,4.0,100.0,,,,,,,,,,,,,,,,,,,,,,,,,,,,,,,,,,,,,,,,,,,,,,,,,,,,,,,,,,,,,,,,,,,,,,,,,,,,,,,,,,,,,,,,,,,,,,,,,,,,,,,,,,,,,,,,,,,,,,,,,,,,,,,,,,,
1725618268.234199,1725618268.234206,64.0,0.0,4221.025879,4197.563965,4249.743652,4245.641113,4186.538574,4204.102539,4186.410156,4184.615234,4191.922852,4169.871582,4474.230957,4476.410156,4300.256348,4411.794922,0.0,2.0,35.0,,,,0.0,4.0,4.0,4.0,4.0,4.0,4.0,4.0,4.0,4.0,4.0,4.0,4.0,4.0,4.0,100.0,,,,,,,,,,,,,,,,,,,,,,,,,,,,,,,,,,,,,,,,,,,,,,,,,,,,,,,,,,,,,,,,,,,,,,,,,,,,,,,,,,,,,,,,,,,,,,,,,,,,,,,,,,,,,,,,,,,,,,,,,,,,,,,,,,,
1725618268.238103,1725618268.23821,65.0,0.0,4216.282227,4189.358887,4244.102539,4240.897461,4184.102539,4202.692383,4183.846191,4182.436035,4185.512695,4163.717773,4466.410156,4471.538574,4288.974121,4403.974121,0.0,2.0,35.0,,,,0.0,4.0,4.0,4.0,4.0,4.0,4.0,4.0,4.0,4.0,4.0,4.0,4.0,4.0,4.0,100.0,,,,,,,,,,,,,,,,,,,,,,,,,,,,,,,,,,,,,,,,,,,,,,,,,,,,,,,,,,,,,,,,,,,,,,,,,,,,,,,,,,,,,,,,,,,,,,,,,,,,,,,,,,,,,,,,,,,,,,,,,,,,,,,,,,,
1725618268.242007,1725618268.242114,66.0,0.0,4209.743652,4178.846191,4238.333496,4234.871582,4182.436035,4201.153809,4177.692383,4177.94873,4180.897461,4157.307617,4459.615234,4463.717773,4279.358887,4396.922852,0.0,2.0,35.0,,,,0.0,4.0,4.0,4.0,4.0,4.0,4.0,4.0,4.0,4.0,4.0,4.0,4.0,4.0,4.0,100.0,1.0,100.0,4.0,4.0,4.0,4.0,4.0,4.0,4.0,4.0,4.0,4.0,4.0,4.0,4.0,4.0,1.0,0.0,0.0,,,,,,,,,,,,,,,,,,,,,,,,,,,,,,,,,,,,,0.0,0.0,64.0,0.073808,1.0,0.0,5.043919,2.496015,2.448817,0.360445,0.093583,2.585746,1.659667,1.591309,0.394866,0.12592,3.785385,1.858562,1.070411,0.326895,0.079317,2.556817,1.89332,1.183874,0.288048,0.087427,1.168082,0.442033,0.758434,0.201492,0.069638,0.14363,0.127199,0.118259,0.077586,0.074808,0.470946,0.279834,0.350834,0.122054,0.023869,2.078537,1.411698,1.304851,0.818395,0.50796,2.888808,0.989632,1.101042,0.476318,0.144206,3.912878,1.195776,1.674829,0.285814,0.115895,4.243527,2.093596,1.758611,0.797648,0.281925,6.522465,2.686214,1.76516,0.844608,0.233083,4.957535,3.032482,2.548592,0.531365,0.146782,5.074179,2.052074,1.899766,0.578281,0.142502
1725618268.245911,1725618268.246018,67.0,0.0,4202.692383,4169.487305,4233.846191,4229.102539,4180.0,4200.769043,4171.153809,4174.102539,4179.230957,4151.922852,4453.974121,4455.384766,4273.589844,4392.179688,0.0,2.0,35.0,,,,0.0,4.0,4.0,4.0,4.0,4.0,4.0,4.0,4.0,4.0,4.0,4.0,4.0,4.0,4.0,100.0,,,,,,,,,,,,,,,,,,,,,,,,,,,,,,,,,,,,,,,,,,,,,,,,,,,,,,,,,,,,,,,,,,,,,,,,,,,,,,,,,,,,,,,,,,,,,,,,,,,,,,,,,,,,,,,,,,,,,,,,,,,,,,,,,,,
1725618268.249815,1725618268.250022,68.0,0.0,4197.820313,4164.487305,4232.563965,4225.512695,4176.794922,4203.205078,4168.205078,4174.743652,4181.410156,4150.128418,4451.666504,4452.05127,4273.589844,4391.153809,0.0,2.0,35.0,,,,0.0,4.0,4.0,4.0,4.0,4.0,4.0,4.0,4.0,4.0,4.0,4.0,4.0,4.0,4.0,100.0,,,,,,,,,,,,,,,,,,,,,,,,,,,,,,,,,,,,,,,,,,,,,,,,,,,,,,,,,,,,,,,,,,,,,,,,,,,,,,,,,,,,,,,,,,,,,,,,,,,,,,,,,,,,,,,,,,,,,,,,,,,,,,,,,,,
1725618268.253719,1725618268.253927,69.0,0.0,4198.974121,4165.769043,4235.512695,4226.153809,4174.615234,4208.461426,4170.769043,4181.922852,4187.563965,4154.487305,4455.897461,4458.589844,4280.256348,4395.384766,0.0,2.0,35.0,,,,0.0,4.0,4.0,4.0,4.0,4.0,4.0,4.0,4.0,4.0,4.0,4.0,4.0,4.0,4.0,100.0,,,,,,,,,,,,,,,,,,,,,,,,,,,,,,,,,,,,,,,,,,,,,,,,,,,,,,,,,,,,,,,,,,,,,,,,,,,,,,,,,,,,,,,,,,,,,,,,,,,,,,,,,,,,,,,,,,,,,,,,,,,,,,,,,,,
1725618268.257624,1725618268.257831,70.0,0.0,4207.05127,4172.563965,4242.820313,4231.538574,4176.025879,4214.615234,4177.179688,4194.102539,4196.282227,4165.384766,4467.94873,4474.358887,4293.461426,4405.256348,0.0,2.0,35.0,,,,0.0,4.0,4.0,4.0,4.0,4.0,4.0,4.0,4.0,4.0,4.0,4.0,4.0,4.0,4.0,100.0,,,,,,,,,,,,,,,,,,,,,,,,,,,,,,,,,,,,,,,,,,,,,,,,,,,,,,,,,,,,,,,,,,,,,,,,,,,,,,,,,,,,,,,,,,,,,,,,,,,,,,,,,,,,,,,,,,,,,,,,,,,,,,,,,,,
1725618268.261528,1725618268.261735,71.0,0.0,4219.358887,4182.436035,4252.820313,4240.641113,4181.922852,4218.974121,4183.846191,4206.410156,4204.615234,4179.743652,4485.128418,4493.974121,4311.025879,4418.589844,0.0,2.0,35.0,,,,0.0,4.0,4.0,4.0,4.0,4.0,4.0,4.0,4.0,4.0,4.0,4.0,4.0,4.0,4.0,100.0,,,,,,,,,,,,,,,,,,,,,,,,,,,,,,,,,,,,,,,,,,,,,,,,,,,,,,,,,,,,,,,,,,,,,,,,,,,,,,,,,,,,,,,,,,,,,,,,,,,,,,,,,,,,,,,,,,,,,,,,,,,,,,,,,,,
1725618268.265432,1725618268.265639,72.0,0.0,4230.769043,4192.436035,4262.94873,4250.512695,4191.025879,4219.743652,4187.692383,4215.0,4208.974121,4192.179688,4501.282227,4510.512695,4328.717773,4431.538574,0.0,2.0,35.0,,,,0.0,4.0,4.0,4.0,4.0,4.0,4.0,4.0,4.0,4.0,4.0,4.0,4.0,4.0,4.0,100.0,,,,,,,,,,,,,,,,,,,,,,,,,,,,,,,,,,,,,,,,,,,,,,,,,,,,,,,,,,,,,,,,,,,,,,,,,,,,,,,,,,,,,,,,,,,,,,,,,,,,,,,,,,,,,,,,,,,,,,,,,,,,,,,,,,,
1725618268.269336,1725618268.269443,73.0,0.0,4237.307617,4200.0,4270.256348,4258.717773,4199.358887,4217.692383,4188.717773,4218.846191,4207.94873,4199.230957,4511.153809,4520.0,4341.794922,4440.641113,0.0,2.0,35.0,,,,0.0,4.0,4.0,4.0,4.0,4.0,4.0,4.0,4.0,4.0,4.0,4.0,4.0,4.0,4.0,100.0,,,,,,,,,,,,,,,,,,,,,,,,,,,,,,,,,,,,,,,,,,,,,,,,,,,,,,,,,,,,,,,,,,,,,,,,,,,,,,,,,,,,,,,,,,,,,,,,,,,,,,,,,,,,,,,,,,,,,,,,,,,,,,,,,,,
1725618268.27324,1725618268.273347,74.0,0.0,4238.461426,4203.846191,4273.974121,4263.333496,4203.717773,4215.128418,4189.487305,4219.487305,4202.820313,4200.512695,4513.717773,4523.333496,4347.563965,4444.743652,0.0,2.0,35.0,,,,0.0,4.0,4.0,4.0,4.0,4.0,4.0,4.0,4.0,4.0,4.0,4.0,4.0,4.0,4.0,100.0,,,,,,,,,,,,,,,,,,,,,,,,,,,,,,,,,,,,,,,,,,,,,,,,,,,,,,,,0.0,0.0,64.0,0.073808,1.0,0.0,,,,,,,,,,,,,,,,,,,,,,,,,,,,,,,,,,,,,,,,,,,,,,,,,,,,,,,,,,,,,,,,,,,,,,
1725618268.277144,1725618268.277251,75.0,0.0,4237.05127,4204.230957,4274.743652,4265.0,4203.461426,4214.487305,4192.05127,4218.717773,4196.666504,4198.846191,4511.794922,4523.589844,4347.436035,4445.384766,0.0,2.0,35.0,,,,0.0,4.0,4.0,4.0,4.0,4.0,4.0,4.0,4.0,4.0,4.0,4.0,4.0,4.0,4.0,100.0,,,,,,,,,,,,,,,,,,,,,,,,,,,,,,,,,,,,,,,,,,,,,,,,,,,,,,,,,,,,,,,,,,,,,,,,,,,,,,,,,,,,,,,,,,,,,,,,,,,,,,,,,,,,,,,,,,,,,,,,,,,,,,,,,,,
1725618268.281048,1725618268.281155,76.0,0.0,4236.666504,4202.563965,4274.102539,4265.0,4201.153809,4215.384766,4196.538574,4217.05127,4191.922852,4197.563965,4509.871582,4523.333496,4345.0,4444.871582,0.0,2.0,35.0,,,,0.0,4.0,4.0,4.0,4.0,4.0,4.0,4.0,4.0,4.0,4.0,4.0,4.0,4.0,4.0,100.0,,,,,,,,,,,,,,,,,,,,,,,,,,,,,,,,,,,,,,,,,,,,,,,,,,,,,,,,,,,,,,,,,,,,,,,,,,,,,,,,,,,,,,,,,,,,,,,,,,,,,,,,,,,,,,,,,,,,,,,,,,,,,,,,,,,
