Timestamp,OriginalTimestamp,EEG.Counter,EEG.Interpolated,EEG.AF3,EEG.F7,EEG.F3,EEG.FC5,EEG.T7,EEG.P7,EEG.O1,EEG.O2,EEG.P8,EEG.T8,EEG.FC6,EEG.F4,EEG.F8,EEG.AF4,EEG.RawCq,EEG.Battery,EEG.BatteryPercent,MarkerIndex,MarkerType,MarkerValueInt,EEG.MarkerHardware,CQ.AF3,CQ.F7,CQ.F3,CQ.FC5,CQ.T7,CQ.P7,CQ.O1,CQ.O2,CQ.P8,CQ.T8,CQ.FC6,CQ.F4,CQ.F8,CQ.AF4,CQ.Overall,EQ.SampleRateQuality,EQ.OVERALL,EQ.AF3,EQ.F7,EQ.F3,EQ.FC5,EQ.T7,EQ.P7,EQ.O1,EQ.O2,EQ.P8,EQ.T8,EQ.FC6,EQ.F4,EQ.F8,EQ.AF4,MC.Action,MC.ActionPower,MC.IsActive,PM.Attention.IsActive,PM.Attention.Scaled,PM.Attention.Raw,PM.Attention.Min,PM.Attention.Max,PM.Engagement.IsActive,PM.Engagement.Scaled,PM.Engagement.Raw,PM.Engagement.Min,PM.Engagement.Max,PM.Excitement.IsActive,PM.Excitement.Scaled,PM.Excitement.Raw,PM.Excitement.Min,PM.Excitement.Max,PM.LongTermExcitement,PM.Stress.IsActive,PM.Stress.Scaled,PM.Stress.Raw,PM.Stress.Min,PM.Stress.Max,PM.Relaxation.IsActive,PM.Relaxation.Scaled,PM.Relaxation.Raw,PM.Relaxation.Min,PM.Relaxation.Max,PM.Interest.IsActive,PM.Interest.Scaled,PM.Interest.Raw,PM.Interest.Min,PM.Interest.Max,PM.Focus.IsActive,PM.Focus.Scaled,PM.Focus.Raw,PM.Focus.Min,PM.Focus.Max,FE.BlinkWink,FE.HorizontalEyesDirection,FE.UpperFaceAction,FE.UpperFaceActionPower,FE.LowerFaceAction,FE.LowerFaceActionPower,POW.AF3.Theta,POW.AF3.Alpha,POW.AF3.BetaL,POW.AF3.BetaH,POW.AF3.Gamma,POW.F7.Theta,POW.F7.Alpha,POW.F7.BetaL,POW.F7.BetaH,POW.F7.Gamma,POW.F3.Theta,POW.F3.Alpha,POW.F3.BetaL,POW.F3.BetaH,POW.F3.Gamma,POW.FC5.Theta,POW.FC5.Alpha,POW.FC5.BetaL,POW.FC5.BetaH,POW.FC5.Gamma,POW.T7.Theta,POW.T7.Alpha,POW.T7.BetaL,POW.T7.BetaH,POW.T7.Gamma,POW.P7.Theta,POW.P7.Alpha,POW.P7.BetaL,POW.P7.BetaH,POW.P7.Gamma,POW.O1.Theta,POW.O1.Alpha,POW.O1.BetaL,POW.O1.BetaH,POW.O1.Gamma,POW.O2.Theta,POW.O2.Alpha,POW.O2.BetaL,POW.O2.BetaH,POW.O2.Gamma,POW.P8.Theta,POW.P8.Alpha,POW.P8.BetaL,POW.P8.BetaH,POW.P8.Gamma,POW.T8.Theta,POW.T8.Alpha,POW.T8.BetaL,POW.T8.BetaH,POW.T8.Gamma,POW.FC6.Theta,POW.FC6.Alpha,POW.FC6.BetaL,POW.FC6.BetaH,POW.FC6.Gamma,POW.F4.Theta,POW.F4.Alpha,POW.F4.BetaL,POW.F4.BetaH,POW.F4.Gamma,POW.F8.Theta,POW.F8.Alpha,POW.F8.BetaL,POW.F8.BetaH,POW.F8.Gamma,POW.AF4.Theta,POW.AF4.Alpha,POW.AF4.BetaL,POW.AF4.BetaH,POW.AF4.Gamma
1725716051.658261,1725716051.66009,20.0,0.0,4278.974121,4256.410156,4338.333496,4204.871582,4233.333496,4246.282227,4272.179688,4228.974121,4228.077148,4208.846191,4413.846191,4471.922852,4314.487305,4370.0,3408.0,1.0,15.0,19.0,1.0,1.0,0.0,4.0,4.0,4.0,4.0,4.0,4.0,4.0,4.0,4.0,4.0,4.0,4.0,4.0,4.0,100.0,,,,,,,,,,,,,,,,,1.0,0.0,0.0,,,,,,,,,,,,,,,,,,,,,,,,,,,,,,,,,,,,,11.0,0.0,1.0,0.0,1.0,0.0,22.193613,6.60024,2.113466,0.79778,0.234388,1.301862,0.998298,0.493109,0.120762,0.083769,0.843596,1.200631,0.759832,0.296029,0.05592,1.972298,1.088975,0.587905,0.397227,0.046095,0.446787,0.319073,0.253499,0.071544,0.038167,0.331274,0.379236,0.046901,0.064984,0.025116,3.191866,0.295749,0.237652,0.111592,0.079646,0.909517,1.165302,0.911815,0.318903,0.118908,1.452199,0.988939,0.72416,0.420892,0.069515,2.093941,0.933994,0.903474,0.379671,0.10141,3.732793,1.675529,1.167391,0.523492,0.125885,5.053675,2.375909,0.940048,0.685214,0.18464,3.181499,1.536911,1.002725,0.637108,0.174896,3.355699,2.004018,0.869471,0.464739,0.107822
1725716051.662165,1725716051.663994,21.0,0.0,4266.153809,4246.794922,4329.743652,4199.487305,4230.512695,4246.153809,4264.358887,4230.512695,4227.692383,4203.205078,4403.589844,4465.512695,4305.0,4359.358887,3820.0,1.0,15.0,,,,0.0,4.0,4.0,4.0,4.0,4.0,4.0,4.0,4.0,4.0,4.0,4.0,4.0,4.0,4.0,100.0,,,,,,,,,,,,,,,,,,,,,,,,,,,,,,,,,,,,,,,,,,,,,,,,,,,,,,,,,,,,,,,,,,,,,,,,,,,,,,,,,,,,,,,,,,,,,,,,,,,,,,,,,,,,,,,,,,,,,,,,,,,,,,,,,,,
1725716051.666069,1725716051.667798,22.0,0.0,4256.794922,4241.025879,4323.589844,4195.769043,4230.256348,4246.666504,4259.615234,4233.717773,4228.974121,4199.102539,4395.897461,4461.538574,4298.077148,4352.820313,2889.0,1.0,15.0,,,,0.0,4.0,4.0,4.0,4.0,4.0,4.0,4.0,4.0,4.0,4.0,4.0,4.0,4.0,4.0,100.0,,,,,,,,,,,,,,,,,,,,,,,,,,,,,,,,,,,,,,,,,,,,,,,,,,,,,,,,,,,,,,,,,,,,,,,,,,,,,,,,,,,,,,,,,,,,,,,,,,,,,,,,,,,,,,,,,,,,,,,,,,,,,,,,,,,
1725716051.669973,1725716051.671702,23.0,0.0,4252.179688,4240.256348,4321.666504,4195.0,4230.897461,4246.922852,4260.128418,4238.205078,4232.94873,4200.128418,4395.897461,4462.436035,4297.563965,4353.333496,3114.0,1.0,15.0,,,,0.0,4.0,4.0,4.0,4.0,4.0,4.0,4.0,4.0,4.0,4.0,4.0,4.0,4.0,4.0,100.0,,,,,,,,,,,,,,,,,,,,,,,,,,,,,,,,,,,,,,,,,,,,,,,,,,,,,,,,,,,,,,,,,,,,,,,,,,,,,,,,,,,,,,,,,,,,,,,,,,,,,,,,,,,,,,,,,,,,,,,,,,,,,,,,,,,
1725716051.673877,1725716051.675607,24.0,0.0,4252.436035,4244.102539,4325.256348,4197.436035,4231.282227,4246.538574,4265.641113,4244.230957,4240.128418,4207.563965,4405.384766,4470.0,4305.384766,4361.410156,3408.0,1.0,15.0,,,,0.0,4.0,4.0,4.0,4.0,4.0,4.0,4.0,4.0,4.0,4.0,4.0,4.0,4.0,4.0,100.0,,,,,,,,,,,,,,,,,,,,,,,,,,,,,,,,,,,,,,,,,,,,,,,,,,,,,,,,,,,,,,,,,,,,,,,,,,,,,,,,,,,,,,,,,,,,,,,,,,,,,,,,,,,,,,,,,,,,,,,,,,,,,,,,,,,
1725716051.677781,1725716051.679511,25.0,0.0,4256.794922,4250.897461,4333.717773,4202.436035,4231.666504,4246.282227,4273.205078,4251.922852,4250.0,4220.0,4421.025879,4483.333496,4318.974121,4374.230957,3820.0,1.0,15.0,,,,0.0,4.0,4.0,4.0,4.0,4.0,4.0,4.0,4.0,4.0,4.0,4.0,4.0,4.0,4.0,100.0,,,,,,,,,,,,,,,,,,,,,,,,,,,,,,,,,,,,,,,,,,,,,,,,,,,,,,,,,,,,,,,,,,,,,,,,,,,,,,,,,,,,,,,,,,,,,,,,,,,,,,,,,,,,,,,,,,,,,,,,,,,,,,,,,,,
1725716051.681686,1725716051.683315,26.0,0.0,4264.230957,4258.974121,4344.871582,4208.974121,4233.461426,4247.179688,4279.743652,4260.256348,4260.0,4233.589844,4437.563965,4497.94873,4333.589844,4387.563965,2889.0,1.0,15.0,,,,0.0,4.0,4.0,4.0,4.0,4.0,4.0,4.0,4.0,4.0,4.0,4.0,4.0,4.0,4.0,100.0,,,,,,,,,,,,,,,,,,,,,,,,,,,,,,,,,,,,,,,,,,,,,,,,,,,,,,,,,,,,,,,,,,,,,,,,,,,,,,,,,,,,,,,,,,,,,,,,,,,,,,,,,,,,,,,,,,,,,,,,,,,,,,,,,,,
1725716051.68559,1725716051.687219,27.0,0.0,4272.307617,4267.307617,4355.512695,4215.769043,4237.820313,4250.256348,4283.974121,4266.666504,4267.179688,4244.102539,4449.871582,4508.589844,4345.0,4398.461426,3114.0,1.0,15.0,,,,0.0,4.0,4.0,4.0,4.0,4.0,4.0,4.0,4.0,4.0,4.0,4.0,4.0,4.0,4.0,100.0,,,,,,,,,,,,,,,,,,,,,,,,,,,,,,,,,,,,,,,,,,,,,,,,,,,,,,,,,,,,,,,,,,,,,,,,,,,,,,,,,,,,,,,,,,,,,,,,,,,,,,,,,,,,,,,,,,,,,,,,,,,,,,,,,,,
1725716051.689494,1725716051.691123,28.0,0.0,4278.077148,4275.0,4363.461426,4222.436035,4243.846191,4254.871582,4286.666504,4268.846191,4269.230957,4248.974121,4456.153809,4512.820313,4352.179688,4405.256348,3408.0,1.0,15.0,,,,0.0,4.0,4.0,4.0,4.0,4.0,4.0,4.0,4.0,4.0,4.0,4.0,4.0,4.0,4.0,100.0,,,,,,,,,,,,,,,,,,,,,,,,,,,,,,,,,,,,,,,,,,,,,,,,,,,,,,,,11.0,0.0,1.0,0.0,1.0,0.0,,,,,,,,,,,,,,,,,,,,,,,,,,,,,,,,,,,,,,,,,,,,,,,,,,,,,,,,,,,,,,,,,,,,,,
1725716051.693398,1725716051.695127,29.0,0.0,4279.358887,4280.384766,4367.307617,4227.94873,4249.487305,4259.487305,4289.487305,4265.897461,4266.538574,4248.589844,4457.307617,4511.666504,4355.641113,4408.077148,3820.0,1.0,15.0,,,,0.0,4.0,4.0,4.0,4.0,4.0,4.0,4.0,4.0,4.0,4.0,4.0,4.0,4.0,4.0,100.0,,,,,,,,,,,,,,,,,,,,,,,,,,,,,,,,,,,,,,,,,,,,,,,,,,,,,,,,,,,,,,,,,,,,,,,,,,,,,,,,,,,,,,,,,,,,,,,,,,,,,,,,,,,,,,,,,,,,,,,,,,,,,,,,,,,
1725716051.697302,1725716051.699031,30.0,0.0,4276.025879,4282.436035,4367.820313,4232.179688,4252.820313,4262.563965,4293.461426,4259.230957,4261.025879,4245.128418,4455.384766,4508.974121,4356.410156,4407.436035,2889.0,1.0,15.0,,,,0.0,4.0,4.0,4.0,4.0,4.0,4.0,4.0,4.0,4.0,4.0,4.0,4.0,4.0,4.0,100.0,,,,,,,,,,,,,,,,,,,,,,,,,,,,,,,,,,,,,,,,,,,,,,,,,,,,,,,,,,,,,,,,,,,,,,,,,,,,,,,,,,,,,,,,,,,,,,,,,,,,,,,,,,,,,,,,,,,,,,,,,,,,,,,,,,,
1725716051.701206,1725716051.702935,31.0,0.0,4270.256348,4281.538574,4366.538574,4234.487305,4253.333496,4263.333496,4298.333496,4252.179688,4255.512695,4240.641113,4452.563965,4508.205078,4355.0,4404.743652,3114.0,1.0,15.0,,,,0.0,4.0,4.0,4.0,4.0,4.0,4.0,4.0,4.0,4.0,4.0,4.0,4.0,4.0,4.0,100.0,,,,,,,,,,,,,,,,,,,,,,,,,,,,,,,,,,,,,,,,,,,,,,,,,,,,,,,,,,,,,,,,,,,,,,,,,,,,,,,,,,,,,,,,,,,,,,,,,,,,,,,,,,,,,,,,,,,,,,,,,,,,,,,,,,,
1725716051.70511,1725716051.706939,32.0,0.0,4265.128418,4280.128418,4365.512695,4235.128418,4252.179688,4262.436035,4302.179688,4247.307617,4251.538574,4236.666504,4449.743652,4509.743652,4352.692383,4402.179688,0.0,1.0,15.0,,,,0.0,4.0,4.0,4.0,4.0,4.0,4.0,4.0,4.0,4.0,4.0,4.0,4.0,4.0,4.0,100.0,,,,,,,,,,,,,,,,,,,,,,,,,,,,,,,,,,,,,,,,,,,,,,,,,,,,,,,,,,,,,,,,,,,,,,,,,,,,,,,,,,,,,,,,,,,,,,,,,,,,,,,,,,,,,,,,,,,,,,,,,,,,,,,,,,,
1725716051.709014,1725716051.710843,33.0,0.0,4262.563965,4280.384766,4365.641113,4234.487305,4250.897461,4261.025879,4303.846191,4245.897461,4249.358887,4233.974121,4447.563965,4511.538574,4350.897461,4401.538574,0.0,1.0,15.0,,,,0.0,4.0,4.0,4.0,4.0,4.0,4.0,4.0,4.0,4.0,4.0,4.0,4.0,4.0,4.0,100.0,,,,,,,,,,,,,,,,,,,,,,,,,,,,,,,,,,,,,,,,,,,,,,,,,,,,,,,,,,,,,,,,,,,,,,,,,,,,,,,,,,,,,,,,,,,,,,,,,,,,,,,,,,,,,,,,,,,,,,,,,,,,,,,,,,,
1725716051.712918,1725716051.714747,34.0,0.0,4262.820313,4282.692383,4366.538574,4233.846191,4250.641113,4260.384766,4303.205078,4247.05127,4248.974121,4233.589844,4447.05127,4510.897461,4351.153809,4403.717773,0.0,1.0,15.0,,,,0.0,4.0,4.0,4.0,4.0,4.0,4.0,4.0,4.0,4.0,4.0,4.0,4.0,4.0,4.0,100.0,,,,,,,,,,,,,,,,,,,,,,,,,,,,,,,,,,,,,,,,,,,,,,,,,,,,,,,,,,,,,,,,,,,,,,,,,,,,,,,,,,,,,,,,,,,,,,,,,,,,,,,,,,,,,,,,,,,,,,,,,,,,,,,,,,,
1725716051.716822,1725716051.718652,35.0,0.0,4264.871582,4285.769043,4367.820313,4233.717773,4251.538574,4261.153809,4301.666504,4249.102539,4250.128418,4235.897461,4449.102539,4508.077148,4353.461426,4407.563965,0.0,1.0,15.0,,,,0.0,4.0,4.0,4.0,4.0,4.0,4.0,4.0,4.0,4.0,4.0,4.0,4.0,4.0,4.0,100.0,,,,,,,,,,,,,,,,,,,,,,,,,,,,,,,,,,,,,,,,,,,,,,,,,,,,,,,,,,,,,,,,,,,,,,,,,,,,,,,,,,,,,,,,,,,,,,,,,,,,,,,,,,,,,,,,,,,,,,,,,,,,,,,,,,,
1725716051.720726,1725716051.722556,36.0,0.0,4266.666504,4287.94873,4369.358887,4234.358887,4253.589844,4262.692383,4301.410156,4250.384766,4251.794922,4239.615234,4453.333496,4506.153809,4355.897461,4410.641113,0.0,1.0,15.0,,,,0.0,4.0,4.0,4.0,4.0,4.0,4.0,4.0,4.0,4.0,4.0,4.0,4.0,4.0,4.0,100.0,,,,,,,,,,,,,,,,,,,,,,,,,,,,,,,,,,,,,,,,,,,,,,,,,,,,,,,,11.0,0.0,1.0,0.0,1.0,0.0,,,,,,,,,,,,,,,,,,,,,,,,,,,,,,,,,,,,,,,,,,,,,,,,,,,,,,,,,,,,,,,,,,,,,,
1725716051.72463,1725716051.72636,37.0,0.0,4266.410156,4288.461426,4371.282227,4235.512695,4256.410156,4263.846191,4303.205078,4250.512695,4252.820313,4242.94873,4457.820313,4507.179688,4355.897461,4411.153809,0.0,1.0,15.0,,,,0.0,4.0,4.0,4.0,4.0,4.0,4.0,4.0,4.0,4.0,4.0,4.0,4.0,4.0,4.0,100.0,,,,,,,,,,,,,,,,,,,,,,,,,,,,,,,,,,,,,,,,,,,,,,,,,,,,,,,,,,,,,,,,,,,,,,,,,,,,,,,,,,,,,,,,,,,,,,,,,,,,,,,,,,,,,,,,,,,,,,,,,,,,,,,,,,,
1725716051.728535,1725716051.730264,38.0,0.0,4263.461426,4287.179688,4373.077148,4236.410156,4259.230957,4264.358887,4306.282227,4249.615234,4252.563965,4244.615234,4460.256348,4510.769043,4352.94873,4409.487305,0.0,1.0,15.0,,,,0.0,4.0,4.0,4.0,4.0,4.0,4.0,4.0,4.0,4.0,4.0,4.0,4.0,4.0,4.0,100.0,,,,,,,,,,,,,,,,,,,,,,,,,,,,,,,,,,,,,,,,,,,,,,,,,,,,,,,,,,,,,,,,,,,,,,,,,,,,,,,,,,,,,,,,,,,,,,,,,,,,,,,,,,,,,,,,,,,,,,,,,,,,,,,,,,,
1725716051.732439,1725716051.734168,39.0,0.0,4258.205078,4284.743652,4373.974121,4236.410156,4260.641113,4263.974121,4308.717773,4248.717773,4251.410156,4245.0,4460.384766,4514.743652,4349.487305,4407.307617,0.0,1.0,15.0,,,,0.0,4.0,4.0,4.0,4.0,4.0,4.0,4.0,4.0,4.0,4.0,4.0,4.0,4.0,4.0,100.0,,,,,,,,,,,,,,,,,,,,,,,,,,,,,,,,,,,,,,,,,,,,,,,,,,,,,,,,,,,,,,,,,,,,,,,,,,,,,,,,,,,,,,,,,,,,,,,,,,,,,,,,,,,,,,,,,,,,,,,,,,,,,,,,,,,
1725716051.736343,1725716051.738172,40.0,0.0,4252.307617,4281.922852,4373.717773,4235.641113,4259.743652,4263.077148,4309.358887,4248.461426,4251.025879,4245.0,4459.358887,4517.05127,4349.102539,4406.794922,0.0,1.0,15.0,,,,0.0,4.0,4.0,4.0,4.0,4.0,4.0,4.0,4.0,4.0,4.0,4.0,4.0,4.0,4.0,100.0,,,,,,,,,,,,,,,,,,,,,,,,,,,,,,,,,,,,,,,,,,,,,,,,,,,,,,,,,,,,,,,,,,,,,,,,,,,,,,,,,,,,,,,,,,,,,,,,,,,,,,,,,,,,,,,,,,,,,,,,,,,,,,,,,,,
1725716051.740247,1725716051.742076,41.0,0.0,4248.077148,4279.743652,4372.94873,4234.871582,4256.538574,4261.538574,4308.461426,4248.717773,4252.563965,4244.743652,4458.974121,4517.820313,4353.846191,4408.974121,0.0,1.0,15.0,,,,0.0,4.0,4.0,4.0,4.0,4.0,4.0,4.0,4.0,4.0,4.0,4.0,4.0,4.0,4.0,100.0,,,,,,,,,,,,,,,,,,,,,,,,,,,,,,,,,,,,,,,,,,,,,,,,,,,,,,,,,,,,,,,,,,,,,,,,,,,,,,,,,,,,,,,,,,,,,,,,,,,,,,,,,,,,,,,,,,,,,,,,,,,,,,,,,,,
1725716051.744151,1725716051.74598,42.0,0.0,4247.05127,4279.230957,4372.563965,4235.0,4252.563965,4259.358887,4307.563965,4248.974121,4255.384766,4244.615234,4459.615234,4517.820313,4361.794922,4412.94873,0.0,1.0,15.0,,,,0.0,4.0,4.0,4.0,4.0,4.0,4.0,4.0,4.0,4.0,4.0,4.0,4.0,4.0,4.0,100.0,,,,,,,,,,,,,,,,,,,,,,,,,,,,,,,,,,,,,,,,,,,,,,,,,,,,,,,,,,,,,,,,,,,,,,,,,,,,,,,,,,,,,,,,,,,,,,,,,,,,,,,,,,,,,,,,,,,,,,,,,,,,,,,,,,,
1725716051.748055,1725716051.749884,43.0,0.0,4248.846191,4280.128418,4372.94873,4235.897461,4249.743652,4256.282227,4308.205078,4248.717773,4257.94873,4245.0,4460.769043,4517.436035,4368.846191,4416.794922,0.0,1.0,15.0,,,,0.0,4.0,4.0,4.0,4.0,4.0,4.0,4.0,4.0,4.0,4.0,4.0,4.0,4.0,4.0,100.0,,,,,,,,,,,,,,,,,,,,,,,,,,,,,,,,,,,,,,,,,,,,,,,,,,,,,,,,,,,,,,,,,,,,,,,,,,,,,,,,,,,,,,,,,,,,,,,,,,,,,,,,,,,,,,,,,,,,,,,,,,,,,,,,,,,
1725716051.751959,1725716051.753789,44.0,0.0,4251.025879,4281.282227,4373.589844,4236.794922,4249.358887,4253.077148,4309.871582,4248.461426,4258.974121,4246.282227,4461.410156,4516.794922,4371.025879,4418.333496,0.0,1.0,15.0,,,,0.0,4.0,4.0,4.0,4.0,4.0,4.0,4.0,4.0,4.0,4.0,4.0,4.0,4.0,4.0,100.0,,,,,,,,,,,,,,,,,,,,,,,,,,,,,,,,,,,,,,,,,,,,,,,,,,,,,,,,0.0,0.0,1.0,0.0,1.0,0.0,,,,,,,,,,,,,,,,,,,,,,,,,,,,,,,,,,,,,,,,,,,,,,,,,,,,,,,,,,,,,,,,,,,,,,
1725716051.755863,1725716051.757593,45.0,0.0,4250.641113,4281.794922,4373.589844,4236.922852,4250.256348,4250.512695,4311.922852,4248.846191,4258.077148,4248.205078,4461.410156,4515.512695,4367.820313,4417.05127,0.0,1.0,15.0,,,,0.0,4.0,4.0,4.0,4.0,4.0,4.0,4.0,4.0,4.0,4.0,4.0,4.0,4.0,4.0,100.0,,,,,,,,,,,,,,,,,,,,,,,,,,,,,,,,,,,,,,,,,,,,,,,,,,,,,,,,,,,,,,,,,,,,,,,,,,,,,,,,,,,,,,,,,,,,,,,,,,,,,,,,,,,,,,,,,,,,,,,,,,,,,,,,,,,
1725716051.759767,1725716051.761497,46.0,0.0,4246.282227,4281.153809,4372.179688,4236.025879,4250.769043,4249.487305,4313.846191,4250.0,4255.512695,4248.974121,4460.769043,4513.333496,4362.05127,4414.102539,0.0,1.0,15.0,,,,0.0,4.0,4.0,4.0,4.0,4.0,4.0,4.0,4.0,4.0,4.0,4.0,4.0,4.0,4.0,100.0,,,,,,,,,,,,,,,,,,,,,,,,,,,,,,,,,,,,,,,,,,,,,,,,,,,,,,,,,,,,,,,,,,,,,,,,,,,,,,,,,,,,,,,,,,,,,,,,,,,,,,,,,,,,,,,,,,,,,,,,,,,,,,,,,,,
1725716051.763672,1725716051.765401,47.0,0.0,4239.230957,4280.128418,4369.615234,4234.743652,4249.871582,4249.743652,4316.025879,4251.025879,4251.794922,4246.794922,4459.102539,4509.871582,4357.436035,4410.769043,0.0,1.0,15.0,,,,0.0,4.0,4.0,4.0,4.0,4.0,4.0,4.0,4.0,4.0,4.0,4.0,4.0,4.0,4.0,100.0,,,,,,,,,,,,,,,,,,,,,,,,,,,,,,,,,,,,,,,,,,,,,,,,,,,,,,,,,,,,,,,,,,,,,,,,,,,,,,,,,,,,,,,,,,,,,,,,,,,,,,,,,,,,,,,,,,,,,,,,,,,,,,,,,,,
1725716051.767576,1725716051.769305,48.0,0.0,4233.077148,4279.743652,4367.307617,4233.589844,4247.94873,4250.512695,4319.102539,4250.769043,4248.077148,4241.922852,4455.769043,4506.025879,4355.769043,4407.692383,0.0,1.0,15.0,,,,0.0,4.0,4.0,4.0,4.0,4.0,4.0,4.0,4.0,4.0,4.0,4.0,4.0,4.0,4.0,100.0,,,,,,,,,,,,,,,,,,,,,,,,,,,,,,,,,,,,,,,,,,,,,,,,,,,,,,,,,,,,,,,,,,,,,,,,,,,,,,,,,,,,,,,,,,,,,,,,,,,,,,,,,,,,,,,,,,,,,,,,,,,,,,,,,,,
1725716051.77148,1725716051.773109,49.0,0.0,4230.512695,4280.384766,4365.897461,4232.94873,4246.538574,4250.897461,4322.692383,4249.102539,4245.641113,4236.794922,4451.025879,4503.077148,4356.282227,4405.128418,0.0,1.0,15.0,,,,0.0,4.0,4.0,4.0,4.0,4.0,4.0,4.0,4.0,4.0,4.0,4.0,4.0,4.0,4.0,100.0,,,,,,,,,,,,,,,,,,,,,,,,,,,,,,,,,,,,,,,,,,,,,,,,,,,,,,,,,,,,,,,,,,,,,,,,,,,,,,,,,,,,,,,,,,,,,,,,,,,,,,,,,,,,,,,,,,,,,,,,,,,,,,,,,,,
1725716051.775384,1725716051.777013,50.0,0.0,4231.666504,4281.666504,4365.256348,4232.94873,4246.666504,4250.641113,4325.256348,4246.922852,4245.512695,4234.230957,4446.666504,4502.307617,4357.179688,4403.205078,0.0,1.0,15.0,,,,0.0,4.0,4.0,4.0,4.0,4.0,4.0,4.0,4.0,4.0,4.0,4.0,4.0,4.0,4.0,100.0,,,,,,,,,,,,,,,,,,,,,,,,,,,,,,,,,,,,,,,,,,,,,,,,,,,,,,,,,,,,,,,,,,,,,,,,,,,,,,,,,,,,,,,,,,,,,,,,,,,,,,,,,,,,,,,,,,,,,,,,,,,,,,,,,,,
1725716051.779288,1725716051.780917,51.0,0.0,4233.333496,4282.436035,4364.487305,4233.461426,4248.077148,4250.256348,4326.282227,4245.128418,4247.94873,4235.641113,4444.487305,4503.589844,4357.307617,4402.05127,0.0,1.0,15.0,,,,0.0,4.0,4.0,4.0,4.0,4.0,4.0,4.0,4.0,4.0,4.0,4.0,4.0,4.0,4.0,100.0,,,,,,,,,,,,,,,,,,,,,,,,,,,,,,,,,,,,,,,,,,,,,,,,,,,,,,,,,,,,,,,,,,,,,,,,,,,,,,,,,,,,,,,,,,,,,,,,,,,,,,,,,,,,,,,,,,,,,,,,,,,,,,,,,,,
1725716051.783192,1725716051.784822,52.0,0.0,4232.692383,4282.179688,4362.692383,4233.846191,4249.871582,4250.256348,4326.153809,4244.487305,4251.153809,4239.871582,4444.743652,4505.512695,4356.410156,4401.153809,0.0,1.0,15.0,,,,0.0,4.0,4.0,4.0,4.0,4.0,4.0,4.0,4.0,4.0,4.0,4.0,4.0,4.0,4.0,100.0,1.0,50.0,1.0,4.0,4.0,4.0,4.0,4.0,1.0,4.0,4.0,4.0,4.0,4.0,4.0,4.0,1.0,0.0,0.0,,,,,,,,,,,,,,,,,,,,,,,,,,,,,,,,,,,,,0.0,0.0,1.0,0.0,1.0,0.0,17.876871,5.387301,1.834536,0.632684,0.199192,1.534505,1.062208,0.534911,0.122349,0.083968,1.235337,1.295994,0.824338,0.297385,0.056144,2.827202,1.611964,0.654429,0.42069,0.055864,0.522264,0.355471,0.266752,0.075153,0.035812,0.372023,0.426151,0.033061,0.065411,0.029764,2.895986,0.223485,0.222036,0.12043,0.086958,1.055777,1.418088,0.934793,0.316796,0.108344,1.598167,1.079173,0.7578,0.420653,0.073681,2.321703,0.923527,0.936177,0.386795,0.106579,4.363861,1.796044,1.187492,0.51914,0.126366,6.117983,2.664754,0.9777,0.693473,0.197588,3.620646,1.565275,1.002682,0.598126,0.161924,3.98569,2.100309,0.901138,0.443637,0.108545
1725716051.787096,1725716051.788626,53.0,0.0,4229.487305,4280.641113,4360.0,4233.974121,4250.641113,4250.512695,4326.025879,4245.256348,4253.077148,4243.717773,4445.512695,4505.641113,4354.871582,4400.0,0.0,1.0,15.0,,,,0.0,4.0,4.0,4.0,4.0,4.0,4.0,4.0,4.0,4.0,4.0,4.0,4.0,4.0,4.0,100.0,,,,,,,,,,,,,,,,,,,,,,,,,,,,,,,,,,,,,,,,,,,,,,,,,,,,,,,,,,,,,,,,,,,,,,,,,,,,,,,,,,,,,,,,,,,,,,,,,,,,,,,,,,,,,,,,,,,,,,,,,,,,,,,,,,,
1725716051.791,1725716051.79253,54.0,0.0,4226.538574,4278.589844,4357.436035,4234.102539,4250.0,4250.641113,4326.794922,4246.794922,4252.692383,4244.358887,4445.256348,4503.205078,4353.205078,4398.205078,0.0,1.0,15.0,,,,0.0,4.0,4.0,4.0,4.0,4.0,4.0,4.0,4.0,4.0,4.0,4.0,4.0,4.0,4.0,100.0,,,,,,,,,,,,,,,,,,,,,,,,,,,,,,,,,,,,,,,,,,,,,,,,,,,,,,,,,,,,,,,,,,,,,,,,,,,,,,,,,,,,,,,,,,,,,,,,,,,,,,,,,,,,,,,,,,,,,,,,,,,,,,,,,,,
1725716051.794904,1725716051.796434,55.0,0.0,4226.153809,4277.307617,4356.025879,4234.487305,4248.717773,4250.256348,4328.717773,4248.589844,4251.025879,4241.025879,4443.974121,4499.102539,4351.666504,4396.538574,0.0,1.0,15.0,,,,0.0,4.0,4.0,4.0,4.0,4.0,4.0,4.0,4.0,4.0,4.0,4.0,4.0,4.0,4.0,100.0,,,,,,,,,,,,,,,,,,,,,,,,,,,,,,,,,,,,,,,,,,,,,,,,,,,,,,,,,,,,,,,,,,,,,,,,,,,,,,,,,,,,,,,,,,,,,,,,,,,,,,,,,,,,,,,,,,,,,,,,,,,,,,,,,,,
1725716051.798808,1725716051.800438,56.0,0.0,4228.077148,4277.179688,4355.897461,4235.0,4247.820313,4250.256348,4331.153809,4249.871582,4250.128418,4235.641113,4442.94873,4495.128418,4350.897461,4396.025879,0.0,1.0,15.0,,,,0.0,4.0,4.0,4.0,4.0,4.0,4.0,4.0,4.0,4.0,4.0,4.0,4.0,4.0,4.0,100.0,,,,,,,,,,,,,,,,,,,,,,,,,,,,,,,,,,,,,,,,,,,,,,,,,,,,,,,,,,,,,,,,,,,,,,,,,,,,,,,,,,,,,,,,,,,,,,,,,,,,,,,,,,,,,,,,,,,,,,,,,,,,,,,,,,,
1725716051.802713,1725716051.804342,57.0,0.0,4230.256348,4277.436035,4356.410156,4234.871582,4248.333496,4251.666504,4333.717773,4250.641113,4251.025879,4231.410156,4443.461426,4492.179688,4351.025879,4396.538574,0.0,1.0,15.0,,,,0.0,4.0,4.0,4.0,4.0,4.0,4.0,4.0,4.0,4.0,4.0,4.0,4.0,4.0,4.0,100.0,,,,,,,,,,,,,,,,,,,,,,,,,,,,,,,,,,,,,,,,,,,,,,,,,,,,,,,,,,,,,,,,,,,,,,,,,,,,,,,,,,,,,,,,,,,,,,,,,,,,,,,,,,,,,,,,,,,,,,,,,,,,,,,,,,,
1725716051.806617,1725716051.808246,58.0,0.0,4229.871582,4277.436035,4356.922852,4234.102539,4250.769043,4255.384766,4335.897461,4251.153809,4253.077148,4230.256348,4445.128418,4490.641113,4351.282227,4397.436035,0.0,1.0,15.0,,,,0.0,4.0,4.0,4.0,4.0,4.0,4.0,4.0,4.0,4.0,4.0,4.0,4.0,4.0,4.0,100.0,,,,,,,,,,,,,,,,,,,,,,,,,,,,,,,,,,,,,,,,,,,,,,,,,,,,,,,,,,,,,,,,,,,,,,,,,,,,,,,,,,,,,,,,,,,,,,,,,,,,,,,,,,,,,,,,,,,,,,,,,,,,,,,,,,,
1725716051.810521,1725716051.81225,59.0,0.0,4225.897461,4277.692383,4357.05127,4233.846191,4255.0,4260.256348,4338.589844,4251.538574,4254.487305,4231.410156,4446.153809,4490.769043,4350.641113,4397.820313,0.0,1.0,15.0,,,,0.0,4.0,4.0,4.0,4.0,4.0,4.0,4.0,4.0,4.0,4.0,4.0,4.0,4.0,4.0,100.0,,,,,,,,,,,,,,,,,,,,,,,,,,,,,,,,,,,,,,,,,,,,,,,,,,,,,,,,,,,,,,,,,,,,,,,,,,,,,,,,,,,,,,,,,,,,,,,,,,,,,,,,,,,,,,,,,,,,,,,,,,,,,,,,,,,
1725716051.814425,1725716051.816154,60.0,0.0,4220.128418,4278.589844,4357.692383,4235.769043,4260.128418,4264.230957,4342.563965,4251.666504,4254.102539,4232.563965,4445.512695,4492.94873,4348.205078,4397.563965,0.0,1.0,15.0,,,,0.0,4.0,4.0,4.0,4.0,4.0,4.0,4.0,4.0,4.0,4.0,4.0,4.0,4.0,4.0,100.0,,,,,,,,,,,,,,,,,,,,,,,,,,,,,,,,,,,,,,,,,,,,,,,,,,,,,,,,0.0,0.0,1.0,0.0,1.0,0.0,,,,,,,,,,,,,,,,,,,,,,,,,,,,,,,,,,,,,,,,,,,,,,,,,,,,,,,,,,,,,,,,,,,,,,
1725716051.818329,1725716051.820058,61.0,0.0,4215.641113,4279.743652,4359.743652,4239.487305,4264.743652,4265.769043,4347.820313,4251.025879,4252.820313,4232.820313,4443.717773,4496.922852,4344.743652,4397.307617,0.0,1.0,15.0,,,,0.0,4.0,4.0,4.0,4.0,4.0,4.0,4.0,4.0,4.0,4.0,4.0,4.0,4.0,4.0,100.0,,,,,,,,,,,,,,,,,,,,,,,,,,,,,,,,,,,,,,,,,,,,,,,,,,,,,,,,,,,,,,,,,,,,,,,,,,,,,,,,,,,,,,,,,,,,,,,,,,,,,,,,,,,,,,,,,,,,,,,,,,,,,,,,,,,
1725716051.822233,1725716051.823962,62.0,0.0,4215.128418,4280.0,4363.461426,4243.077148,4267.692383,4264.743652,4353.461426,4250.128418,4253.205078,4232.563965,4442.436035,4501.922852,4341.922852,4397.436035,0.0,1.0,15.0,,,,0.0,4.0,4.0,4.0,4.0,4.0,4.0,4.0,4.0,4.0,4.0,4.0,4.0,4.0,4.0,100.0,,,,,,,,,,,,,,,,,,,,,,,,,,,,,,,,,,,,,,,,,,,,,,,,,,,,,,,,,,,,,,,,,,,,,,,,,,,,,,,,,,,,,,,,,,,,,,,,,,,,,,,,,,,,,,,,,,,,,,,,,,,,,,,,,,,
1725716051.826137,1725716051.827867,63.0,0.0,4217.820313,4277.820313,4367.307617,4244.102539,4268.333496,4262.563965,4357.436035,4250.0,4256.410156,4232.94873,4443.333496,4506.538574,4341.153809,4397.94873,0.0,1.0,15.0,,,,0.0,4.0,4.0,4.0,4.0,4.0,4.0,4.0,4.0,4.0,4.0,4.0,4.0,4.0,4.0,100.0,,,,,,,,,,,,,,,,,,,,,,,,,,,,,,,,,,,,,,,,,,,,,,,,,,,,,,,,,,,,,,,,,,,,,,,,,,,,,,,,,,,,,,,,,,,,,,,,,,,,,,,,,,,,,,,,,,,,,,,,,,,,,,,,,,,
1725716051.830041,1725716051.831771,64.0,0.0,4221.410156,4273.717773,4369.487305,4242.307617,4267.436035,4261.025879,4359.102539,4251.153809,4261.666504,4234.102539,4445.769043,4508.846191,4342.436035,4398.461426,0.0,1.0,15.0,,,,0.0,4.0,4.0,4.0,4.0,4.0,4.0,4.0,4.0,4.0,4.0,4.0,4.0,4.0,4.0,100.0,,,,,,,,,,,,,,,,,,,,,,,,,,,,,,,,,,,,,,,,,,,,,,,,,,,,,,,,,,,,,,,,,,,,,,,,,,,,,,,,,,,,,,,,,,,,,,,,,,,,,,,,,,,,,,,,,,,,,,,,,,,,,,,,,,,
1725716051.833945,1725716051.835575,65.0,0.0,4223.205078,4269.230957,4368.589844,4239.358887,4266.153809,4260.769043,4358.974121,4253.461426,4266.153809,4234.743652,4448.077148,4507.563965,4344.487305,4398.589844,0.0,1.0,15.0,,,,0.0,4.0,4.0,4.0,4.0,4.0,4.0,4.0,4.0,4.0,4.0,4.0,4.0,4.0,4.0,100.0,,,,,,,,,,,,,,,,,,,,,,,,,,,,,,,,,,,,,,,,,,,,,,,,,,,,,,,,,,,,,,,,,,,,,,,,,,,,,,,,,,,,,,,,,,,,,,,,,,,,,,,,,,,,,,,,,,,,,,,,,,,,,,,,,,,
1725716051.83785,1725716051.839479,66.0,0.0,4222.307617,4267.05127,4364.871582,4237.436035,4265.128418,4261.282227,4358.974121,4255.641113,4266.794922,4233.974121,4448.461426,4502.563965,4345.641113,4398.205078,0.0,1.0,15.0,,,,0.0,4.0,4.0,4.0,4.0,4.0,4.0,4.0,4.0,4.0,4.0,4.0,4.0,4.0,4.0,100.0,,,,,,,,,,,,,,,,,,,,,,,,,,,,,,,,,,,,,,,,,,,,,,,,,,,,,,,,,,,,,,,,,,,,,,,,,,,,,,,,,,,,,,,,,,,,,,,,,,,,,,,,,,,,,,,,,,,,,,,,,,,,,,,,,,,
1725716051.841754,1725716051.843483,67.0,0.0,4219.358887,4268.589844,4360.256348,4237.436035,4264.871582,4260.769043,4360.0,4256.410156,4262.820313,4232.436035,4446.282227,4495.897461,4344.743652,4397.436035,0.0,1.0,15.0,,,,0.0,4.0,4.0,4.0,4.0,4.0,4.0,4.0,4.0,4.0,4.0,4.0,4.0,4.0,4.0,100.0,,,,,,,,,,,,,,,,,,,,,,,,,,,,,,,,,,,,,,,,,,,,,,,,,,,,,,,,,,,,,,,,,,,,,,,,,,,,,,,,,,,,,,,,,,,,,,,,,,,,,,,,,,,,,,,,,,,,,,,,,,,,,,,,,,,
1725716051.845658,1725716051.847387,68.0,0.0,4215.897461,4272.94873,4356.410156,4238.461426,4265.0,4258.077148,4362.436035,4255.128418,4256.794922,4231.153809,4443.077148,4491.025879,4342.307617,4396.282227,0.0,1.0,15.0,,,,0.0,4.0,4.0,4.0,4.0,4.0,4.0,4.0,4.0,4.0,4.0,4.0,4.0,4.0,4.0,100.0,,,,,,,,,,,,,,,,,,,,,,,,,,,,,,,,,,,,,,,,,,,,,,,,,,,,,,,,0.0,0.0,1.0,0.0,1.0,0.0,,,,,,,,,,,,,,,,,,,,,,,,,,,,,,,,,,,,,,,,,,,,,,,,,,,,,,,,,,,,,,,,,,,,,,
1725716051.849562,1725716051.851291,69.0,0.0,4213.974121,4277.436035,4354.871582,4238.846191,4265.384766,4253.974121,4365.256348,4252.436035,4252.307617,4230.641113,4440.512695,4490.128418,4340.384766,4395.256348,0.0,1.0,15.0,,,,0.0,4.0,4.0,4.0,4.0,4.0,4.0,4.0,4.0,4.0,4.0,4.0,4.0,4.0,4.0,100.0,,,,,,,,,,,,,,,,,,,,,,,,,,,,,,,,,,,,,,,,,,,,,,,,,,,,,,,,,,,,,,,,,,,,,,,,,,,,,,,,,,,,,,,,,,,,,,,,,,,,,,,,,,,,,,,,,,,,,,,,,,,,,,,,,,,
1725716051.853466,1725716051.855195,70.0,0.0,4214.743652,4279.230957,4355.641113,4237.563965,4266.282227,4250.256348,4367.436035,4249.615234,4251.538574,4230.512695,4440.0,4492.563965,4340.0,4395.0,0.0,1.0,15.0,,,,0.0,4.0,4.0,4.0,4.0,4.0,4.0,4.0,4.0,4.0,4.0,4.0,4.0,4.0,4.0,100.0,,,,,,,,,,,,,,,,,,,,,,,,,,,,,,,,,,,,,,,,,,,,,,,,,,,,,,,,,,,,,,,,,,,,,,,,,,,,,,,,,,,,,,,,,,,,,,,,,,,,,,,,,,,,,,,,,,,,,,,,,,,,,,,,,,,
1725716051.85737,1725716051.859099,71.0,0.0,4217.436035,4277.307617,4357.820313,4235.512695,4267.179688,4248.461426,4367.692383,4248.205078,4253.717773,4230.512695,4441.666504,4495.769043,4340.641113,4395.769043,0.0,1.0,15.0,,,,0.0,4.0,4.0,4.0,4.0,4.0,4.0,4.0,4.0,4.0,4.0,4.0,4.0,4.0,4.0,100.0,,,,,,,,,,,,,,,,,,,,,,,,,,,,,,,,,,,,,,,,,,,,,,,,,,,,,,,,,,,,,,,,,,,,,,,,,,,,,,,,,,,,,,,,,,,,,,,,,,,,,,,,,,,,,,,,,,,,,,,,,,,,,,,,,,,
1725716051.861274,1725716051.862904,72.0,0.0,4219.487305,4272.94873,4359.743652,4233.974121,4267.436035,4248.717773,4366.153809,4248.205078,4255.897461,4230.641113,4444.102539,4496.538574,4341.282227,4397.307617,0.0,1.0,15.0,,,,0.0,4.0,4.0,4.0,4.0,4.0,4.0,4.0,4.0,4.0,4.0,4.0,4.0,4.0,4.0,100.0,,,,,,,,,,,,,,,,,,,,,,,,,,,,,,,,,,,,,,,,,,,,,,,,,,,,,,,,,,,,,,,,,,,,,,,,,,,,,,,,,,,,,,,,,,,,,,,,,,,,,,,,,,,,,,,,,,,,,,,,,,,,,,,,,,,
1725716051.865178,1725716051.866808,73.0,0.0,4218.461426,4268.589844,4360.0,4233.846191,4266.538574,4250.0,4363.333496,4248.846191,4255.769043,4231.153809,4446.025879,4494.487305,4340.769043,4398.077148,0.0,1.0,15.0,,,,0.0,4.0,4.0,4.0,4.0,4.0,4.0,4.0,4.0,4.0,4.0,4.0,4.0,4.0,4.0,100.0,,,,,,,,,,,,,,,,,,,,,,,,,,,,,,,,,,,,,,,,,,,,,,,,,,,,,,,,,,,,,,,,,,,,,,,,,,,,,,,,,,,,,,,,,,,,,,,,,,,,,,,,,,,,,,,,,,,,,,,,,,,,,,,,,,,
1725716051.869082,1725716051.870712,74.0,0.0,4213.717773,4265.897461,4358.589844,4234.743652,4265.512695,4250.641113,4360.384766,4248.717773,4253.205078,4231.153809,4446.153809,4491.025879,4338.846191,4397.05127,0.0,1.0,15.0,,,,0.0,4.0,4.0,4.0,4.0,4.0,4.0,4.0,4.0,4.0,4.0,4.0,4.0,4.0,4.0,100.0,,,,,,,,,,,,,,,,,,,,,,,,,,,,,,,,,,,,,,,,,,,,,,,,,,,,,,,,,,,,,,,,,,,,,,,,,,,,,,,,,,,,,,,,,,,,,,,,,,,,,,,,,,,,,,,,,,,,,,,,,,,,,,,,,,,
1725716051.872986,1725716051.874616,75.0,0.0,4207.05127,4265.384766,4356.282227,4235.256348,4265.769043,4249.871582,4358.333496,4247.307617,4250.0,4229.743652,4444.615234,4488.077148,4336.538574,4394.102539,0.0,1.0,15.0,,,,0.0,4.0,4.0,4.0,4.0,4.0,4.0,4.0,4.0,4.0,4.0,4.0,4.0,4.0,4.0,100.0,,,,,,,,,,,,,,,,,,,,,,,,,,,,,,,,,,,,,,,,,,,,,,,,,,,,,,,,,,,,,,,,,,,,,,,,,,,,,,,,,,,,,,,,,,,,,,,,,,,,,,,,,,,,,,,,,,,,,,,,,,,,,,,,,,,
1725716051.876891,1725716051.87842,76.0,0.0,4201.666504,4266.282227,4354.615234,4235.0,4267.563965,4248.205078,4357.94873,4245.384766,4247.820313,4226.922852,4442.820313,4487.179688,4334.358887,4390.128418,0.0,1.0,15.0,,,,0.0,4.0,4.0,4.0,4.0,4.0,4.0,4.0,4.0,4.0,4.0,4.0,4.0,4.0,4.0,100.0,,,,,,,,,,,,,,,,,,,,,,,,,,,,,,,,,,,,,,,,,,,,,,,,,,,,,,,,0.0,0.0,1.0,0.0,1.0,0.0,,,,,,,,,,,,,,,,,,,,,,,,,,,,,,,,,,,,,,,,,,,,,,,,,,,,,,,,,,,,,,,,,,,,,,
1725716051.880795,1725716051.882324,77.0,0.0,4199.615234,4267.05127,4354.615234,4234.487305,4269.743652,4246.666504,4358.717773,4244.358887,4247.436035,4224.358887,4441.666504,4487.94873,4332.692383,4387.179688,0.0,1.0,15.0,,,,0.0,4.0,4.0,4.0,4.0,4.0,4.0,4.0,4.0,4.0,4.0,4.0,4.0,4.0,4.0,100.0,,,,,,,,,,,,,,,,,,,,,,,,,,,,,,,,,,,,,,,,,,,,,,,,,,,,,,,,,,,,,,,,,,,,,,,,,,,,,,,,,,,,,,,,,,,,,,,,,,,,,,,,,,,,,,,,,,,,,,,,,,,,,,,,,,,
1725716051.884699,1725716051.886228,78.0,0.0,4199.743652,4267.307617,4355.384766,4235.0,4271.153809,4246.153809,4359.358887,4245.0,4248.461426,4223.589844,4441.538574,4489.102539,4331.410156,4386.538574,0.0,1.0,15.0,,,,0.0,4.0,4.0,4.0,4.0,4.0,4.0,4.0,4.0,4.0,4.0,4.0,4.0,4.0,4.0,100.0,,,,,,,,,,,,,,,,,,,,,,,,,,,,,,,,,,,,,,,,,,,,,,,,,,,,,,,,,,,,,,,,,,,,,,,,,,,,,,,,,,,,,,,,,,,,,,,,,,,,,,,,,,,,,,,,,,,,,,,,,,,,,,,,,,,
1725716051.888603,1725716051.890232,79.0,0.0,4199.358887,4267.179688,4356.153809,4237.307617,4271.794922,4246.410156,4358.846191,4246.922852,4250.0,4224.871582,4442.05127,4489.743652,4330.256348,4388.333496,0.0,1.0,15.0,,,,0.0,4.0,4.0,4.0,4.0,4.0,4.0,4.0,4.0,4.0,4.0,4.0,4.0,4.0,4.0,100.0,,,,,,,,,,,,,,,,,,,,,,,,,,,,,,,,,,,,,,,,,,,,,,,,,,,,,,,,,,,,,,,,,,,,,,,,,,,,,,,,,,,,,,,,,,,,,,,,,,,,,,,,,,,,,,,,,,,,,,,,,,,,,,,,,,,
1725716051.892507,1725716051.894136,80.0,0.0,4196.282227,4266.794922,4356.153809,4240.897461,4272.307617,4247.179688,4357.436035,4248.846191,4251.282227,4227.05127,4442.692383,4489.358887,4329.230957,4390.897461,0.0,1.0,15.0,,,,0.0,4.0,4.0,4.0,4.0,4.0,4.0,4.0,4.0,4.0,4.0,4.0,4.0,4.0,4.0,100.0,,,,,,,,,,,,,,,,,,,,,,,,,,,,,,,,,,,,,,,,,,,,,,,,,,,,,,,,,,,,,,,,,,,,,,,,,,,,,,,,,,,,,,,,,,,,,,,,,,,,,,,,,,,,,,,,,,,,,,,,,,,,,,,,,,,
1725716051.896411,1725716051.898041,81.0,0.0,4191.025879,4266.410156,4355.128418,4244.102539,4272.94873,4247.94873,4356.410156,4249.743652,4251.538574,4228.205078,4443.461426,4488.846191,4328.717773,4392.307617,0.0,1.0,15.0,,,,0.0,4.0,4.0,4.0,4.0,4.0,4.0,4.0,4.0,4.0,4.0,4.0,4.0,4.0,4.0,100.0,,,,,,,,,,,,,,,,,,,,,,,,,,,,,,,,,,,,,,,,,,,,,,,,,,,,,,,,,,,,,,,,,,,,,,,,,,,,,,,,,,,,,,,,,,,,,,,,,,,,,,,,,,,,,,,,,,,,,,,,,,,,,,,,,,,
1725716051.900315,1725716051.901945,82.0,0.0,4186.282227,4266.025879,4353.717773,4246.153809,4272.94873,4248.461426,4357.05127,4249.615234,4251.282227,4226.666504,4444.102539,4488.717773,4328.846191,4391.666504,0.0,1.0,15.0,,,,0.0,4.0,4.0,4.0,4.0,4.0,4.0,4.0,4.0,4.0,4.0,4.0,4.0,4.0,4.0,100.0,,,,,,,,,,,,,,,,,,,,,,,,,,,,,,,,,,,,,,,,,,,,,,,,,,,,,,,,,,,,,,,,,,,,,,,,,,,,,,,,,,,,,,,,,,,,,,,,,,,,,,,,,,,,,,,,,,,,,,,,,,,,,,,,,,,
1725716051.904219,1725716051.905949,83.0,0.0,4183.846191,4266.025879,4352.692383,4247.05127,4272.05127,4248.461426,4359.358887,4248.974121,4250.897461,4222.94873,4443.974121,4488.974121,4329.230957,4388.974121,0.0,1.0,15.0,,,,0.0,4.0,4.0,4.0,4.0,4.0,4.0,4.0,4.0,4.0,4.0,4.0,4.0,4.0,4.0,100.0,,,,,,,,,,,,,,,,,,,,,,,,,,,,,,,,,,,,,,,,,,,,,,,,,,,,,,,,,,,,,,,,,,,,,,,,,,,,,,,,,,,,,,,,,,,,,,,,,,,,,,,,,,,,,,,,,,,,,,,,,,,,,,,,,,,
1725716051.908123,1725716051.909853,84.0,0.0,4183.717773,4266.153809,4352.563965,4247.307617,4270.512695,4247.94873,4362.436035,4248.205078,4251.025879,4218.717773,4442.179688,4488.974121,4329.358887,4385.769043,0.0,1.0,15.0,,,,0.0,4.0,4.0,4.0,4.0,4.0,4.0,4.0,4.0,4.0,4.0,4.0,4.0,4.0,4.0,100.0,,,,,,,,,,,,,,,,,1.0,0.0,0.0,,,,,,,,,,,,,,,,,,,,,,,,,,,,,,,,,,,,,0.0,0.0,64.0,0.108079,1.0,0.0,13.247853,3.996673,1.439351,0.460317,0.159879,1.666216,1.063898,0.554082,0.120854,0.084343,1.637586,1.326245,0.808555,0.269524,0.054122,3.943154,2.281038,0.679711,0.414177,0.068881,0.608461,0.377482,0.254543,0.073824,0.033787,0.399623,0.457334,0.028081,0.064471,0.035025,2.533113,0.178071,0.208753,0.130649,0.090793,1.169127,1.573344,0.893166,0.295051,0.094983,1.598852,1.090978,0.720448,0.381174,0.077069,2.382984,0.87952,0.875665,0.361722,0.109569,4.679608,1.811866,1.123551,0.470132,0.125614,6.749946,2.821213,0.93862,0.632455,0.198577,3.727904,1.502437,0.924484,0.521329,0.151581,4.36934,2.046806,0.86835,0.3896,0.10824
1725716051.912027,1725716051.913757,85.0,0.0,4183.974121,4265.769043,4353.846191,4248.077148,4269.487305,4247.179688,4364.871582,4247.820313,4251.153809,4216.410156,4438.589844,4488.717773,4328.846191,4383.205078,0.0,1.0,15.0,,,,0.0,4.0,4.0,4.0,4.0,4.0,4.0,4.0,4.0,4.0,4.0,4.0,4.0,4.0,4.0,100.0,,,,,,,,,,,,,,,,,,,,,,,,,,,,,,,,,,,,,,,,,,,,,,,,,,,,,,,,,,,,,,,,,,,,,,,,,,,,,,,,,,,,,,,,,,,,,,,,,,,,,,,,,,,,,,,,,,,,,,,,,,,,,,,,,,,
1725716051.915932,1725716051.917761,86.0,0.0,4182.179688,4265.384766,4356.025879,4250.128418,4270.0,4246.666504,4366.153809,4248.717773,4250.897461,4216.794922,4433.974121,4488.717773,4327.436035,4382.05127,0.0,1.0,15.0,,,,0.0,4.0,4.0,4.0,4.0,4.0,4.0,4.0,4.0,4.0,4.0,4.0,4.0,4.0,4.0,100.0,,,,,,,,,,,,,,,,,,,,,,,,,,,,,,,,,,,,,,,,,,,,,,,,,,,,,,,,,,,,,,,,,,,,,,,,,,,,,,,,,,,,,,,,,,,,,,,,,,,,,,,,,,,,,,,,,,,,,,,,,,,,,,,,,,,
1725716051.919836,1725716051.921665,87.0,0.0,4177.692383,4265.512695,4358.077148,4253.974121,4271.922852,4246.794922,4366.666504,4250.384766,4250.128418,4218.589844,4430.256348,4488.974121,4325.384766,4381.922852,0.0,1.0,15.0,,,,0.0,4.0,4.0,4.0,4.0,4.0,4.0,4.0,4.0,4.0,4.0,4.0,4.0,4.0,4.0,100.0,,,,,,,,,,,,,,,,,,,,,,,,,,,,,,,,,,,,,,,,,,,,,,,,,,,,,,,,,,,,,,,,,,,,,,,,,,,,,,,,,,,,,,,,,,,,,,,,,,,,,,,,,,,,,,,,,,,,,,,,,,,,,,,,,,,
1725716051.92374,1725716051.925569,88.0,0.0,4172.179688,4266.282227,4358.974121,4258.077148,4273.846191,4247.563965,4367.94873,4251.282227,4249.102539,4219.487305,4428.846191,4489.487305,4323.974121,4382.436035,0.0,1.0,15.0,,,,0.0,4.0,4.0,4.0,4.0,4.0,4.0,4.0,4.0,4.0,4.0,4.0,4.0,4.0,4.0,100.0,,,,,,,,,,,,,,,,,,,,,,,,,,,,,,,,,,,,,,,,,,,,,,,,,,,,,,,,,,,,,,,,,,,,,,,,,,,,,,,,,,,,,,,,,,,,,,,,,,,,,,,,,,,,,,,,,,,,,,,,,,,,,,,,,,,
1725716051.927644,1725716051.929473,89.0,0.0,4168.461426,4266.794922,4358.589844,4260.0,4274.102539,4248.717773,4369.871582,4249.871582,4248.333496,4218.589844,4429.743652,4489.487305,4323.974121,4382.692383,0.0,1.0,15.0,,,,0.0,4.0,4.0,4.0,4.0,4.0,4.0,4.0,4.0,4.0,4.0,4.0,4.0,4.0,4.0,100.0,,,,,,,,,,,,,,,,,,,,,,,,,,,,,,,,,,,,,,,,,,,,,,,,,,,,,,,,,,,,,,,,,,,,,,,,,,,,,,,,,,,,,,,,,,,,,,,,,,,,,,,,,,,,,,,,,,,,,,,,,,,,,,,,,,,
1725716051.931548,1725716051.933377,90.0,0.0,4167.692383,4266.410156,4357.436035,4258.589844,4271.922852,4249.743652,4371.666504,4245.897461,4247.692383,4216.410156,4431.153809,4488.846191,4325.256348,4382.94873,0.0,1.0,15.0,,,,0.0,4.0,4.0,4.0,4.0,4.0,4.0,4.0,4.0,4.0,4.0,4.0,4.0,4.0,4.0,100.0,,,,,,,,,,,,,,,,,,,,,,,,,,,,,,,,,,,,,,,,,,,,,,,,,,,,,,,,,,,,,,,,,,,,,,,,,,,,,,,,,,,,,,,,,,,,,,,,,,,,,,,,,,,,,,,,,,,,,,,,,,,,,,,,,,,
1725716051.935452,1725716051.937182,91.0,0.0,4168.589844,4265.641113,4355.897461,4254.487305,4268.333496,4250.512695,4371.794922,4241.282227,4246.538574,4215.0,4431.538574,4487.94873,4326.153809,4382.94873,0.0,1.0,15.0,,,,0.0,4.0,4.0,4.0,4.0,4.0,4.0,4.0,4.0,4.0,4.0,4.0,4.0,4.0,4.0,100.0,,,,,,,,,,,,,,,,,,,,,,,,,,,,,,,,,,,,,,,,,,,,,,,,,,,,,,,,,,,,,,,,,,,,,,,,,,,,,,,,,,,,,,,,,,,,,,,,,,,,,,,,,,,,,,,,,,,,,,,,,,,,,,,,,,,
1725716051.939356,1725716051.941086,92.0,0.0,4169.102539,4265.641113,4354.230957,4251.153809,4265.384766,4250.641113,4370.0,4237.820313,4244.615234,4215.128418,4430.256348,4487.05127,4325.641113,4382.436035,0.0,1.0,15.0,,,,0.0,4.0,4.0,4.0,4.0,4.0,4.0,4.0,4.0,4.0,4.0,4.0,4.0,4.0,4.0,100.0,,,,,,,,,,,,,,,,,,,,,,,,,,,,,,,,,,,,,,,,,,,,,,,,,,,,,,,,0.0,0.0,64.0,0.108079,1.0,0.0,,,,,,,,,,,,,,,,,,,,,,,,,,,,,,,,,,,,,,,,,,,,,,,,,,,,,,,,,,,,,,,,,,,,,,
1725716051.94326,1725716051.94499,93.0,0.0,4168.717773,4267.436035,4352.563965,4251.025879,4264.743652,4250.128418,4367.692383,4237.05127,4242.307617,4215.897461,4428.461426,4486.922852,4324.358887,4381.794922,0.0,1.0,15.0,,,,0.0,4.0,4.0,4.0,4.0,4.0,4.0,4.0,4.0,4.0,4.0,4.0,4.0,4.0,4.0,100.0,,,,,,,,,,,,,,,,,,,,,,,,,,,,,,,,,,,,,,,,,,,,,,,,,,,,,,,,,,,,,,,,,,,,,,,,,,,,,,,,,,,,,,,,,,,,,,,,,,,,,,,,,,,,,,,,,,,,,,,,,,,,,,,,,,,
1725716051.947164,1725716051.948994,94.0,0.0,4168.205078,4271.153809,4351.666504,4254.487305,4266.153809,4249.358887,4367.05127,4238.589844,4240.512695,4215.641113,4428.333496,4487.563965,4324.102539,4381.794922,0.0,1.0,15.0,,,,0.0,4.0,4.0,4.0,4.0,4.0,4.0,4.0,4.0,4.0,4.0,4.0,4.0,4.0,4.0,100.0,,,,,,,,,,,,,,,,,,,,,,,,,,,,,,,,,,,,,,,,,,,,,,,,,,,,,,,,,,,,,,,,,,,,,,,,,,,,,,,,,,,,,,,,,,,,,,,,,,,,,,,,,,,,,,,,,,,,,,,,,,,,,,,,,,,
1725716051.951068,1725716051.952898,95.0,0.0,4168.461426,4274.871582,4351.922852,4259.487305,4267.692383,4248.846191,4368.717773,4241.410156,4240.384766,4213.974121,4431.153809,4488.974121,4326.538574,4383.589844,0.0,1.0,15.0,,,,0.0,4.0,4.0,4.0,4.0,4.0,4.0,4.0,4.0,4.0,4.0,4.0,4.0,4.0,4.0,100.0,,,,,,,,,,,,,,,,,,,,,,,,,,,,,,,,,,,,,,,,,,,,,,,,,,,,,,,,,,,,,,,,,,,,,,,,,,,,,,,,,,,,,,,,,,,,,,,,,,,,,,,,,,,,,,,,,,,,,,,,,,,,,,,,,,,
1725716051.954972,1725716051.956802,96.0,0.0,4169.487305,4276.538574,4353.205078,4263.205078,4267.307617,4248.846191,4371.153809,4243.846191,4242.436035,4212.820313,4435.897461,4490.641113,4331.025879,4386.922852,0.0,1.0,15.0,,,,0.0,4.0,4.0,4.0,4.0,4.0,4.0,4.0,4.0,4.0,4.0,4.0,4.0,4.0,4.0,100.0,,,,,,,,,,,,,,,,,,,,,,,,,,,,,,,,,,,,,,,,,,,,,,,,,,,,,,,,,,,,,,,,,,,,,,,,,,,,,,,,,,,,,,,,,,,,,,,,,,,,,,,,,,,,,,,,,,,,,,,,,,,,,,,,,,,
1725716051.958876,1725716051.960706,97.0,0.0,4170.256348,4274.743652,4354.358887,4264.102539,4265.256348,4249.358887,4371.922852,4245.384766,4245.769043,4214.102539,4440.512695,4491.794922,4335.256348,4390.641113,0.0,1.0,15.0,,,,0.0,4.0,4.0,4.0,4.0,4.0,4.0,4.0,4.0,4.0,4.0,4.0,4.0,4.0,4.0,100.0,,,,,,,,,,,,,,,,,,,,,,,,,,,,,,,,,,,,,,,,,,,,,,,,,,,,,,,,,,,,,,,,,,,,,,,,,,,,,,,,,,,,,,,,,,,,,,,,,,,,,,,,,,,,,,,,,,,,,,,,,,,,,,,,,,,
1725716051.962781,1725716051.96461,98.0,0.0,4170.384766,4270.128418,4355.0,4262.692383,4263.461426,4249.615234,4370.384766,4246.153809,4249.102539,4218.589844,4443.205078,4492.179688,4337.563965,4393.205078,0.0,1.0,15.0,,,,0.0,4.0,4.0,4.0,4.0,4.0,4.0,4.0,4.0,4.0,4.0,4.0,4.0,4.0,4.0,100.0,,,,,,,,,,,,,,,,,,,,,,,,,,,,,,,,,,,,,,,,,,,,,,,,,,,,,,,,,,,,,,,,,,,,,,,,,,,,,,,,,,,,,,,,,,,,,,,,,,,,,,,,,,,,,,,,,,,,,,,,,,,,,,,,,,,
1725716051.966685,1725716051.968414,99.0,0.0,4169.615234,4265.256348,4355.256348,4261.153809,4263.333496,4249.230957,4367.94873,4247.436035,4250.769043,4224.615234,4443.846191,4492.179688,4337.307617,4393.846191,0.0,1.0,15.0,,,,0.0,4.0,4.0,4.0,4.0,4.0,4.0,4.0,4.0,4.0,4.0,4.0,4.0,4.0,4.0,100.0,,,,,,,,,,,,,,,,,,,,,,,,,,,,,,,,,,,,,,,,,,,,,,,,,,,,,,,,,,,,,,,,,,,,,,,,,,,,,,,,,,,,,,,,,,,,,,,,,,,,,,,,,,,,,,,,,,,,,,,,,,,,,,,,,,,
1725716051.970589,1725716051.972318,100.0,0.0,4168.846191,4263.333496,4355.384766,4260.897461,4264.230957,4248.461426,4367.692383,4248.974121,4250.641113,4230.0,4443.846191,4492.179688,4336.282227,4393.077148,0.0,1.0,15.0,,,,0.0,4.0,4.0,4.0,4.0,4.0,4.0,4.0,4.0,4.0,4.0,4.0,4.0,4.0,4.0,100.0,,,,,,,,,,,,,,,,,,,,,,,,,,,,,,,,,,,,,,,,,,,,,,,,,,,,,,,,0.0,0.0,64.0,0.108079,1.0,0.0,,,,,,,,,,,,,,,,,,,,,,,,,,,,,,,,,,,,,,,,,,,,,,,,,,,,,,,,,,,,,,,,,,,,,,
1725716051.974493,1725716051.976223,101.0,0.0,4168.589844,4265.512695,4355.769043,4261.410156,4265.0,4247.692383,4370.512695,4250.256348,4249.871582,4232.692383,4444.230957,4492.436035,4336.153809,4392.179688,0.0,1.0,15.0,,,,0.0,4.0,4.0,4.0,4.0,4.0,4.0,4.0,4.0,4.0,4.0,4.0,4.0,4.0,4.0,100.0,,,,,,,,,,,,,,,,,,,,,,,,,,,,,,,,,,,,,,,,,,,,,,,,,,,,,,,,,,,,,,,,,,,,,,,,,,,,,,,,,,,,,,,,,,,,,,,,,,,,,,,,,,,,,,,,,,,,,,,,,,,,,,,,,,,
1725716051.978397,1725716051.980127,102.0,0.0,4168.717773,4271.153809,4356.666504,4261.410156,4264.871582,4247.436035,4375.512695,4250.0,4250.256348,4232.563965,4444.743652,4492.436035,4337.94873,4392.436035,0.0,1.0,15.0,,,,0.0,4.0,4.0,4.0,4.0,4.0,4.0,4.0,4.0,4.0,4.0,4.0,4.0,4.0,4.0,100.0,,,,,,,,,,,,,,,,,,,,,,,,,,,,,,,,,,,,,,,,,,,,,,,,,,,,,,,,,,,,,,,,,,,,,,,,,,,,,,,,,,,,,,,,,,,,,,,,,,,,,,,,,,,,,,,,,,,,,,,,,,,,,,,,,,,
1725716051.982301,1725716051.983931,103.0,0.0,4168.717773,4277.179688,4358.077148,4260.897461,4264.487305,4247.820313,4380.128418,4248.333496,4252.436035,4231.282227,4445.0,4491.922852,4340.769043,4394.102539,0.0,1.0,15.0,,,,0.0,4.0,4.0,4.0,4.0,4.0,4.0,4.0,4.0,4.0,4.0,4.0,4.0,4.0,4.0,100.0,,,,,,,,,,,,,,,,,,,,,,,,,,,,,,,,,,,,,,,,,,,,,,,,,,,,,,,,,,,,,,,,,,,,,,,,,,,,,,,,,,,,,,,,,,,,,,,,,,,,,,,,,,,,,,,,,,,,,,,,,,,,,,,,,,,
1725716051.986205,1725716051.987835,104.0,0.0,4168.461426,4279.871582,4359.230957,4260.641113,4264.358887,4248.205078,4383.333496,4246.922852,4256.153809,4231.153809,4444.871582,4491.410156,4343.333496,4396.153809,0.0,1.0,15.0,,,,0.0,4.0,4.0,4.0,4.0,4.0,4.0,4.0,4.0,4.0,4.0,4.0,4.0,4.0,4.0,100.0,,,,,,,,,,,,,,,,,,,,,,,,,,,,,,,,,,,,,,,,,,,,,,,,,,,,,,,,,,,,,,,,,,,,,,,,,,,,,,,,,,,,,,,,,,,,,,,,,,,,,,,,,,,,,,,,,,,,,,,,,,,,,,,,,,,
1725716051.990109,1725716051.991739,105.0,0.0,4167.820313,4277.692383,4359.358887,4261.410156,4264.615234,4248.333496,4385.256348,4247.94873,4260.0,4232.820313,4445.512695,4492.436035,4344.615234,4397.307617,0.0,1.0,15.0,,,,0.0,4.0,4.0,4.0,4.0,4.0,4.0,4.0,4.0,4.0,4.0,4.0,4.0,4.0,4.0,100.0,,,,,,,,,,,,,,,,,,,,,,,,,,,,,,,,,,,,,,,,,,,,,,,,,,,,,,,,,,,,,,,,,,,,,,,,,,,,,,,,,,,,,,,,,,,,,,,,,,,,,,,,,,,,,,,,,,,,,,,,,,,,,,,,,,,
1725716051.994013,1725716051.995743,106.0,0.0,4167.307617,4271.666504,4358.077148,4263.077148,4264.743652,4248.333496,4387.307617,4252.179688,4262.692383,4234.871582,4447.563965,4495.769043,4344.102539,4396.794922,0.0,1.0,15.0,,,,0.0,4.0,4.0,4.0,4.0,4.0,4.0,4.0,4.0,4.0,4.0,4.0,4.0,4.0,4.0,100.0,,,,,,,,,,,,,,,,,,,,,,,,,,,,,,,,,,,,,,,,,,,,,,,,,,,,,,,,,,,,,,,,,,,,,,,,,,,,,,,,,,,,,,,,,,,,,,,,,,,,,,,,,,,,,,,,,,,,,,,,,,,,,,,,,,,
1725716051.997918,1725716051.999647,107.0,0.0,4167.307617,4265.641113,4356.666504,4264.358887,4264.487305,4248.461426,4390.256348,4257.94873,4263.717773,4235.256348,4451.410156,4501.025879,4342.692383,4395.897461,0.0,1.0,15.0,,,,0.0,4.0,4.0,4.0,4.0,4.0,4.0,4.0,4.0,4.0,4.0,4.0,4.0,4.0,4.0,100.0,,,,,,,,,,,,,,,,,,,,,,,,,,,,,,,,,,,,,,,,,,,,,,,,,,,,,,,,,,,,,,,,,,,,,,,,,,,,,,,,,,,,,,,,,,,,,,,,,,,,,,,,,,,,,,,,,,,,,,,,,,,,,,,,,,,
1725716052.001822,1725716052.003551,108.0,0.0,4167.94873,4263.205078,4356.922852,4264.871582,4264.230957,4248.846191,4394.102539,4262.179688,4263.333496,4234.102539,4456.153809,4506.282227,4341.538574,4396.282227,0.0,1.0,15.0,,,,0.0,4.0,4.0,4.0,4.0,4.0,4.0,4.0,4.0,4.0,4.0,4.0,4.0,4.0,4.0,100.0,,,,,,,,,,,,,,,,,,,,,,,,,,,,,,,,,,,,,,,,,,,,,,,,,,,,,,,,0.0,0.0,64.0,0.108079,1.0,0.0,,,,,,,,,,,,,,,,,,,,,,,,,,,,,,,,,,,,,,,,,,,,,,,,,,,,,,,,,,,,,,,,,,,,,,
1725716052.005726,1725716052.007455,109.0,0.0,4169.102539,4265.641113,4359.487305,4265.512695,4264.358887,4249.615234,4397.692383,4262.94873,4262.563965,4233.461426,4460.128418,4509.743652,4342.05127,4398.846191,0.0,1.0,15.0,,,,0.0,4.0,4.0,4.0,4.0,4.0,4.0,4.0,4.0,4.0,4.0,4.0,4.0,4.0,4.0,100.0,,,,,,,,,,,,,,,,,,,,,,,,,,,,,,,,,,,,,,,,,,,,,,,,,,,,,,,,,,,,,,,,,,,,,,,,,,,,,,,,,,,,,,,,,,,,,,,,,,,,,,,,,,,,,,,,,,,,,,,,,,,,,,,,,,,
1725716052.00963,1725716052.01126,110.0,0.0,4170.384766,4271.153809,4363.205078,4266.794922,4265.0,4250.641113,4400.0,4260.512695,4262.179688,4235.512695,4461.410156,4510.512695,4344.102539,4402.820313,0.0,1.0,15.0,,,,0.0,4.0,4.0,4.0,4.0,4.0,4.0,4.0,4.0,4.0,4.0,4.0,4.0,4.0,4.0,100.0,,,,,,,,,,,,,,,,,,,,,,,,,,,,,,,,,,,,,,,,,,,,,,,,,,,,,,,,,,,,,,,,,,,,,,,,,,,,,,,,,,,,,,,,,,,,,,,,,,,,,,,,,,,,,,,,,,,,,,,,,,,,,,,,,,,
1725716052.013534,1725716052.015164,111.0,0.0,4171.282227,4276.282227,4366.025879,4268.717773,4265.641113,4251.153809,4400.641113,4257.436035,4262.179688,4240.256348,4459.615234,4508.589844,4346.666504,4406.282227,0.0,1.0,15.0,,,,0.0,4.0,4.0,4.0,4.0,4.0,4.0,4.0,4.0,4.0,4.0,4.0,4.0,4.0,4.0,100.0,,,,,,,,,,,,,,,,,,,,,,,,,,,,,,,,,,,,,,,,,,,,,,,,,,,,,,,,,,,,,,,,,,,,,,,,,,,,,,,,,,,,,,,,,,,,,,,,,,,,,,,,,,,,,,,,,,,,,,,,,,,,,,,,,,,
1725716052.017438,1725716052.019068,112.0,0.0,4171.282227,4278.846191,4366.794922,4270.0,4266.153809,4250.769043,4400.128418,4256.282227,4262.307617,4245.128418,4455.897461,4505.512695,4348.589844,4407.692383,0.0,1.0,15.0,,,,0.0,4.0,4.0,4.0,4.0,4.0,4.0,4.0,4.0,4.0,4.0,4.0,4.0,4.0,4.0,100.0,,,,,,,,,,,,,,,,,,,,,,,,,,,,,,,,,,,,,,,,,,,,,,,,,,,,,,,,,,,,,,,,,,,,,,,,,,,,,,,,,,,,,,,,,,,,,,,,,,,,,,,,,,,,,,,,,,,,,,,,,,,,,,,,,,,
1725716052.021342,1725716052.023072,113.0,0.0,4170.256348,4278.717773,4365.897461,4269.615234,4266.282227,4249.871582,4399.358887,4257.94873,4262.692383,4246.922852,4452.179688,4503.846191,4348.589844,4406.153809,0.0,1.0,15.0,,,,0.0,4.0,4.0,4.0,4.0,4.0,4.0,4.0,4.0,4.0,4.0,4.0,4.0,4.0,4.0,100.0,,,,,,,,,,,,,,,,,,,,,,,,,,,,,,,,,,,,,,,,,,,,,,,,,,,,,,,,,,,,,,,,,,,,,,,,,,,,,,,,,,,,,,,,,,,,,,,,,,,,,,,,,,,,,,,,,,,,,,,,,,,,,,,,,,,
1725716052.025246,1725716052.026976,114.0,0.0,4168.846191,4277.179688,4364.743652,4267.563965,4265.897461,4248.974121,4398.846191,4261.282227,4263.333496,4244.487305,4449.615234,4504.871582,4346.666504,4402.94873,0.0,1.0,15.0,,,,0.0,4.0,4.0,4.0,4.0,4.0,4.0,4.0,4.0,4.0,4.0,4.0,4.0,4.0,4.0,100.0,,,,,,,,,,,,,,,,,,,,,,,,,,,,,,,,,,,,,,,,,,,,,,,,,,,,,,,,,,,,,,,,,,,,,,,,,,,,,,,,,,,,,,,,,,,,,,,,,,,,,,,,,,,,,,,,,,,,,,,,,,,,,,,,,,,
1725716052.02915,1725716052.03088,115.0,0.0,4167.820313,4275.384766,4364.230957,4264.871582,4265.769043,4248.846191,4398.461426,4263.461426,4263.846191,4239.358887,4448.461426,4507.820313,4343.717773,4399.871582,0.0,1.0,15.0,,,,0.0,4.0,4.0,4.0,4.0,4.0,4.0,4.0,4.0,4.0,4.0,4.0,4.0,4.0,4.0,100.0,,,,,,,,,,,,,,,,,,,,,,,,,,,,,,,,,,,,,,,,,,,,,,,,,,,,,,,,,,,,,,,,,,,,,,,,,,,,,,,,,,,,,,,,,,,,,,,,,,,,,,,,,,,,,,,,,,,,,,,,,,,,,,,,,,,
1725716052.033054,1725716052.034784,116.0,0.0,4167.436035,4273.461426,4364.230957,4262.692383,4265.897461,4249.358887,4397.94873,4262.692383,4263.589844,4234.487305,4448.205078,4509.743652,4341.025879,4398.333496,0.0,1.0,15.0,,,,0.0,4.0,4.0,4.0,4.0,4.0,4.0,4.0,4.0,4.0,4.0,4.0,4.0,4.0,4.0,100.0,,,,,,,,,,,,,,,,,1.0,0.0,0.0,,,,,,,,,,,,,,,,,,,,,,,,,,,,,,,,,,,,,0.0,0.0,64.0,0.121784,1.0,0.0,8.754507,2.74364,1.035063,0.313979,0.125673,1.670313,1.017705,0.568351,0.124092,0.08574,1.995196,1.287384,0.747815,0.228611,0.051869,5.137826,2.964248,0.668016,0.387745,0.083158,0.676642,0.399743,0.223439,0.069375,0.032321,0.405854,0.482555,0.033182,0.062218,0.039665,2.072731,0.193275,0.216958,0.141898,0.091401,1.247277,1.566298,0.822037,0.265091,0.082132,1.482252,1.044413,0.651124,0.316938,0.079499,2.315166,0.817074,0.777153,0.318617,0.111007,4.689268,1.747338,1.055812,0.400394,0.126477,6.818,2.80267,0.872475,0.529931,0.188992,3.490763,1.35269,0.848222,0.429872,0.143226,4.469615,1.869098,0.829286,0.319489,0.108877
1725716052.036959,1725716052.038788,117.0,0.0,4167.692383,4270.641113,4364.102539,4262.179688,4266.282227,4249.871582,4397.179688,4258.846191,4261.794922,4232.307617,4447.692383,4508.333496,4339.871582,4398.461426,0.0,1.0,15.0,,,,0.0,4.0,4.0,4.0,4.0,4.0,4.0,4.0,4.0,4.0,4.0,4.0,4.0,4.0,4.0,100.0,,,,,,,,,,,,,,,,,,,,,,,,,,,,,,,,,,,,,,,,,,,,,,,,,,,,,,,,,,,,,,,,,,,,,,,,,,,,,,,,,,,,,,,,,,,,,,,,,,,,,,,,,,,,,,,,,,,,,,,,,,,,,,,,,,,
1725716052.040863,1725716052.042692,118.0,0.0,4168.077148,4267.436035,4362.94873,4262.94873,4266.794922,4249.615234,4396.666504,4254.102539,4259.487305,4232.820313,4446.282227,4503.461426,4340.128418,4399.230957,0.0,1.0,15.0,,,,0.0,4.0,4.0,4.0,4.0,4.0,4.0,4.0,4.0,4.0,4.0,4.0,4.0,4.0,4.0,100.0,,,,,,,,,,,,,,,,,,,,,,,,,,,,,,,,,,,,,,,,,,,,,,,,,,,,,,,,,,,,,,,,,,,,,,,,,,,,,,,,,,,,,,,,,,,,,,,,,,,,,,,,,,,,,,,,,,,,,,,,,,,,,,,,,,,
1725716052.044767,1725716052.046596,119.0,0.0,4168.461426,4264.871582,4360.641113,4264.230957,4266.666504,4248.333496,4396.282227,4250.641113,4258.589844,4234.487305,4443.974121,4496.794922,4340.384766,4398.846191,0.0,1.0,15.0,,,,0.0,4.0,4.0,4.0,4.0,4.0,4.0,4.0,4.0,4.0,4.0,4.0,4.0,4.0,4.0,100.0,,,,,,,,,,,,,,,,,,,,,,,,,,,,,,,,,,,,,,,,,,,,,,,,,,,,,,,,,,,,,,,,,,,,,,,,,,,,,,,,,,,,,,,,,,,,,,,,,,,,,,,,,,,,,,,,,,,,,,,,,,,,,,,,,,,
1725716052.048671,1725716052.0505,120.0,0.0,4168.717773,4264.487305,4357.563965,4265.128418,4266.153809,4246.922852,4395.769043,4249.871582,4259.871582,4235.384766,4441.282227,4490.897461,4339.358887,4396.538574,0.0,1.0,15.0,,,,0.0,4.0,4.0,4.0,4.0,4.0,4.0,4.0,4.0,4.0,4.0,4.0,4.0,4.0,4.0,100.0,,,,,,,,,,,,,,,,,,,,,,,,,,,,,,,,,,,,,,,,,,,,,,,,,,,,,,,,,,,,,,,,,,,,,,,,,,,,,,,,,,,,,,,,,,,,,,,,,,,,,,,,,,,,,,,,,,,,,,,,,,,,,,,,,,,
1725716052.052575,1725716052.054504,121.0,0.0,4168.461426,4266.410156,4354.743652,4264.487305,4265.769043,4245.897461,4394.871582,4251.025879,4262.307617,4234.871582,4439.358887,4487.436035,4336.922852,4392.820313,0.0,1.0,15.0,,,,0.0,4.0,4.0,4.0,4.0,4.0,4.0,4.0,4.0,4.0,4.0,4.0,4.0,4.0,4.0,100.0,,,,,,,,,,,,,,,,,,,,,,,,,,,,,,,,,,,,,,,,,,,,,,,,,,,,,,,,,,,,,,,,,,,,,,,,,,,,,,,,,,,,,,,,,,,,,,,,,,,,,,,,,,,,,,,,,,,,,,,,,,,,,,,,,,,
1725716052.056479,1725716052.058409,122.0,0.0,4167.179688,4268.846191,4353.333496,4262.94873,4266.025879,4245.641113,4394.230957,4252.307617,4263.461426,4233.077148,4438.974121,4486.922852,4333.846191,4389.615234,0.0,1.0,15.0,,,,0.0,4.0,4.0,4.0,4.0,4.0,4.0,4.0,4.0,4.0,4.0,4.0,4.0,4.0,4.0,100.0,,,,,,,,,,,,,,,,,,,,,,,,,,,,,,,,,,,,,,,,,,,,,,,,,,,,,,,,,,,,,,,,,,,,,,,,,,,,,,,,,,,,,,,,,,,,,,,,,,,,,,,,,,,,,,,,,,,,,,,,,,,,,,,,,,,
1725716052.060383,1725716052.062313,123.0,0.0,4164.743652,4270.128418,4353.589844,4261.922852,4266.410156,4245.897461,4394.487305,4252.436035,4261.538574,4231.410156,4440.0,4488.333496,4331.282227,4388.205078,0.0,1.0,15.0,,,,0.0,4.0,4.0,4.0,4.0,4.0,4.0,4.0,4.0,4.0,4.0,4.0,4.0,4.0,4.0,100.0,,,,,,,,,,,,,,,,,,,,,,,,,,,,,,,,,,,,,,,,,,,,,,,,,,,,,,,,,,,,,,,,,,,,,,,,,,,,,,,,,,,,,,,,,,,,,,,,,,,,,,,,,,,,,,,,,,,,,,,,,,,,,,,,,,,
1725716052.064287,1725716052.066217,124.0,0.0,4161.153809,4269.102539,4355.0,4262.692383,4266.282227,4246.282227,4395.256348,4251.538574,4256.794922,4230.256348,4441.666504,4490.256348,4330.0,4388.461426,0.0,1.0,15.0,,,,0.0,4.0,4.0,4.0,4.0,4.0,4.0,4.0,4.0,4.0,4.0,4.0,4.0,4.0,4.0,100.0,,,,,,,,,,,,,,,,,,,,,,,,,,,,,,,,,,,,,,,,,,,,,,,,,,,,,,,,0.0,0.0,64.0,0.121784,1.0,0.0,,,,,,,,,,,,,,,,,,,,,,,,,,,,,,,,,,,,,,,,,,,,,,,,,,,,,,,,,,,,,,,,,,,,,,
1725716052.068191,1725716052.070221,125.0,0.0,4157.179688,4266.538574,4356.922852,4265.897461,4265.641113,4246.538574,4396.025879,4250.256348,4251.538574,4229.615234,4442.436035,4491.025879,4329.615234,4389.102539,0.0,1.0,15.0,,,,0.0,4.0,4.0,4.0,4.0,4.0,4.0,4.0,4.0,4.0,4.0,4.0,4.0,4.0,4.0,100.0,,,,,,,,,,,,,,,,,,,,,,,,,,,,,,,,,,,,,,,,,,,,,,,,,,,,,,,,,,,,,,,,,,,,,,,,,,,,,,,,,,,,,,,,,,,,,,,,,,,,,,,,,,,,,,,,,,,,,,,,,,,,,,,,,,,
1725716052.072096,1725716052.074125,126.0,0.0,4153.974121,4264.358887,4358.589844,4270.512695,4265.512695,4246.794922,4396.410156,4249.487305,4248.205078,4229.230957,4441.922852,4490.384766,4329.358887,4389.102539,0.0,1.0,15.0,,,,0.0,4.0,4.0,4.0,4.0,4.0,4.0,4.0,4.0,4.0,4.0,4.0,4.0,4.0,4.0,100.0,,,,,,,,,,,,,,,,,,,,,,,,,,,,,,,,,,,,,,,,,,,,,,,,,,,,,,,,,,,,,,,,,,,,,,,,,,,,,,,,,,,,,,,,,,,,,,,,,,,,,,,,,,,,,,,,,,,,,,,,,,,,,,,,,,,
1725716052.076,1725716052.078029,127.0,0.0,4152.179688,4263.974121,4359.487305,4275.128418,4267.692383,4246.922852,4397.179688,4249.487305,4247.820313,4229.230957,4440.512695,4489.102539,4329.230957,4388.461426,0.0,1.0,15.0,,,,0.0,4.0,4.0,4.0,4.0,4.0,4.0,4.0,4.0,4.0,4.0,4.0,4.0,4.0,4.0,100.0,,,,,,,,,,,,,,,,,,,,,,,,,,,,,,,,,,,,,,,,,,,,,,,,,,,,,,,,,,,,,,,,,,,,,,,,,,,,,,,,,,,,,,,,,,,,,,,,,,,,,,,,,,,,,,,,,,,,,,,,,,,,,,,,,,,
1725716052.079904,1725716052.081933,128.0,0.0,4151.922852,4265.0,4359.102539,4278.333496,4271.666504,4247.179688,4398.333496,4249.615234,4249.102539,4229.487305,4439.102539,4488.717773,4330.256348,4388.461426,2688.0,1.0,15.0,,,,0.0,4.0,4.0,4.0,4.0,4.0,4.0,4.0,4.0,4.0,4.0,4.0,4.0,4.0,4.0,100.0,,,,,,,,,,,,,,,,,,,,,,,,,,,,,,,,,,,,,,,,,,,,,,,,,,,,,,,,,,,,,,,,,,,,,,,,,,,,,,,,,,,,,,,,,,,,,,,,,,,,,,,,,,,,,,,,,,,,,,,,,,,,,,,,,,,
1725716052.083808,1725716052.085837,129.0,0.0,4152.179688,4266.410156,4357.692383,4279.102539,4275.0,4247.179688,4399.743652,4249.358887,4250.256348,4230.0,4438.846191,4489.743652,4332.94873,4390.128418,2558.0,1.0,15.0,,,,0.0,4.0,4.0,4.0,4.0,4.0,4.0,4.0,4.0,4.0,4.0,4.0,4.0,4.0,4.0,100.0,,,,,,,,,,,,,,,,,,,,,,,,,,,,,,,,,,,,,,,,,,,,,,,,,,,,,,,,,,,,,,,,,,,,,,,,,,,,,,,,,,,,,,,,,,,,,,,,,,,,,,,,,,,,,,,,,,,,,,,,,,,,,,,,,,,
1725716052.087712,1725716052.089641,130.0,0.0,4152.436035,4267.307617,4356.794922,4278.205078,4275.256348,4246.794922,4400.512695,4248.846191,4249.871582,4230.256348,4440.0,4491.153809,4336.410156,4393.205078,2499.0,1.0,15.0,,,,0.0,4.0,4.0,4.0,4.0,4.0,4.0,4.0,4.0,4.0,4.0,4.0,4.0,4.0,4.0,100.0,,,,,,,,,,,,,,,,,,,,,,,,,,,,,,,,,,,,,,,,,,,,,,,,,,,,,,,,,,,,,,,,,,,,,,,,,,,,,,,,,,,,,,,,,,,,,,,,,,,,,,,,,,,,,,,,,,,,,,,,,,,,,,,,,,,
1725716052.091616,1725716052.093545,131.0,0.0,4153.077148,4268.589844,4357.563965,4277.179688,4272.436035,4246.282227,4400.512695,4248.461426,4248.846191,4229.871582,4441.922852,4492.05127,4338.846191,4396.025879,2458.0,1.0,15.0,,,,0.0,4.0,4.0,4.0,4.0,4.0,4.0,4.0,4.0,4.0,4.0,4.0,4.0,4.0,4.0,100.0,,,,,,,,,,,,,,,,,,,,,,,,,,,,,,,,,,,,,,,,,,,,,,,,,,,,,,,,,,,,,,,,,,,,,,,,,,,,,,,,,,,,,,,,,,,,,,,,,,,,,,,,,,,,,,,,,,,,,,,,,,,,,,,,,,,
1725716052.09552,1725716052.09745,132.0,0.0,4154.871582,4270.641113,4360.384766,4277.179688,4268.589844,4245.769043,4400.128418,4248.333496,4249.102539,4229.615234,4443.461426,4492.436035,4339.615234,4396.922852,2441.0,1.0,15.0,,,,0.0,4.0,4.0,4.0,4.0,4.0,4.0,4.0,4.0,4.0,4.0,4.0,4.0,4.0,4.0,100.0,,,,,,,,,,,,,,,,,,,,,,,,,,,,,,,,,,,,,,,,,,,,,,,,,,,,,,,,0.0,0.0,64.0,0.121784,1.0,0.0,,,,,,,,,,,,,,,,,,,,,,,,,,,,,,,,,,,,,,,,,,,,,,,,,,,,,,,,,,,,,,,,,,,,,,
1725716052.099424,1725716052.101254,133.0,0.0,4157.436035,4273.205078,4363.974121,4278.461426,4266.025879,4245.384766,4399.615234,4248.205078,4251.666504,4229.615234,4443.974121,4493.205078,4339.871582,4396.410156,2396.0,1.0,15.0,,,,0.0,4.0,4.0,4.0,4.0,4.0,4.0,4.0,4.0,4.0,4.0,4.0,4.0,4.0,4.0,100.0,,,,,,,,,,,,,,,,,,,,,,,,,,,,,,,,,,,,,,,,,,,,,,,,,,,,,,,,,,,,,,,,,,,,,,,,,,,,,,,,,,,,,,,,,,,,,,,,,,,,,,,,,,,,,,,,,,,,,,,,,,,,,,,,,,,
1725716052.103328,1725716052.105158,134.0,0.0,4160.0,4275.512695,4366.794922,4279.871582,4266.153809,4245.0,4399.615234,4247.94873,4255.769043,4230.128418,4443.846191,4495.128418,4341.282227,4396.410156,2431.0,1.0,15.0,,,,0.0,4.0,4.0,4.0,4.0,4.0,4.0,4.0,4.0,4.0,4.0,4.0,4.0,4.0,4.0,100.0,,,,,,,,,,,,,,,,,,,,,,,,,,,,,,,,,,,,,,,,,,,,,,,,,,,,,,,,,,,,,,,,,,,,,,,,,,,,,,,,,,,,,,,,,,,,,,,,,,,,,,,,,,,,,,,,,,,,,,,,,,,,,,,,,,,
1725716052.107232,1725716052.109062,135.0,0.0,4161.666504,4276.666504,4367.94873,4280.512695,4268.077148,4244.871582,4400.256348,4247.692383,4259.487305,4230.897461,4444.615234,4498.077148,4344.358887,4399.102539,2489.0,1.0,15.0,,,,0.0,4.0,4.0,4.0,4.0,4.0,4.0,4.0,4.0,4.0,4.0,4.0,4.0,4.0,4.0,100.0,,,,,,,,,,,,,,,,,,,,,,,,,,,,,,,,,,,,,,,,,,,,,,,,,,,,,,,,,,,,,,,,,,,,,,,,,,,,,,,,,,,,,,,,,,,,,,,,,,,,,,,,,,,,,,,,,,,,,,,,,,,,,,,,,,,
1725716052.111137,1725716052.112966,136.0,0.0,4161.922852,4276.666504,4367.436035,4280.512695,4269.743652,4245.769043,4401.282227,4247.692383,4261.666504,4232.05127,4447.05127,4501.666504,4347.692383,4404.102539,2471.0,1.0,15.0,,,,0.0,4.0,4.0,4.0,4.0,4.0,4.0,4.0,4.0,4.0,4.0,4.0,4.0,4.0,4.0,100.0,,,,,,,,,,,,,,,,,,,,,,,,,,,,,,,,,,,,,,,,,,,,,,,,,,,,,,,,,,,,,,,,,,,,,,,,,,,,,,,,,,,,,,,,,,,,,,,,,,,,,,,,,,,,,,,,,,,,,,,,,,,,,,,,,,,
1725716052.115041,1725716052.11677,137.0,0.0,4161.538574,4276.153809,4366.410156,4280.384766,4270.128418,4246.922852,4402.307617,4248.205078,4262.307617,4233.205078,4450.512695,4505.641113,4349.615234,4408.717773,2558.0,1.0,15.0,,,,0.0,4.0,4.0,4.0,4.0,4.0,4.0,4.0,4.0,4.0,4.0,4.0,4.0,4.0,4.0,100.0,,,,,,,,,,,,,,,,,,,,,,,,,,,,,,,,,,,,,,,,,,,,,,,,,,,,,,,,,,,,,,,,,,,,,,,,,,,,,,,,,,,,,,,,,,,,,,,,,,,,,,,,,,,,,,,,,,,,,,,,,,,,,,,,,,,
1725716052.118945,1725716052.120674,138.0,0.0,4161.666504,4275.641113,4366.025879,4280.641113,4269.871582,4247.563965,4403.077148,4249.358887,4262.307617,4234.230957,4453.205078,4508.717773,4349.487305,4410.128418,2889.0,1.0,15.0,,,,0.0,4.0,4.0,4.0,4.0,4.0,4.0,4.0,4.0,4.0,4.0,4.0,4.0,4.0,4.0,100.0,,,,,,,,,,,,,,,,,,,,,,,,,,,,,,,,,,,,,,,,,,,,,,,,,,,,,,,,,,,,,,,,,,,,,,,,,,,,,,,,,,,,,,,,,,,,,,,,,,,,,,,,,,,,,,,,,,,,,,,,,,,,,,,,,,,
1725716052.122849,1725716052.124579,139.0,0.0,4163.333496,4275.384766,4367.05127,4280.897461,4270.384766,4246.410156,4403.846191,4250.512695,4261.794922,4234.358887,4453.589844,4509.358887,4347.692383,4407.436035,3114.0,1.0,15.0,,,,0.0,4.0,4.0,4.0,4.0,4.0,4.0,4.0,4.0,4.0,4.0,4.0,4.0,4.0,4.0,100.0,,,,,,,,,,,,,,,,,,,,,,,,,,,,,,,,,,,,,,,,,,,,,,,,,,,,,,,,,,,,,,,,,,,,,,,,,,,,,,,,,,,,,,,,,,,,,,,,,,,,,,,,,,,,,,,,,,,,,,,,,,,,,,,,,,,
1725716052.126753,1725716052.128583,140.0,0.0,4165.512695,4275.512695,4368.974121,4280.512695,4272.05127,4243.461426,4404.871582,4251.025879,4259.358887,4233.333496,4451.153809,4506.922852,4345.384766,4402.692383,3396.0,1.0,15.0,,,,0.0,4.0,4.0,4.0,4.0,4.0,4.0,4.0,4.0,4.0,4.0,4.0,4.0,4.0,4.0,100.0,,,,,,,,,,,,,,,,,,,,,,,,,,,,,,,,,,,,,,,,,,,,,,,,,,,,,,,,0.0,0.0,64.0,0.121784,1.0,0.0,,,,,,,,,,,,,,,,,,,,,,,,,,,,,,,,,,,,,,,,,,,,,,,,,,,,,,,,,,,,,,,,,,,,,,
1725716052.130657,1725716052.132487,141.0,0.0,4167.179688,4276.025879,4370.128418,4279.487305,4274.102539,4239.358887,4405.897461,4250.256348,4254.743652,4231.153809,4447.05127,4502.05127,4343.077148,4398.461426,3814.0,1.0,15.0,,,,0.0,4.0,4.0,4.0,4.0,4.0,4.0,4.0,4.0,4.0,4.0,4.0,4.0,4.0,4.0,100.0,,,,,,,,,,,,,,,,,,,,,,,,,,,,,,,,,,,,,,,,,,,,,,,,,,,,,,,,,,,,,,,,,,,,,,,,,,,,,,,,,,,,,,,,,,,,,,,,,,,,,,,,,,,,,,,,,,,,,,,,,,,,,,,,,,,
1725716052.134561,1725716052.136391,142.0,0.0,4167.563965,4276.666504,4369.230957,4278.461426,4274.487305,4235.641113,4406.410156,4248.589844,4250.0,4228.974121,4443.077148,4497.05127,4341.153809,4396.666504,2889.0,1.0,15.0,,,,0.0,4.0,4.0,4.0,4.0,4.0,4.0,4.0,4.0,4.0,4.0,4.0,4.0,4.0,4.0,100.0,,,,,,,,,,,,,,,,,,,,,,,,,,,,,,,,,,,,,,,,,,,,,,,,,,,,,,,,,,,,,,,,,,,,,,,,,,,,,,,,,,,,,,,,,,,,,,,,,,,,,,,,,,,,,,,,,,,,,,,,,,,,,,,,,,,
1725716052.138465,1725716052.140295,143.0,0.0,4167.05127,4276.538574,4366.153809,4277.820313,4272.436035,4233.333496,4405.641113,4247.179688,4248.205078,4227.94873,4440.769043,4493.461426,4340.256348,4396.922852,3114.0,1.0,15.0,,,,0.0,4.0,4.0,4.0,4.0,4.0,4.0,4.0,4.0,4.0,4.0,4.0,4.0,4.0,4.0,100.0,,,,,,,,,,,,,,,,,,,,,,,,,,,,,,,,,,,,,,,,,,,,,,,,,,,,,,,,,,,,,,,,,,,,,,,,,,,,,,,,,,,,,,,,,,,,,,,,,,,,,,,,,,,,,,,,,,,,,,,,,,,,,,,,,,,
1725716052.142369,1725716052.144299,144.0,0.0,4166.794922,4275.0,4361.922852,4277.692383,4268.974121,4232.94873,4403.589844,4247.179688,4250.128418,4228.717773,4441.025879,4491.922852,4340.897461,4397.307617,3396.0,1.0,15.0,,,,0.0,4.0,4.0,4.0,4.0,4.0,4.0,4.0,4.0,4.0,4.0,4.0,4.0,4.0,4.0,100.0,,,,,,,,,,,,,,,,,,,,,,,,,,,,,,,,,,,,,,,,,,,,,,,,,,,,,,,,,,,,,,,,,,,,,,,,,,,,,,,,,,,,,,,,,,,,,,,,,,,,,,,,,,,,,,,,,,,,,,,,,,,,,,,,,,,
1725716052.146273,1725716052.148203,145.0,0.0,4167.307617,4272.436035,4358.461426,4277.692383,4266.025879,4233.717773,4400.897461,4248.461426,4253.846191,4230.384766,4443.333496,4491.794922,4342.692383,4396.666504,3814.0,1.0,15.0,,,,0.0,4.0,4.0,4.0,4.0,4.0,4.0,4.0,4.0,4.0,4.0,4.0,4.0,4.0,4.0,100.0,,,,,,,,,,,,,,,,,,,,,,,,,,,,,,,,,,,,,,,,,,,,,,,,,,,,,,,,,,,,,,,,,,,,,,,,,,,,,,,,,,,,,,,,,,,,,,,,,,,,,,,,,,,,,,,,,,,,,,,,,,,,,,,,,,,
1725716052.150177,1725716052.152107,146.0,0.0,4168.333496,4269.102539,4356.794922,4277.692383,4265.256348,4234.358887,4398.717773,4250.512695,4256.282227,4231.666504,4445.897461,4492.179688,4344.358887,4395.641113,2889.0,1.0,15.0,,,,0.0,4.0,4.0,4.0,4.0,4.0,4.0,4.0,4.0,4.0,4.0,4.0,4.0,4.0,4.0,100.0,,,,,,,,,,,,,,,,,,,,,,,,,,,,,,,,,,,,,,,,,,,,,,,,,,,,,,,,,,,,,,,,,,,,,,,,,,,,,,,,,,,,,,,,,,,,,,,,,,,,,,,,,,,,,,,,,,,,,,,,,,,,,,,,,,,
1725716052.154081,1725716052.156011,147.0,0.0,4168.717773,4266.025879,4356.794922,4277.436035,4266.025879,4234.102539,4397.820313,4251.922852,4256.025879,4231.794922,4447.05127,4493.077148,4344.743652,4395.384766,3114.0,1.0,15.0,,,,0.0,4.0,4.0,4.0,4.0,4.0,4.0,4.0,4.0,4.0,4.0,4.0,4.0,4.0,4.0,100.0,,,,,,,,,,,,,,,,,,,,,,,,,,,,,,,,,,,,,,,,,,,,,,,,,,,,,,,,,,,,,,,,,,,,,,,,,,,,,,,,,,,,,,,,,,,,,,,,,,,,,,,,,,,,,,,,,,,,,,,,,,,,,,,,,,,
1725716052.157986,1725716052.160015,148.0,0.0,4168.333496,4263.846191,4357.436035,4277.179688,4266.794922,4233.205078,4398.205078,4252.307617,4254.230957,4230.769043,4446.025879,4494.615234,4343.461426,4396.153809,3396.0,1.0,15.0,,,,0.0,4.0,4.0,4.0,4.0,4.0,4.0,4.0,4.0,4.0,4.0,4.0,4.0,4.0,4.0,100.0,,,,,,,,,,,,,,,,,1.0,0.0,0.0,,,,,,,,,,,,,,,,,,,,,,,,,,,,,,,,,,,,,0.0,0.0,64.0,0.093939,1.0,0.0,5.697804,1.86828,0.742629,0.223487,0.104604,1.606614,0.976746,0.607901,0.140605,0.088803,2.227983,1.206798,0.694975,0.199028,0.051709,6.179965,3.492549,0.641242,0.357168,0.095323,0.707817,0.4448,0.187227,0.06665,0.031733,0.388816,0.527741,0.051347,0.06087,0.042673,1.757855,0.281474,0.259623,0.155134,0.089998,1.298728,1.403224,0.7885,0.241866,0.072459,1.327857,0.973009,0.611143,0.254578,0.081428,2.241049,0.752482,0.712009,0.285224,0.112369,4.580177,1.668017,1.068401,0.346297,0.131556,6.4175,2.628728,0.853346,0.432741,0.174281,3.124057,1.168904,0.854904,0.362054,0.137591,4.420556,1.649325,0.853225,0.263252,0.112459
1725716052.16189,1725716052.163919,149.0,0.0,4168.077148,4262.820313,4357.820313,4277.179688,4266.922852,4232.692383,4399.358887,4252.05127,4252.820313,4229.487305,4444.102539,4497.436035,4341.666504,4396.794922,3814.0,1.0,15.0,,,,0.0,4.0,4.0,4.0,4.0,4.0,4.0,4.0,4.0,4.0,4.0,4.0,4.0,4.0,4.0,100.0,,,,,,,,,,,,,,,,,,,,,,,,,,,,,,,,,,,,,,,,,,,,,,,,,,,,,,,,,,,,,,,,,,,,,,,,,,,,,,,,,,,,,,,,,,,,,,,,,,,,,,,,,,,,,,,,,,,,,,,,,,,,,,,,,,,
1725716052.165794,1725716052.167823,150.0,0.0,4169.230957,4262.692383,4357.820313,4277.94873,4267.05127,4233.077148,4400.128418,4251.666504,4252.692383,4229.230957,4443.717773,4500.897461,4341.282227,4397.05127,2889.0,1.0,15.0,,,,0.0,4.0,4.0,4.0,4.0,4.0,4.0,4.0,4.0,4.0,4.0,4.0,4.0,4.0,4.0,100.0,,,,,,,,,,,,,,,,,,,,,,,,,,,,,,,,,,,,,,,,,,,,,,,,,,,,,,,,,,,,,,,,,,,,,,,,,,,,,,,,,,,,,,,,,,,,,,,,,,,,,,,,,,,,,,,,,,,,,,,,,,,,,,,,,,,
1725716052.169698,1725716052.171727,151.0,0.0,4172.820313,4263.589844,4358.205078,4279.487305,4267.307617,4233.717773,4399.487305,4251.025879,4253.333496,4230.256348,4445.897461,4504.615234,4343.077148,4397.307617,3114.0,1.0,15.0,,,,0.0,4.0,4.0,4.0,4.0,4.0,4.0,4.0,4.0,4.0,4.0,4.0,4.0,4.0,4.0,100.0,,,,,,,,,,,,,,,,,,,,,,,,,,,,,,,,,,,,,,,,,,,,,,,,,,,,,,,,,,,,,,,,,,,,,,,,,,,,,,,,,,,,,,,,,,,,,,,,,,,,,,,,,,,,,,,,,,,,,,,,,,,,,,,,,,,
1725716052.173602,1725716052.175731,152.0,0.0,4177.692383,4265.384766,4359.615234,4281.666504,4267.179688,4233.974121,4397.692383,4250.128418,4253.589844,4232.436035,4450.256348,4507.307617,4346.282227,4398.974121,3396.0,1.0,15.0,,,,0.0,4.0,4.0,4.0,4.0,4.0,4.0,4.0,4.0,4.0,4.0,4.0,4.0,4.0,4.0,100.0,,,,,,,,,,,,,,,,,,,,,,,,,,,,,,,,,,,,,,,,,,,,,,,,,,,,,,,,,,,,,,,,,,,,,,,,,,,,,,,,,,,,,,,,,,,,,,,,,,,,,,,,,,,,,,,,,,,,,,,,,,,,,,,,,,,
1725716052.177506,1725716052.179636,153.0,0.0,4182.05127,4267.820313,4362.179688,4284.487305,4266.025879,4233.461426,4396.025879,4249.615234,4253.077148,4234.358887,4455.0,4508.333496,4348.974121,4402.436035,3814.0,1.0,15.0,,,,0.0,4.0,4.0,4.0,4.0,4.0,4.0,4.0,4.0,4.0,4.0,4.0,4.0,4.0,4.0,100.0,,,,,,,,,,,,,,,,,,,,,,,,,,,,,,,,,,,,,,,,,,,,,,,,,,,,,,,,,,,,,,,,,,,,,,,,,,,,,,,,,,,,,,,,,,,,,,,,,,,,,,,,,,,,,,,,,,,,,,,,,,,,,,,,,,,
1725716052.18141,1725716052.18354,154.0,0.0,4185.0,4270.384766,4365.128418,4287.05127,4264.615234,4232.563965,4396.282227,4249.871582,4252.692383,4235.512695,4458.333496,4508.205078,4348.974121,4406.025879,2889.0,1.0,15.0,,,,0.0,4.0,4.0,4.0,4.0,4.0,4.0,4.0,4.0,4.0,4.0,4.0,4.0,4.0,4.0,100.0,,,,,,,,,,,,,,,,,,,,,,,,,,,,,,,,,,,,,,,,,,,,,,,,,,,,,,,,,,,,,,,,,,,,,,,,,,,,,,,,,,,,,,,,,,,,,,,,,,,,,,,,,,,,,,,,,,,,,,,,,,,,,,,,,,,
1725716052.185314,1725716052.187444,155.0,0.0,4186.666504,4272.179688,4367.179688,4288.846191,4264.358887,4232.179688,4398.589844,4251.282227,4253.974121,4235.897461,4459.358887,4507.94873,4346.410156,4407.820313,3114.0,1.0,15.0,,,,0.0,4.0,4.0,4.0,4.0,4.0,4.0,4.0,4.0,4.0,4.0,4.0,4.0,4.0,4.0,100.0,,,,,,,,,,,,,,,,,,,,,,,,,,,,,,,,,,,,,,,,,,,,,,,,,,,,,,,,,,,,,,,,,,,,,,,,,,,,,,,,,,,,,,,,,,,,,,,,,,,,,,,,,,,,,,,,,,,,,,,,,,,,,,,,,,,
1725716052.189218,1725716052.191348,156.0,0.0,4187.820313,4273.077148,4367.563965,4289.230957,4266.153809,4232.563965,4402.307617,4252.820313,4257.436035,4236.410156,4458.717773,4508.589844,4343.461426,4407.179688,3396.0,1.0,15.0,,,,0.0,4.0,4.0,4.0,4.0,4.0,4.0,4.0,4.0,4.0,4.0,4.0,4.0,4.0,4.0,100.0,,,,,,,,,,,,,,,,,,,,,,,,,,,,,,,,,,,,,,,,,,,,,,,,,,,,,,,,0.0,0.0,64.0,0.093939,1.0,0.0,,,,,,,,,,,,,,,,,,,,,,,,,,,,,,,,,,,,,,,,,,,,,,,,,,,,,,,,,,,,,,,,,,,,,,
1725716052.193123,1725716052.195152,157.0,0.0,4188.717773,4273.205078,4367.05127,4287.94873,4269.102539,4232.692383,4405.0,4253.333496,4261.666504,4236.922852,4457.94873,4510.128418,4342.94873,4405.384766,3814.0,1.0,15.0,,,,0.0,4.0,4.0,4.0,4.0,4.0,4.0,4.0,4.0,4.0,4.0,4.0,4.0,4.0,4.0,100.0,,,,,,,,,,,,,,,,,,,,,,,,,,,,,,,,,,,,,,,,,,,,,,,,,,,,,,,,,,,,,,,,,,,,,,,,,,,,,,,,,,,,,,,,,,,,,,,,,,,,,,,,,,,,,,,,,,,,,,,,,,,,,,,,,,,
1725716052.197027,1725716052.199056,158.0,0.0,4190.0,4273.077148,4366.666504,4285.641113,4271.410156,4231.922852,4405.0,4252.692383,4264.230957,4237.05127,4458.333496,4511.282227,4346.153809,4404.230957,2889.0,1.0,15.0,,,,0.0,4.0,4.0,4.0,4.0,4.0,4.0,4.0,4.0,4.0,4.0,4.0,4.0,4.0,4.0,100.0,,,,,,,,,,,,,,,,,,,,,,,,,,,,,,,,,,,,,,,,,,,,,,,,,,,,,,,,,,,,,,,,,,,,,,,,,,,,,,,,,,,,,,,,,,,,,,,,,,,,,,,,,,,,,,,,,,,,,,,,,,,,,,,,,,,
1725716052.200931,1725716052.20296,159.0,0.0,4191.410156,4273.205078,4367.307617,4282.94873,4271.153809,4230.256348,4402.05127,4251.666504,4263.717773,4235.897461,4459.871582,4511.153809,4351.153809,4404.615234,3114.0,1.0,15.0,,,,0.0,4.0,4.0,4.0,4.0,4.0,4.0,4.0,4.0,4.0,4.0,4.0,4.0,4.0,4.0,100.0,,,,,,,,,,,,,,,,,,,,,,,,,,,,,,,,,,,,,,,,,,,,,,,,,,,,,,,,,,,,,,,,,,,,,,,,,,,,,,,,,,,,,,,,,,,,,,,,,,,,,,,,,,,,,,,,,,,,,,,,,,,,,,,,,,,
1725716052.204835,1725716052.206765,160.0,0.0,4193.077148,4273.589844,4368.333496,4280.769043,4268.846191,4228.717773,4397.94873,4251.282227,4261.410156,4233.974121,4461.153809,4510.0,4353.974121,4406.282227,3396.0,1.0,15.0,,,,0.0,4.0,4.0,4.0,4.0,4.0,4.0,4.0,4.0,4.0,4.0,4.0,4.0,4.0,4.0,100.0,,,,,,,,,,,,,,,,,,,,,,,,,,,,,,,,,,,,,,,,,,,,,,,,,,,,,,,,,,,,,,,,,,,,,,,,,,,,,,,,,,,,,,,,,,,,,,,,,,,,,,,,,,,,,,,,,,,,,,,,,,,,,,,,,,,
1725716052.208739,1725716052.210669,161.0,0.0,4194.871582,4273.974121,4368.589844,4280.0,4266.153809,4228.077148,4395.256348,4252.692383,4259.487305,4233.205078,4461.282227,4508.205078,4352.692383,4407.94873,3814.0,1.0,15.0,,,,0.0,4.0,4.0,4.0,4.0,4.0,4.0,4.0,4.0,4.0,4.0,4.0,4.0,4.0,4.0,100.0,,,,,,,,,,,,,,,,,,,,,,,,,,,,,,,,,,,,,,,,,,,,,,,,,,,,,,,,,,,,,,,,,,,,,,,,,,,,,,,,,,,,,,,,,,,,,,,,,,,,,,,,,,,,,,,,,,,,,,,,,,,,,,,,,,,
1725716052.212643,1725716052.214573,162.0,0.0,4196.794922,4274.487305,4367.05127,4281.282227,4265.256348,4228.589844,4396.025879,4255.897461,4260.128418,4235.384766,4460.384766,4506.922852,4348.974121,4408.589844,2889.0,1.0,15.0,,,,0.0,4.0,4.0,4.0,4.0,4.0,4.0,4.0,4.0,4.0,4.0,4.0,4.0,4.0,4.0,100.0,,,,,,,,,,,,,,,,,,,,,,,,,,,,,,,,,,,,,,,,,,,,,,,,,,,,,,,,,,,,,,,,,,,,,,,,,,,,,,,,,,,,,,,,,,,,,,,,,,,,,,,,,,,,,,,,,,,,,,,,,,,,,,,,,,,
1725716052.216547,1725716052.218477,163.0,0.0,4198.461426,4275.0,4363.717773,4284.230957,4267.179688,4230.0,4400.256348,4259.871582,4262.692383,4240.0,4459.743652,4506.666504,4346.538574,4408.205078,3114.0,1.0,15.0,,,,0.0,4.0,4.0,4.0,4.0,4.0,4.0,4.0,4.0,4.0,4.0,4.0,4.0,4.0,4.0,100.0,,,,,,,,,,,,,,,,,,,,,,,,,,,,,,,,,,,,,,,,,,,,,,,,,,,,,,,,,,,,,,,,,,,,,,,,,,,,,,,,,,,,,,,,,,,,,,,,,,,,,,,,,,,,,,,,,,,,,,,,,,,,,,,,,,,
1725716052.220451,1725716052.222281,164.0,0.0,4199.743652,4276.153809,4359.871582,4288.077148,4270.512695,4231.794922,4405.512695,4263.205078,4265.128418,4244.102539,4460.512695,4507.563965,4348.717773,4408.077148,3396.0,1.0,15.0,,,,0.0,4.0,4.0,4.0,4.0,4.0,4.0,4.0,4.0,4.0,4.0,4.0,4.0,4.0,4.0,100.0,,,,,,,,,,,,,,,,,,,,,,,,,,,,,,,,,,,,,,,,,,,,,,,,,,,,,,,,0.0,0.0,64.0,0.093939,1.0,0.0,,,,,,,,,,,,,,,,,,,,,,,,,,,,,,,,,,,,,,,,,,,,,,,,,,,,,,,,,,,,,,,,,,,,,,
1725716052.224355,1725716052.226185,165.0,0.0,4200.641113,4278.077148,4357.307617,4291.794922,4273.589844,4232.692383,4409.102539,4264.871582,4265.897461,4244.871582,4462.179688,4509.871582,4355.0,4409.615234,3814.0,1.0,15.0,,,,0.0,4.0,4.0,4.0,4.0,4.0,4.0,4.0,4.0,4.0,4.0,4.0,4.0,4.0,4.0,100.0,,,,,,,,,,,,,,,,,,,,,,,,,,,,,,,,,,,,,,,,,,,,,,,,,,,,,,,,,,,,,,,,,,,,,,,,,,,,,,,,,,,,,,,,,,,,,,,,,,,,,,,,,,,,,,,,,,,,,,,,,,,,,,,,,,,
1725716052.228259,1725716052.230089,166.0,0.0,4201.794922,4280.384766,4357.563965,4294.358887,4274.743652,4232.307617,4409.871582,4265.0,4265.641113,4241.922852,4463.333496,4513.589844,4361.922852,4412.563965,2889.0,1.0,15.0,,,,0.0,4.0,4.0,4.0,4.0,4.0,4.0,4.0,4.0,4.0,4.0,4.0,4.0,4.0,4.0,100.0,,,,,,,,,,,,,,,,,,,,,,,,,,,,,,,,,,,,,,,,,,,,,,,,,,,,,,,,,,,,,,,,,,,,,,,,,,,,,,,,,,,,,,,,,,,,,,,,,,,,,,,,,,,,,,,,,,,,,,,,,,,,,,,,,,,
1725716052.232164,1725716052.234093,167.0,0.0,4203.717773,4281.922852,4360.769043,4295.256348,4274.230957,4230.769043,4408.717773,4265.0,4265.512695,4237.05127,4463.077148,4517.563965,4366.282227,4415.256348,3114.0,1.0,15.0,,,,0.0,4.0,4.0,4.0,4.0,4.0,4.0,4.0,4.0,4.0,4.0,4.0,4.0,4.0,4.0,100.0,,,,,,,,,,,,,,,,,,,,,,,,,,,,,,,,,,,,,,,,,,,,,,,,,,,,,,,,,,,,,,,,,,,,,,,,,,,,,,,,,,,,,,,,,,,,,,,,,,,,,,,,,,,,,,,,,,,,,,,,,,,,,,,,,,,
1725716052.236068,1725716052.237997,168.0,0.0,4207.179688,4281.666504,4365.128418,4294.615234,4273.077148,4229.743652,4407.179688,4266.538574,4266.153809,4233.589844,4462.307617,4521.153809,4366.410156,4416.025879,3396.0,1.0,15.0,,,,0.0,4.0,4.0,4.0,4.0,4.0,4.0,4.0,4.0,4.0,4.0,4.0,4.0,4.0,4.0,100.0,,,,,,,,,,,,,,,,,,,,,,,,,,,,,,,,,,,,,,,,,,,,,,,,,,,,,,,,,,,,,,,,,,,,,,,,,,,,,,,,,,,,,,,,,,,,,,,,,,,,,,,,,,,,,,,,,,,,,,,,,,,,,,,,,,,
1725716052.239972,1725716052.241901,169.0,0.0,4211.410156,4278.974121,4368.461426,4293.974121,4272.436035,4230.256348,4406.410156,4269.871582,4266.538574,4234.358887,4463.205078,4523.717773,4363.205078,4414.871582,3814.0,1.0,15.0,,,,0.0,4.0,4.0,4.0,4.0,4.0,4.0,4.0,4.0,4.0,4.0,4.0,4.0,4.0,4.0,100.0,,,,,,,,,,,,,,,,,,,,,,,,,,,,,,,,,,,,,,,,,,,,,,,,,,,,,,,,,,,,,,,,,,,,,,,,,,,,,,,,,,,,,,,,,,,,,,,,,,,,,,,,,,,,,,,,,,,,,,,,,,,,,,,,,,,
1725716052.243876,1725716052.245905,170.0,0.0,4215.128418,4274.487305,4368.846191,4294.102539,4272.307617,4231.922852,4405.769043,4273.461426,4266.282227,4239.230957,4466.538574,4525.512695,4358.846191,4413.589844,2889.0,1.0,15.0,,,,0.0,4.0,4.0,4.0,4.0,4.0,4.0,4.0,4.0,4.0,4.0,4.0,4.0,4.0,4.0,100.0,,,,,,,,,,,,,,,,,,,,,,,,,,,,,,,,,,,,,,,,,,,,,,,,,,,,,,,,,,,,,,,,,,,,,,,,,,,,,,,,,,,,,,,,,,,,,,,,,,,,,,,,,,,,,,,,,,,,,,,,,,,,,,,,,,,
1725716052.24778,1725716052.24981,171.0,0.0,4216.794922,4269.743652,4366.025879,4295.256348,4271.794922,4232.820313,4404.102539,4275.769043,4265.641113,4245.384766,4471.025879,4526.282227,4355.769043,4413.717773,3114.0,1.0,15.0,,,,0.0,4.0,4.0,4.0,4.0,4.0,4.0,4.0,4.0,4.0,4.0,4.0,4.0,4.0,4.0,100.0,,,,,,,,,,,,,,,,,,,,,,,,,,,,,,,,,,,,,,,,,,,,,,,,,,,,,,,,,,,,,,,,,,,,,,,,,,,,,,,,,,,,,,,,,,,,,,,,,,,,,,,,,,,,,,,,,,,,,,,,,,,,,,,,,,,
1725716052.251684,1725716052.253714,172.0,0.0,4216.153809,4266.282227,4361.153809,4296.282227,4270.128418,4231.410156,4401.410156,4275.897461,4265.256348,4248.846191,4474.102539,4525.128418,4355.512695,4414.871582,3396.0,1.0,15.0,,,,0.0,4.0,4.0,4.0,4.0,4.0,4.0,4.0,4.0,4.0,4.0,4.0,4.0,4.0,4.0,100.0,,,,,,,,,,,,,,,,,,,,,,,,,,,,,,,,,,,,,,,,,,,,,,,,,,,,,,,,0.0,0.0,64.0,0.093939,1.0,0.0,,,,,,,,,,,,,,,,,,,,,,,,,,,,,,,,,,,,,,,,,,,,,,,,,,,,,,,,,,,,,,,,,,,,,,
1725716052.255588,1725716052.257618,173.0,0.0,4213.974121,4265.0,4356.410156,4296.025879,4268.077148,4228.461426,4398.461426,4274.230957,4265.256348,4247.563965,4473.589844,4521.794922,4358.205078,4414.871582,3814.0,1.0,15.0,,,,0.0,4.0,4.0,4.0,4.0,4.0,4.0,4.0,4.0,4.0,4.0,4.0,4.0,4.0,4.0,100.0,,,,,,,,,,,,,,,,,,,,,,,,,,,,,,,,,,,,,,,,,,,,,,,,,,,,,,,,,,,,,,,,,,,,,,,,,,,,,,,,,,,,,,,,,,,,,,,,,,,,,,,,,,,,,,,,,,,,,,,,,,,,,,,,,,,
1725716052.259492,1725716052.261522,174.0,0.0,4212.05127,4264.871582,4353.589844,4293.589844,4266.538574,4225.641113,4396.666504,4270.641113,4265.0,4242.692383,4469.487305,4516.794922,4362.05127,4412.05127,2889.0,1.0,15.0,,,,0.0,4.0,4.0,4.0,4.0,4.0,4.0,4.0,4.0,4.0,4.0,4.0,4.0,4.0,4.0,100.0,,,,,,,,,,,,,,,,,,,,,,,,,,,,,,,,,,,,,,,,,,,,,,,,,,,,,,,,,,,,,,,,,,,,,,,,,,,,,,,,,,,,,,,,,,,,,,,,,,,,,,,,,,,,,,,,,,,,,,,,,,,,,,,,,,,
1725716052.263396,1725716052.265526,175.0,0.0,4211.538574,4264.871582,4352.563965,4289.358887,4266.025879,4224.743652,4396.282227,4265.0,4264.230957,4237.179688,4463.461426,4511.282227,4363.846191,4406.922852,3114.0,1.0,15.0,,,,0.0,4.0,4.0,4.0,4.0,4.0,4.0,4.0,4.0,4.0,4.0,4.0,4.0,4.0,4.0,100.0,,,,,,,,,,,,,,,,,,,,,,,,,,,,,,,,,,,,,,,,,,,,,,,,,,,,,,,,,,,,,,,,,,,,,,,,,,,,,,,,,,,,,,,,,,,,,,,,,,,,,,,,,,,,,,,,,,,,,,,,,,,,,,,,,,,
1725716052.2673,1725716052.26943,176.0,0.0,4212.820313,4263.974121,4352.05127,4284.487305,4266.025879,4225.769043,4396.922852,4258.333496,4262.94873,4233.717773,4458.205078,4506.794922,4361.794922,4401.282227,3396.0,1.0,15.0,,,,0.0,4.0,4.0,4.0,4.0,4.0,4.0,4.0,4.0,4.0,4.0,4.0,4.0,4.0,4.0,100.0,,,,,,,,,,,,,,,,,,,,,,,,,,,,,,,,,,,,,,,,,,,,,,,,,,,,,,,,,,,,,,,,,,,,,,,,,,,,,,,,,,,,,,,,,,,,,,,,,,,,,,,,,,,,,,,,,,,,,,,,,,,,,,,,,,,
1725716052.271205,1725716052.273334,177.0,0.0,4215.0,4262.307617,4350.256348,4280.512695,4266.025879,4226.922852,4397.179688,4252.563965,4261.794922,4232.94873,4455.512695,4503.974121,4356.794922,4397.563965,3814.0,1.0,15.0,,,,0.0,4.0,4.0,4.0,4.0,4.0,4.0,4.0,4.0,4.0,4.0,4.0,4.0,4.0,4.0,100.0,,,,,,,,,,,,,,,,,,,,,,,,,,,,,,,,,,,,,,,,,,,,,,,,,,,,,,,,,,,,,,,,,,,,,,,,,,,,,,,,,,,,,,,,,,,,,,,,,,,,,,,,,,,,,,,,,,,,,,,,,,,,,,,,,,,
1725716052.275109,1725716052.277238,178.0,0.0,4216.666504,4260.897461,4347.307617,4278.205078,4265.256348,4226.410156,4396.794922,4249.615234,4261.025879,4233.589844,4455.641113,4503.077148,4351.666504,4396.153809,2889.0,1.0,15.0,,,,0.0,4.0,4.0,4.0,4.0,4.0,4.0,4.0,4.0,4.0,4.0,4.0,4.0,4.0,4.0,100.0,,,,,,,,,,,,,,,,,,,,,,,,,,,,,,,,,,,,,,,,,,,,,,,,,,,,,,,,,,,,,,,,,,,,,,,,,,,,,,,,,,,,,,,,,,,,,,,,,,,,,,,,,,,,,,,,,,,,,,,,,,,,,,,,,,,
1725716052.279013,1725716052.281242,179.0,0.0,4216.794922,4260.0,4344.230957,4277.307617,4263.589844,4223.846191,4396.025879,4250.128418,4261.025879,4234.615234,4457.05127,4503.717773,4348.846191,4396.410156,3114.0,1.0,15.0,,,,0.0,4.0,4.0,4.0,4.0,4.0,4.0,4.0,4.0,4.0,4.0,4.0,4.0,4.0,4.0,100.0,,,,,,,,,,,,,,,,,,,,,,,,,,,,,,,,,,,,,,,,,,,,,,,,,,,,,,,,,,,,,,,,,,,,,,,,,,,,,,,,,,,,,,,,,,,,,,,,,,,,,,,,,,,,,,,,,,,,,,,,,,,,,,,,,,,
1725716052.282917,1725716052.285146,180.0,0.0,4215.641113,4259.615234,4342.820313,4277.307617,4261.794922,4220.0,4395.897461,4253.333496,4261.666504,4236.153809,4458.461426,4505.0,4349.487305,4397.05127,3396.0,1.0,15.0,,,,0.0,4.0,4.0,4.0,4.0,4.0,4.0,4.0,4.0,4.0,4.0,4.0,4.0,4.0,4.0,100.0,1.0,50.0,1.0,4.0,4.0,4.0,4.0,4.0,1.0,4.0,4.0,4.0,4.0,4.0,4.0,4.0,1.0,0.0,0.0,,,,,,,,,,,,,,,,,,,,,,,,,,,,,,,,,,,,,0.0,0.0,64.0,0.127095,1.0,0.0,3.661259,1.442372,0.632855,0.200776,0.100415,1.559579,0.985086,0.689452,0.172963,0.093819,2.348479,1.127328,0.691678,0.197021,0.054777,6.750255,3.712322,0.614736,0.332137,0.102017,0.716205,0.527164,0.159491,0.069238,0.032323,0.360511,0.610924,0.078576,0.062048,0.043517,1.376287,0.436464,0.340456,0.16893,0.087663,1.322017,1.149594,0.833504,0.233701,0.067268,1.207218,0.907881,0.639907,0.214735,0.083467,2.264481,0.70027,0.718938,0.280564,0.114846,4.527039,1.639589,1.190792,0.331399,0.141146,5.740037,2.360862,0.921605,0.376734,0.160072,2.900817,1.015669,0.971358,0.34468,0.135904,4.354734,1.473708,0.969818,0.242901,0.119548
1725716052.286821,1725716052.28905,181.0,0.0,4214.871582,4259.230957,4343.717773,4277.563965,4260.769043,4216.794922,4396.666504,4257.179688,4262.820313,4238.589844,4458.974121,4505.897461,4352.563965,4397.94873,3814.0,1.0,15.0,,,,0.0,4.0,4.0,4.0,4.0,4.0,4.0,4.0,4.0,4.0,4.0,4.0,4.0,4.0,4.0,100.0,,,,,,,,,,,,,,,,,,,,,,,,,,,,,,,,,,,,,,,,,,,,,,,,,,,,,,,,,,,,,,,,,,,,,,,,,,,,,,,,,,,,,,,,,,,,,,,,,,,,,,,,,,,,,,,,,,,,,,,,,,,,,,,,,,,
1725716052.290725,1725716052.292954,182.0,0.0,4216.538574,4259.230957,4346.666504,4277.692383,4261.025879,4215.384766,4397.94873,4260.128418,4263.717773,4241.666504,4459.358887,4505.897461,4356.666504,4399.487305,2889.0,1.0,15.0,,,,0.0,4.0,4.0,4.0,4.0,4.0,4.0,4.0,4.0,4.0,4.0,4.0,4.0,4.0,4.0,100.0,,,,,,,,,,,,,,,,,,,,,,,,,,,,,,,,,,,,,,,,,,,,,,,,,,,,,,,,,,,,,,,,,,,,,,,,,,,,,,,,,,,,,,,,,,,,,,,,,,,,,,,,,,,,,,,,,,,,,,,,,,,,,,,,,,,
1725716052.294629,1725716052.296859,183.0,0.0,4221.666504,4260.256348,4350.256348,4277.692383,4262.436035,4216.153809,4399.230957,4261.153809,4264.358887,4244.615234,4460.0,4505.384766,4360.384766,4402.436035,3114.0,1.0,15.0,,,,0.0,4.0,4.0,4.0,4.0,4.0,4.0,4.0,4.0,4.0,4.0,4.0,4.0,4.0,4.0,100.0,,,,,,,,,,,,,,,,,,,,,,,,,,,,,,,,,,,,,,,,,,,,,,,,,,,,,,,,,,,,,,,,,,,,,,,,,,,,,,,,,,,,,,,,,,,,,,,,,,,,,,,,,,,,,,,,,,,,,,,,,,,,,,,,,,,
1725716052.298533,1725716052.300663,184.0,0.0,4229.615234,4263.333496,4353.077148,4278.589844,4264.358887,4217.436035,4400.769043,4260.769043,4264.487305,4246.538574,4461.025879,4505.128418,4362.563965,4406.794922,3396.0,1.0,15.0,,,,0.0,4.0,4.0,4.0,4.0,4.0,4.0,4.0,4.0,4.0,4.0,4.0,4.0,4.0,4.0,100.0,,,,,,,,,,,,,,,,,,,,,,,,,,,,,,,,,,,,,,,,,,,,,,,,,,,,,,,,,,,,,,,,,,,,,,,,,,,,,,,,,,,,,,,,,,,,,,,,,,,,,,,,,,,,,,,,,,,,,,,,,,,,,,,,,,,
1725716052.302437,1725716052.304567,185.0,0.0,4238.205078,4267.94873,4354.871582,4281.282227,4265.641113,4218.461426,4402.692383,4260.128418,4264.743652,4246.922852,4462.05127,4506.282227,4363.205078,4411.282227,3814.0,1.0,15.0,,,,0.0,4.0,4.0,4.0,4.0,4.0,4.0,4.0,4.0,4.0,4.0,4.0,4.0,4.0,4.0,100.0,,,,,,,,,,,,,,,,,,,,,,,,,,,,,,,,,,,,,,,,,,,,,,,,,,,,,,,,,,,,,,,,,,,,,,,,,,,,,,,,,,,,,,,,,,,,,,,,,,,,,,,,,,,,,,,,,,,,,,,,,,,,,,,,,,,
1725716052.306342,1725716052.308471,186.0,0.0,4245.0,4272.436035,4355.897461,4285.641113,4266.025879,4218.589844,4405.897461,4261.025879,4265.128418,4246.025879,4463.589844,4509.871582,4363.333496,4414.487305,2889.0,1.0,15.0,,,,0.0,4.0,4.0,4.0,4.0,4.0,4.0,4.0,4.0,4.0,4.0,4.0,4.0,4.0,4.0,100.0,,,,,,,,,,,,,,,,,,,,,,,,,,,,,,,,,,,,,,,,,,,,,,,,,,,,,,,,,,,,,,,,,,,,,,,,,,,,,,,,,,,,,,,,,,,,,,,,,,,,,,,,,,,,,,,,,,,,,,,,,,,,,,,,,,,
1725716052.310246,1725716052.312275,187.0,0.0,4248.846191,4275.0,4356.666504,4290.641113,4265.769043,4218.717773,4409.871582,4263.461426,4266.025879,4245.128418,4466.794922,4516.025879,4364.230957,4416.025879,3114.0,1.0,15.0,,,,0.0,4.0,4.0,4.0,4.0,4.0,4.0,4.0,4.0,4.0,4.0,4.0,4.0,4.0,4.0,100.0,,,,,,,,,,,,,,,,,,,,,,,,,,,,,,,,,,,,,,,,,,,,,,,,,,,,,,,,,,,,,,,,,,,,,,,,,,,,,,,,,,,,,,,,,,,,,,,,,,,,,,,,,,,,,,,,,,,,,,,,,,,,,,,,,,,
1725716052.31415,1725716052.316179,188.0,0.0,4250.0,4275.384766,4357.05127,4294.487305,4265.641113,4219.230957,4413.589844,4266.666504,4267.179688,4246.153809,4471.666504,4522.820313,4365.769043,4416.538574,3396.0,1.0,15.0,,,,0.0,4.0,4.0,4.0,4.0,4.0,4.0,4.0,4.0,4.0,4.0,4.0,4.0,4.0,4.0,100.0,,,,,,,,,,,,,,,,,,,,,,,,,,,,,,,,,,,,,,,,,,,,,,,,,,,,,,,,0.0,0.0,64.0,0.127095,1.0,0.0,,,,,,,,,,,,,,,,,,,,,,,,,,,,,,,,,,,,,,,,,,,,,,,,,,,,,,,,,,,,,,,,,,,,,,
1725716052.318054,1725716052.320083,189.0,0.0,4249.487305,4274.615234,4357.05127,4296.282227,4265.769043,4220.0,4415.256348,4268.589844,4267.94873,4248.974121,4476.025879,4527.692383,4366.794922,4417.179688,3814.0,1.0,15.0,,,,0.0,4.0,4.0,4.0,4.0,4.0,4.0,4.0,4.0,4.0,4.0,4.0,4.0,4.0,4.0,100.0,,,,,,,,,,,,,,,,,,,,,,,,,,,,,,,,,,,,,,,,,,,,,,,,,,,,,,,,,,,,,,,,,,,,,,,,,,,,,,,,,,,,,,,,,,,,,,,,,,,,,,,,,,,,,,,,,,,,,,,,,,,,,,,,,,,
1725716052.321958,1725716052.324087,190.0,0.0,4248.717773,4274.102539,4356.153809,4296.025879,4266.153809,4220.128418,4414.358887,4268.333496,4268.077148,4250.897461,4477.05127,4527.692383,4366.025879,4417.94873,2889.0,1.0,15.0,,,,0.0,4.0,4.0,4.0,4.0,4.0,4.0,4.0,4.0,4.0,4.0,4.0,4.0,4.0,4.0,100.0,,,,,,,,,,,,,,,,,,,,,,,,,,,,,,,,,,,,,,,,,,,,,,,,,,,,,,,,,,,,,,,,,,,,,,,,,,,,,,,,,,,,,,,,,,,,,,,,,,,,,,,,,,,,,,,,,,,,,,,,,,,,,,,,,,,
1725716052.325862,1725716052.327992,191.0,0.0,4249.230957,4274.358887,4354.358887,4294.615234,4266.025879,4219.230957,4411.282227,4266.922852,4266.794922,4248.974121,4473.846191,4522.563965,4363.461426,4417.820313,3114.0,1.0,15.0,,,,0.0,4.0,4.0,4.0,4.0,4.0,4.0,4.0,4.0,4.0,4.0,4.0,4.0,4.0,4.0,100.0,,,,,,,,,,,,,,,,,,,,,,,,,,,,,,,,,,,,,,,,,,,,,,,,,,,,,,,,,,,,,,,,,,,,,,,,,,,,,,,,,,,,,,,,,,,,,,,,,,,,,,,,,,,,,,,,,,,,,,,,,,,,,,,,,,,
1725716052.329766,1725716052.331896,192.0,0.0,4251.666504,4275.384766,4352.05127,4293.205078,4265.128418,4217.692383,4407.307617,4265.897461,4264.487305,4243.205078,4467.692383,4514.871582,4360.0,4416.153809,3396.0,1.0,15.0,,,,0.0,4.0,4.0,4.0,4.0,4.0,4.0,4.0,4.0,4.0,4.0,4.0,4.0,4.0,4.0,100.0,,,,,,,,,,,,,,,,,,,,,,,,,,,,,,,,,,,,,,,,,,,,,,,,,,,,,,,,,,,,,,,,,,,,,,,,,,,,,,,,,,,,,,,,,,,,,,,,,,,,,,,,,,,,,,,,,,,,,,,,,,,,,,,,,,,
1725716052.33367,1725716052.3358,193.0,0.0,4255.641113,4276.282227,4349.615234,4292.436035,4263.974121,4216.538574,4403.846191,4265.897461,4262.05127,4236.666504,4461.922852,4508.461426,4357.563965,4413.205078,3814.0,1.0,15.0,,,,0.0,4.0,4.0,4.0,4.0,4.0,4.0,4.0,4.0,4.0,4.0,4.0,4.0,4.0,4.0,100.0,,,,,,,,,,,,,,,,,,,,,,,,,,,,,,,,,,,,,,,,,,,,,,,,,,,,,,,,,,,,,,,,,,,,,,,,,,,,,,,,,,,,,,,,,,,,,,,,,,,,,,,,,,,,,,,,,,,,,,,,,,,,,,,,,,,
1725716052.337574,1725716052.339804,194.0,0.0,4259.871582,4276.410156,4347.692383,4292.179688,4263.333496,4215.769043,4401.538574,4266.410156,4260.641113,4233.461426,4458.974121,4505.897461,4357.307617,4410.769043,2889.0,1.0,15.0,,,,0.0,4.0,4.0,4.0,4.0,4.0,4.0,4.0,4.0,4.0,4.0,4.0,4.0,4.0,4.0,100.0,,,,,,,,,,,,,,,,,,,,,,,,,,,,,,,,,,,,,,,,,,,,,,,,,,,,,,,,,,,,,,,,,,,,,,,,,,,,,,,,,,,,,,,,,,,,,,,,,,,,,,,,,,,,,,,,,,,,,,,,,,,,,,,,,,,
1725716052.341478,1725716052.343708,195.0,0.0,4263.205078,4275.897461,4345.769043,4291.666504,4263.333496,4215.384766,4401.025879,4266.538574,4261.025879,4235.384766,4459.102539,4506.666504,4359.487305,4410.641113,3114.0,1.0,15.0,,,,0.0,4.0,4.0,4.0,4.0,4.0,4.0,4.0,4.0,4.0,4.0,4.0,4.0,4.0,4.0,100.0,,,,,,,,,,,,,,,,,,,,,,,,,,,,,,,,,,,,,,,,,,,,,,,,,,,,,,,,,,,,,,,,,,,,,,,,,,,,,,,,,,,,,,,,,,,,,,,,,,,,,,,,,,,,,,,,,,,,,,,,,,,,,,,,,,,
1725716052.345383,1725716052.347612,196.0,0.0,4265.256348,4275.256348,4343.717773,4291.025879,4264.102539,4215.641113,4402.05127,4265.641113,4262.692383,4241.282227,4460.897461,4508.974121,4363.461426,4412.307617,3396.0,1.0,15.0,,,,0.0,4.0,4.0,4.0,4.0,4.0,4.0,4.0,4.0,4.0,4.0,4.0,4.0,4.0,4.0,100.0,,,,,,,,,,,,,,,,,,,,,,,,,,,,,,,,,,,,,,,,,,,,,,,,,,,,,,,,0.0,0.0,64.0,0.127095,1.0,0.0,,,,,,,,,,,,,,,,,,,,,,,,,,,,,,,,,,,,,,,,,,,,,,,,,,,,,,,,,,,,,,,,,,,,,,
1725716052.349287,1725716052.351616,197.0,0.0,4266.922852,4274.871582,4342.179688,4290.512695,4265.128418,4216.666504,4403.461426,4263.589844,4264.358887,4247.563965,4462.563965,4510.512695,4366.922852,4414.102539,3814.0,1.0,15.0,,,,0.0,4.0,4.0,4.0,4.0,4.0,4.0,4.0,4.0,4.0,4.0,4.0,4.0,4.0,4.0,100.0,,,,,,,,,,,,,,,,,,,,,,,,,,,,,,,,,,,,,,,,,,,,,,,,,,,,,,,,,,,,,,,,,,,,,,,,,,,,,,,,,,,,,,,,,,,,,,,,,,,,,,,,,,,,,,,,,,,,,,,,,,,,,,,,,,,
1725716052.353191,1725716052.35552,198.0,0.0,4268.717773,4274.487305,4341.794922,4291.410156,4265.897461,4217.436035,4403.461426,4261.025879,4264.615234,4250.769043,4463.461426,4510.769043,4367.94873,4414.230957,2889.0,1.0,15.0,,,,0.0,4.0,4.0,4.0,4.0,4.0,4.0,4.0,4.0,4.0,4.0,4.0,4.0,4.0,4.0,100.0,,,,,,,,,,,,,,,,,,,,,,,,,,,,,,,,,,,,,,,,,,,,,,,,,,,,,,,,,,,,,,,,,,,,,,,,,,,,,,,,,,,,,,,,,,,,,,,,,,,,,,,,,,,,,,,,,,,,,,,,,,,,,,,,,,,
1725716052.357095,1725716052.359424,199.0,0.0,4271.025879,4273.589844,4342.436035,4293.461426,4265.769043,4216.666504,4400.769043,4259.102539,4263.077148,4249.871582,4463.333496,4510.256348,4366.025879,4412.307617,3114.0,1.0,15.0,,,,0.0,4.0,4.0,4.0,4.0,4.0,4.0,4.0,4.0,4.0,4.0,4.0,4.0,4.0,4.0,100.0,,,,,,,,,,,,,,,,,,,,,,,,,,,,,,,,,,,,,,,,,,,,,,,,,,,,,,,,,,,,,,,,,,,,,,,,,,,,,,,,,,,,,,,,,,,,,,,,,,,,,,,,,,,,,,,,,,,,,,,,,,,,,,,,,,,
1725716052.360999,1725716052.363328,200.0,0.0,4273.333496,4272.563965,4342.94873,4294.871582,4265.128418,4213.717773,4395.641113,4258.589844,4260.769043,4246.538574,4462.05127,4509.102539,4362.307617,4409.358887,3396.0,1.0,15.0,,,,0.0,4.0,4.0,4.0,4.0,4.0,4.0,4.0,4.0,4.0,4.0,4.0,4.0,4.0,4.0,100.0,,,,,,,,,,,,,,,,,,,,,,,,,,,,,,,,,,,,,,,,,,,,,,,,,,,,,,,,,,,,,,,,,,,,,,,,,,,,,,,,,,,,,,,,,,,,,,,,,,,,,,,,,,,,,,,,,,,,,,,,,,,,,,,,,,,
1725716052.364903,1725716052.367232,201.0,0.0,4274.743652,4272.05127,4342.692383,4295.0,4264.358887,4210.0,4390.384766,4259.230957,4259.615234,4243.846191,4460.128418,4507.436035,4359.230957,4406.666504,3814.0,1.0,15.0,,,,0.0,4.0,4.0,4.0,4.0,4.0,4.0,4.0,4.0,4.0,4.0,4.0,4.0,4.0,4.0,100.0,,,,,,,,,,,,,,,,,,,,,,,,,,,,,,,,,,,,,,,,,,,,,,,,,,,,,,,,,,,,,,,,,,,,,,,,,,,,,,,,,,,,,,,,,,,,,,,,,,,,,,,,,,,,,,,,,,,,,,,,,,,,,,,,,,,
1725716052.368807,1725716052.371136,202.0,0.0,4274.743652,4272.820313,4341.538574,4294.487305,4263.974121,4207.563965,4387.436035,4260.384766,4260.384766,4243.846191,4458.461426,4505.769043,4358.205078,4405.256348,2889.0,1.0,15.0,,,,0.0,4.0,4.0,4.0,4.0,4.0,4.0,4.0,4.0,4.0,4.0,4.0,4.0,4.0,4.0,100.0,,,,,,,,,,,,,,,,,,,,,,,,,,,,,,,,,,,,,,,,,,,,,,,,,,,,,,,,,,,,,,,,,,,,,,,,,,,,,,,,,,,,,,,,,,,,,,,,,,,,,,,,,,,,,,,,,,,,,,,,,,,,,,,,,,,
1725716052.372711,1725716052.375041,203.0,0.0,4274.102539,4275.0,4340.384766,4295.0,4264.102539,4207.436035,4387.563965,4261.410156,4262.563965,4245.769043,4458.846191,4505.384766,4359.487305,4405.769043,3114.0,1.0,15.0,,,,0.0,4.0,4.0,4.0,4.0,4.0,4.0,4.0,4.0,4.0,4.0,4.0,4.0,4.0,4.0,100.0,,,,,,,,,,,,,,,,,,,,,,,,,,,,,,,,,,,,,,,,,,,,,,,,,,,,,,,,,,,,,,,,,,,,,,,,,,,,,,,,,,,,,,,,,,,,,,,,,,,,,,,,,,,,,,,,,,,,,,,,,,,,,,,,,,,
1725716052.376615,1725716052.378945,204.0,0.0,4274.615234,4277.436035,4340.256348,4297.436035,4264.487305,4209.615234,4389.230957,4262.179688,4264.615234,4247.820313,4462.307617,4507.820313,4362.436035,4408.846191,3396.0,1.0,15.0,,,,0.0,4.0,4.0,4.0,4.0,4.0,4.0,4.0,4.0,4.0,4.0,4.0,4.0,4.0,4.0,100.0,,,,,,,,,,,,,,,,,,,,,,,,,,,,,,,,,,,,,,,,,,,,,,,,,,,,,,,,0.0,0.0,64.0,0.127095,1.0,0.0,,,,,,,,,,,,,,,,,,,,,,,,,,,,,,,,,,,,,,,,,,,,,,,,,,,,,,,,,,,,,,,,,,,,,,
1725716052.380519,1725716052.382849,205.0,0.0,4277.94873,4279.102539,4342.179688,4300.384766,4265.0,4212.563965,4390.512695,4262.563965,4265.256348,4248.589844,4468.589844,4513.974121,4366.025879,4414.358887,3814.0,1.0,15.0,,,,0.0,4.0,4.0,4.0,4.0,4.0,4.0,4.0,4.0,4.0,4.0,4.0,4.0,4.0,4.0,100.0,,,,,,,,,,,,,,,,,,,,,,,,,,,,,,,,,,,,,,,,,,,,,,,,,,,,,,,,,,,,,,,,,,,,,,,,,,,,,,,,,,,,,,,,,,,,,,,,,,,,,,,,,,,,,,,,,,,,,,,,,,,,,,,,,,,
1725716052.384423,1725716052.386653,206.0,0.0,4283.974121,4279.871582,4346.153809,4302.307617,4265.512695,4214.615234,4390.256348,4262.307617,4264.615234,4248.974121,4475.384766,4522.563965,4369.487305,4421.025879,2889.0,1.0,15.0,,,,0.0,4.0,4.0,4.0,4.0,4.0,4.0,4.0,4.0,4.0,4.0,4.0,4.0,4.0,4.0,100.0,,,,,,,,,,,,,,,,,,,,,,,,,,,,,,,,,,,,,,,,,,,,,,,,,,,,,,,,,,,,,,,,,,,,,,,,,,,,,,,,,,,,,,,,,,,,,,,,,,,,,,,,,,,,,,,,,,,,,,,,,,,,,,,,,,,
1725716052.388327,1725716052.390557,207.0,0.0,4290.384766,4280.384766,4350.641113,4302.307617,4265.897461,4214.487305,4388.846191,4262.05127,4264.487305,4250.769043,4479.743652,4531.410156,4371.922852,4426.794922,3114.0,1.0,15.0,,,,0.0,4.0,4.0,4.0,4.0,4.0,4.0,4.0,4.0,4.0,4.0,4.0,4.0,4.0,4.0,100.0,,,,,,,,,,,,,,,,,,,,,,,,,,,,,,,,,,,,,,,,,,,,,,,,,,,,,,,,,,,,,,,,,,,,,,,,,,,,,,,,,,,,,,,,,,,,,,,,,,,,,,,,,,,,,,,,,,,,,,,,,,,,,,,,,,,
1725716052.392232,1725716052.394461,208.0,0.0,4294.487305,4281.282227,4353.717773,4301.282227,4265.897461,4212.436035,4387.307617,4262.692383,4265.897461,4254.743652,4479.743652,4537.820313,4373.205078,4430.128418,3396.0,1.0,15.0,,,,0.0,4.0,4.0,4.0,4.0,4.0,4.0,4.0,4.0,4.0,4.0,4.0,4.0,4.0,4.0,100.0,,,,,,,,,,,,,,,,,,,,,,,,,,,,,,,,,,,,,,,,,,,,,,,,,,,,,,,,,,,,,,,,,,,,,,,,,,,,,,,,,,,,,,,,,,,,,,,,,,,,,,,,,,,,,,,,,,,,,,,,,,,,,,,,,,,
1725716052.396136,1725716052.398365,209.0,0.0,4295.769043,4282.179688,4354.102539,4300.384766,4265.769043,4210.0,4386.153809,4265.0,4268.846191,4258.974121,4476.922852,4540.256348,4373.589844,4430.641113,3814.0,1.0,15.0,,,,0.0,4.0,4.0,4.0,4.0,4.0,4.0,4.0,4.0,4.0,4.0,4.0,4.0,4.0,4.0,100.0,,,,,,,,,,,,,,,,,,,,,,,,,,,,,,,,,,,,,,,,,,,,,,,,,,,,,,,,,,,,,,,,,,,,,,,,,,,,,,,,,,,,,,,,,,,,,,,,,,,,,,,,,,,,,,,,,,,,,,,,,,,,,,,,,,,
1725716052.40004,1725716052.40217,210.0,0.0,4296.025879,4281.538574,4352.563965,4300.512695,4265.128418,4208.589844,4385.384766,4269.102539,4272.563965,4261.666504,4474.743652,4539.487305,4373.589844,4429.487305,2889.0,1.0,15.0,,,,0.0,4.0,4.0,4.0,4.0,4.0,4.0,4.0,4.0,4.0,4.0,4.0,4.0,4.0,4.0,100.0,,,,,,,,,,,,,,,,,,,,,,,,,,,,,,,,,,,,,,,,,,,,,,,,,,,,,,,,,,,,,,,,,,,,,,,,,,,,,,,,,,,,,,,,,,,,,,,,,,,,,,,,,,,,,,,,,,,,,,,,,,,,,,,,,,,
1725716052.403944,1725716052.406074,211.0,0.0,4297.563965,4278.333496,4350.384766,4301.282227,4264.358887,4208.974121,4384.871582,4274.230957,4275.897461,4262.05127,4475.897461,4537.436035,4373.589844,4428.077148,3114.0,1.0,15.0,,,,0.0,4.0,4.0,4.0,4.0,4.0,4.0,4.0,4.0,4.0,4.0,4.0,4.0,4.0,4.0,100.0,,,,,,,,,,,,,,,,,,,,,,,,,,,,,,,,,,,,,,,,,,,,,,,,,,,,,,,,,,,,,,,,,,,,,,,,,,,,,,,,,,,,,,,,,,,,,,,,,,,,,,,,,,,,,,,,,,,,,,,,,,,,,,,,,,,
1725716052.407848,1725716052.409978,212.0,0.0,4301.025879,4273.333496,4349.487305,4301.282227,4263.974121,4210.641113,4383.974121,4278.589844,4278.205078,4261.538574,4480.128418,4536.538574,4373.846191,4427.563965,3396.0,1.0,15.0,,,,0.0,4.0,4.0,4.0,4.0,4.0,4.0,4.0,4.0,4.0,4.0,4.0,4.0,4.0,4.0,100.0,,,,,,,,,,,,,,,,,1.0,0.0,0.0,,,,,,,,,,,,,,,,,,,,,,,,,,,,,,,,,,,,,0.0,0.0,1.0,0.0,1.0,0.0,2.83446,1.401967,0.670447,0.229474,0.109326,1.578385,1.05808,0.796443,0.215811,0.100296,2.353868,1.086484,0.738842,0.223822,0.060388,6.686335,3.561327,0.594528,0.311689,0.101398,0.714445,0.63816,0.145104,0.077533,0.034192,0.342586,0.724387,0.105773,0.06527,0.042246,1.220986,0.622608,0.442637,0.179107,0.084655,1.319604,0.889802,0.937954,0.23801,0.066561,1.170297,0.864267,0.729665,0.203918,0.085973,2.418336,0.665622,0.78194,0.305126,0.118501,4.625521,1.683335,1.374102,0.35684,0.152617,5.02601,2.085514,1.055113,0.372655,0.149004,2.968869,0.933909,1.151037,0.374736,0.137127,4.345222,1.396218,1.143764,0.259629,0.127869
1725716052.411752,1725716052.413882,213.0,0.0,4304.743652,4268.461426,4350.128418,4299.871582,4264.230957,4212.94873,4382.820313,4281.410156,4279.487305,4260.897461,4484.743652,4538.077148,4373.717773,4428.589844,3814.0,1.0,15.0,,,,0.0,4.0,4.0,4.0,4.0,4.0,4.0,4.0,4.0,4.0,4.0,4.0,4.0,4.0,4.0,100.0,,,,,,,,,,,,,,,,,,,,,,,,,,,,,,,,,,,,,,,,,,,,,,,,,,,,,,,,,,,,,,,,,,,,,,,,,,,,,,,,,,,,,,,,,,,,,,,,,,,,,,,,,,,,,,,,,,,,,,,,,,,,,,,,,,,
1725716052.415656,1725716052.417686,214.0,0.0,4307.05127,4265.641113,4351.025879,4297.692383,4264.871582,4215.128418,4381.538574,4282.436035,4279.358887,4260.384766,4486.538574,4540.897461,4373.077148,4430.384766,2889.0,1.0,15.0,,,,0.0,4.0,4.0,4.0,4.0,4.0,4.0,4.0,4.0,4.0,4.0,4.0,4.0,4.0,4.0,100.0,,,,,,,,,,,,,,,,,,,,,,,,,,,,,,,,,,,,,,,,,,,,,,,,,,,,,,,,,,,,,,,,,,,,,,,,,,,,,,,,,,,,,,,,,,,,,,,,,,,,,,,,,,,,,,,,,,,,,,,,,,,,,,,,,,,
1725716052.41956,1725716052.42159,215.0,0.0,4307.436035,4266.025879,4350.641113,4296.025879,4265.512695,4216.410156,4380.641113,4282.692383,4277.692383,4259.358887,4484.487305,4542.820313,4372.436035,4431.794922,3114.0,1.0,15.0,,,,0.0,4.0,4.0,4.0,4.0,4.0,4.0,4.0,4.0,4.0,4.0,4.0,4.0,4.0,4.0,100.0,,,,,,,,,,,,,,,,,,,,,,,,,,,,,,,,,,,,,,,,,,,,,,,,,,,,,,,,,,,,,,,,,,,,,,,,,,,,,,,,,,,,,,,,,,,,,,,,,,,,,,,,,,,,,,,,,,,,,,,,,,,,,,,,,,,
1725716052.423464,1725716052.425494,216.0,0.0,4306.666504,4269.102539,4348.333496,4296.153809,4265.897461,4216.153809,4379.743652,4282.05127,4274.487305,4256.922852,4480.256348,4541.794922,4372.179688,4431.538574,3396.0,1.0,15.0,,,,0.0,4.0,4.0,4.0,4.0,4.0,4.0,4.0,4.0,4.0,4.0,4.0,4.0,4.0,4.0,100.0,,,,,,,,,,,,,,,,,,,,,,,,,,,,,,,,,,,,,,,,,,,,,,,,,,,,,,,,,,,,,,,,,,,,,,,,,,,,,,,,,,,,,,,,,,,,,,,,,,,,,,,,,,,,,,,,,,,,,,,,,,,,,,,,,,,
1725716052.427369,1725716052.429498,217.0,0.0,4306.153809,4273.077148,4344.743652,4297.692383,4265.512695,4213.717773,4378.077148,4280.512695,4270.512695,4253.333496,4476.410156,4537.436035,4372.820313,4429.230957,3814.0,1.0,15.0,,,,0.0,4.0,4.0,4.0,4.0,4.0,4.0,4.0,4.0,4.0,4.0,4.0,4.0,4.0,4.0,100.0,,,,,,,,,,,,,,,,,,,,,,,,,,,,,,,,,,,,,,,,,,,,,,,,,,,,,,,,,,,,,,,,,,,,,,,,,,,,,,,,,,,,,,,,,,,,,,,,,,,,,,,,,,,,,,,,,,,,,,,,,,,,,,,,,,,
1725716052.431273,1725716052.433402,218.0,0.0,4307.307617,4275.641113,4341.153809,4299.230957,4264.358887,4209.743652,4375.128418,4277.563965,4266.922852,4249.615234,4474.871582,4531.153809,4373.846191,4425.769043,2889.0,1.0,15.0,,,,0.0,4.0,4.0,4.0,4.0,4.0,4.0,4.0,4.0,4.0,4.0,4.0,4.0,4.0,4.0,100.0,,,,,,,,,,,,,,,,,,,,,,,,,,,,,,,,,,,,,,,,,,,,,,,,,,,,,,,,,,,,,,,,,,,,,,,,,,,,,,,,,,,,,,,,,,,,,,,,,,,,,,,,,,,,,,,,,,,,,,,,,,,,,,,,,,,
1725716052.435177,1725716052.437306,219.0,0.0,4310.256348,4275.897461,4338.589844,4299.230957,4262.692383,4205.512695,4371.282227,4273.589844,4264.743652,4247.692383,4475.256348,4525.512695,4374.230957,4422.179688,3114.0,1.0,15.0,,,,0.0,4.0,4.0,4.0,4.0,4.0,4.0,4.0,4.0,4.0,4.0,4.0,4.0,4.0,4.0,100.0,,,,,,,,,,,,,,,,,,,,,,,,,,,,,,,,,,,,,,,,,,,,,,,,,,,,,,,,,,,,,,,,,,,,,,,,,,,,,,,,,,,,,,,,,,,,,,,,,,,,,,,,,,,,,,,,,,,,,,,,,,,,,,,,,,,
1725716052.439081,1725716052.441211,220.0,0.0,4313.717773,4274.102539,4337.307617,4297.436035,4260.897461,4202.94873,4367.692383,4269.230957,4264.102539,4248.077148,4476.153809,4522.307617,4373.205078,4419.230957,3396.0,1.0,15.0,,,,0.0,4.0,4.0,4.0,4.0,4.0,4.0,4.0,4.0,4.0,4.0,4.0,4.0,4.0,4.0,100.0,,,,,,,,,,,,,,,,,,,,,,,,,,,,,,,,,,,,,,,,,,,,,,,,,,,,,,,,0.0,0.0,1.0,0.0,1.0,0.0,,,,,,,,,,,,,,,,,,,,,,,,,,,,,,,,,,,,,,,,,,,,,,,,,,,,,,,,,,,,,,,,,,,,,,
1725716052.442985,1725716052.445215,221.0,0.0,4316.410156,4271.153809,4337.179688,4295.128418,4259.871582,4202.436035,4365.769043,4266.153809,4263.974121,4249.743652,4476.410156,4522.179688,4371.410156,4417.05127,3814.0,1.0,15.0,,,,0.0,4.0,4.0,4.0,4.0,4.0,4.0,4.0,4.0,4.0,4.0,4.0,4.0,4.0,4.0,100.0,,,,,,,,,,,,,,,,,,,,,,,,,,,,,,,,,,,,,,,,,,,,,,,,,,,,,,,,,,,,,,,,,,,,,,,,,,,,,,,,,,,,,,,,,,,,,,,,,,,,,,,,,,,,,,,,,,,,,,,,,,,,,,,,,,,
1725716052.446889,1725716052.449119,222.0,0.0,4317.436035,4268.333496,4337.94873,4293.846191,4260.512695,4202.94873,4365.128418,4265.0,4263.846191,4250.897461,4476.025879,4523.846191,4370.256348,4415.769043,2889.0,1.0,15.0,,,,0.0,4.0,4.0,4.0,4.0,4.0,4.0,4.0,4.0,4.0,4.0,4.0,4.0,4.0,4.0,100.0,,,,,,,,,,,,,,,,,,,,,,,,,,,,,,,,,,,,,,,,,,,,,,,,,,,,,,,,,,,,,,,,,,,,,,,,,,,,,,,,,,,,,,,,,,,,,,,,,,,,,,,,,,,,,,,,,,,,,,,,,,,,,,,,,,,
1725716052.450793,1725716052.453023,223.0,0.0,4317.820313,4266.666504,4339.487305,4293.717773,4262.05127,4203.333496,4364.871582,4265.512695,4263.205078,4250.256348,4475.128418,4525.641113,4370.897461,4415.128418,3114.0,1.0,15.0,,,,0.0,4.0,4.0,4.0,4.0,4.0,4.0,4.0,4.0,4.0,4.0,4.0,4.0,4.0,4.0,100.0,,,,,,,,,,,,,,,,,,,,,,,,,,,,,,,,,,,,,,,,,,,,,,,,,,,,,,,,,,,,,,,,,,,,,,,,,,,,,,,,,,,,,,,,,,,,,,,,,,,,,,,,,,,,,,,,,,,,,,,,,,,,,,,,,,,
1725716052.454697,1725716052.457027,224.0,0.0,4318.717773,4266.025879,4340.641113,4293.974121,4262.692383,4203.077148,4363.846191,4266.282227,4262.563965,4248.333496,4474.230957,4525.769043,4372.436035,4415.0,3396.0,1.0,15.0,,,,0.0,4.0,4.0,4.0,4.0,4.0,4.0,4.0,4.0,4.0,4.0,4.0,4.0,4.0,4.0,100.0,,,,,,,,,,,,,,,,,,,,,,,,,,,,,,,,,,,,,,,,,,,,,,,,,,,,,,,,,,,,,,,,,,,,,,,,,,,,,,,,,,,,,,,,,,,,,,,,,,,,,,,,,,,,,,,,,,,,,,,,,,,,,,,,,,,
1725716052.458601,1725716052.460931,225.0,0.0,4320.769043,4266.282227,4341.025879,4293.974121,4260.769043,4202.179688,4361.922852,4265.769043,4262.563965,4247.05127,4473.717773,4524.358887,4373.077148,4415.256348,3814.0,1.0,15.0,,,,0.0,4.0,4.0,4.0,4.0,4.0,4.0,4.0,4.0,4.0,4.0,4.0,4.0,4.0,4.0,100.0,,,,,,,,,,,,,,,,,,,,,,,,,,,,,,,,,,,,,,,,,,,,,,,,,,,,,,,,,,,,,,,,,,,,,,,,,,,,,,,,,,,,,,,,,,,,,,,,,,,,,,,,,,,,,,,,,,,,,,,,,,,,,,,,,,,
1725716052.462505,1725716052.464835,226.0,0.0,4323.333496,4266.794922,4340.769043,4293.974121,4256.666504,4201.025879,4359.743652,4263.717773,4262.94873,4247.179688,4473.333496,4522.692383,4371.794922,4415.384766,2889.0,1.0,15.0,,,,0.0,4.0,4.0,4.0,4.0,4.0,4.0,4.0,4.0,4.0,4.0,4.0,4.0,4.0,4.0,100.0,,,,,,,,,,,,,,,,,,,,,,,,,,,,,,,,,,,,,,,,,,,,,,,,,,,,,,,,,,,,,,,,,,,,,,,,,,,,,,,,,,,,,,,,,,,,,,,,,,,,,,,,,,,,,,,,,,,,,,,,,,,,,,,,,,,
1725716052.46641,1725716052.468739,227.0,0.0,4325.384766,4266.666504,4339.871582,4294.102539,4252.307617,4200.256348,4357.94873,4261.025879,4263.589844,4248.589844,4473.333496,4521.666504,4368.974121,4415.128418,3114.0,1.0,15.0,,,,0.0,4.0,4.0,4.0,4.0,4.0,4.0,4.0,4.0,4.0,4.0,4.0,4.0,4.0,4.0,100.0,,,,,,,,,,,,,,,,,,,,,,,,,,,,,,,,,,,,,,,,,,,,,,,,,,,,,,,,,,,,,,,,,,,,,,,,,,,,,,,,,,,,,,,,,,,,,,,,,,,,,,,,,,,,,,,,,,,,,,,,,,,,,,,,,,,
1725716052.470314,1725716052.472743,228.0,0.0,4326.410156,4265.641113,4338.717773,4294.230957,4250.128418,4200.256348,4356.922852,4259.230957,4264.230957,4249.871582,4473.333496,4521.538574,4366.025879,4414.230957,3396.0,1.0,15.0,,,,0.0,4.0,4.0,4.0,4.0,4.0,4.0,4.0,4.0,4.0,4.0,4.0,4.0,4.0,4.0,100.0,,,,,,,,,,,,,,,,,,,,,,,,,,,,,,,,,,,,,,,,,,,,,,,,,,,,,,,,0.0,0.0,1.0,0.0,1.0,0.0,,,,,,,,,,,,,,,,,,,,,,,,,,,,,,,,,,,,,,,,,,,,,,,,,,,,,,,,,,,,,,,,,,,,,,
1725716052.474218,1725716052.476647,229.0,0.0,4326.922852,4264.102539,4337.436035,4294.102539,4251.025879,4200.641113,4356.282227,4259.487305,4264.743652,4250.0,4472.94873,4521.666504,4363.974121,4413.461426,3814.0,1.0,15.0,,,,0.0,4.0,4.0,4.0,4.0,4.0,4.0,4.0,4.0,4.0,4.0,4.0,4.0,4.0,4.0,100.0,,,,,,,,,,,,,,,,,,,,,,,,,,,,,,,,,,,,,,,,,,,,,,,,,,,,,,,,,,,,,,,,,,,,,,,,,,,,,,,,,,,,,,,,,,,,,,,,,,,,,,,,,,,,,,,,,,,,,,,,,,,,,,,,,,,
1725716052.478122,1725716052.480551,230.0,0.0,4327.563965,4263.717773,4337.05127,4293.717773,4253.974121,4200.897461,4355.128418,4261.666504,4264.871582,4248.846191,4472.692383,4521.922852,4363.461426,4413.974121,2889.0,1.0,15.0,,,,0.0,4.0,4.0,4.0,4.0,4.0,4.0,4.0,4.0,4.0,4.0,4.0,4.0,4.0,4.0,100.0,,,,,,,,,,,,,,,,,,,,,,,,,,,,,,,,,,,,,,,,,,,,,,,,,,,,,,,,,,,,,,,,,,,,,,,,,,,,,,,,,,,,,,,,,,,,,,,,,,,,,,,,,,,,,,,,,,,,,,,,,,,,,,,,,,,
1725716052.482026,1725716052.484455,231.0,0.0,4329.615234,4265.769043,4338.077148,4293.974121,4257.05127,4200.384766,4352.94873,4264.230957,4264.615234,4247.563965,4472.94873,4523.077148,4364.871582,4416.794922,3114.0,1.0,15.0,,,,0.0,4.0,4.0,4.0,4.0,4.0,4.0,4.0,4.0,4.0,4.0,4.0,4.0,4.0,4.0,100.0,,,,,,,,,,,,,,,,,,,,,,,,,,,,,,,,,,,,,,,,,,,,,,,,,,,,,,,,,,,,,,,,,,,,,,,,,,,,,,,,,,,,,,,,,,,,,,,,,,,,,,,,,,,,,,,,,,,,,,,,,,,,,,,,,,,
1725716052.48593,1725716052.48836,232.0,0.0,4333.589844,4270.256348,4340.897461,4295.384766,4258.717773,4199.358887,4350.0,4265.769043,4264.230957,4247.05127,4474.358887,4526.153809,4368.333496,4421.410156,3396.0,1.0,15.0,,,,0.0,4.0,4.0,4.0,4.0,4.0,4.0,4.0,4.0,4.0,4.0,4.0,4.0,4.0,4.0,100.0,,,,,,,,,,,,,,,,,,,,,,,,,,,,,,,,,,,,,,,,,,,,,,,,,,,,,,,,,,,,,,,,,,,,,,,,,,,,,,,,,,,,,,,,,,,,,,,,,,,,,,,,,,,,,,,,,,,,,,,,,,,,,,,,,,,
1725716052.489834,1725716052.492164,233.0,0.0,4339.743652,4275.641113,4344.871582,4298.205078,4258.974121,4198.589844,4347.692383,4265.897461,4264.230957,4247.94873,4477.179688,4531.025879,4372.94873,4426.282227,3814.0,1.0,15.0,,,,0.0,4.0,4.0,4.0,4.0,4.0,4.0,4.0,4.0,4.0,4.0,4.0,4.0,4.0,4.0,100.0,,,,,,,,,,,,,,,,,,,,,,,,,,,,,,,,,,,,,,,,,,,,,,,,,,,,,,,,,,,,,,,,,,,,,,,,,,,,,,,,,,,,,,,,,,,,,,,,,,,,,,,,,,,,,,,,,,,,,,,,,,,,,,,,,,,
1725716052.493738,1725716052.496068,234.0,0.0,4346.282227,4280.0,4349.102539,4302.179688,4259.358887,4198.461426,4347.05127,4265.641113,4265.641113,4250.512695,4480.384766,4536.025879,4376.922852,4429.615234,2889.0,1.0,15.0,,,,0.0,4.0,4.0,4.0,4.0,4.0,4.0,4.0,4.0,4.0,4.0,4.0,4.0,4.0,4.0,100.0,,,,,,,,,,,,,,,,,,,,,,,,,,,,,,,,,,,,,,,,,,,,,,,,,,,,,,,,,,,,,,,,,,,,,,,,,,,,,,,,,,,,,,,,,,,,,,,,,,,,,,,,,,,,,,,,,,,,,,,,,,,,,,,,,,,
1725716052.497642,1725716052.499972,235.0,0.0,4350.897461,4282.820313,4352.307617,4306.153809,4260.897461,4199.230957,4348.077148,4266.153809,4268.846191,4254.615234,4482.820313,4539.358887,4378.717773,4430.384766,3114.0,1.0,15.0,,,,0.0,4.0,4.0,4.0,4.0,4.0,4.0,4.0,4.0,4.0,4.0,4.0,4.0,4.0,4.0,100.0,,,,,,,,,,,,,,,,,,,,,,,,,,,,,,,,,,,,,,,,,,,,,,,,,,,,,,,,,,,,,,,,,,,,,,,,,,,,,,,,,,,,,,,,,,,,,,,,,,,,,,,,,,,,,,,,,,,,,,,,,,,,,,,,,,,
1725716052.501547,1725716052.503876,236.0,0.0,4352.179688,4283.974121,4353.461426,4308.974121,4263.589844,4200.128418,4349.487305,4268.846191,4273.205078,4258.846191,4483.717773,4540.641113,4378.589844,4429.102539,3396.0,1.0,15.0,,,,0.0,4.0,4.0,4.0,4.0,4.0,4.0,4.0,4.0,4.0,4.0,4.0,4.0,4.0,4.0,100.0,,,,,,,,,,,,,,,,,,,,,,,,,,,,,,,,,,,,,,,,,,,,,,,,,,,,,,,,0.0,0.0,1.0,0.0,1.0,0.0,,,,,,,,,,,,,,,,,,,,,,,,,,,,,,,,,,,,,,,,,,,,,,,,,,,,,,,,,,,,,,,,,,,,,,
1725716052.505451,1725716052.50768,237.0,0.0,4351.410156,4284.102539,4352.692383,4310.0,4265.641113,4200.769043,4349.487305,4273.461426,4277.436035,4261.666504,4483.077148,4540.128418,4377.436035,4427.307617,3814.0,1.0,15.0,,,,0.0,4.0,4.0,4.0,4.0,4.0,4.0,4.0,4.0,4.0,4.0,4.0,4.0,4.0,4.0,100.0,,,,,,,,,,,,,,,,,,,,,,,,,,,,,,,,,,,,,,,,,,,,,,,,,,,,,,,,,,,,,,,,,,,,,,,,,,,,,,,,,,,,,,,,,,,,,,,,,,,,,,,,,,,,,,,,,,,,,,,,,,,,,,,,,,,
1725716052.509355,1725716052.511584,238.0,0.0,4351.282227,4282.94873,4351.025879,4309.487305,4265.897461,4200.897461,4347.436035,4278.589844,4280.128418,4261.794922,4481.794922,4539.102539,4376.538574,4426.794922,2889.0,1.0,15.0,,,,0.0,4.0,4.0,4.0,4.0,4.0,4.0,4.0,4.0,4.0,4.0,4.0,4.0,4.0,4.0,100.0,,,,,,,,,,,,,,,,,,,,,,,,,,,,,,,,,,,,,,,,,,,,,,,,,,,,,,,,,,,,,,,,,,,,,,,,,,,,,,,,,,,,,,,,,,,,,,,,,,,,,,,,,,,,,,,,,,,,,,,,,,,,,,,,,,,
1725716052.513259,1725716052.515488,239.0,0.0,4352.820313,4280.769043,4350.0,4308.333496,4264.487305,4200.769043,4344.487305,4282.436035,4280.897461,4260.384766,4480.641113,4538.589844,4375.641113,4428.205078,3114.0,1.0,15.0,,,,0.0,4.0,4.0,4.0,4.0,4.0,4.0,4.0,4.0,4.0,4.0,4.0,4.0,4.0,4.0,100.0,,,,,,,,,,,,,,,,,,,,,,,,,,,,,,,,,,,,,,,,,,,,,,,,,,,,,,,,,,,,,,,,,,,,,,,,,,,,,,,,,,,,,,,,,,,,,,,,,,,,,,,,,,,,,,,,,,,,,,,,,,,,,,,,,,,
1725716052.517163,1725716052.519393,240.0,0.0,4355.512695,4278.333496,4350.897461,4307.436035,4262.820313,4200.769043,4342.05127,4283.589844,4280.256348,4259.102539,4479.743652,4538.846191,4374.230957,4430.512695,3396.0,1.0,15.0,,,,0.0,4.0,4.0,4.0,4.0,4.0,4.0,4.0,4.0,4.0,4.0,4.0,4.0,4.0,4.0,100.0,,,,,,,,,,,,,,,,,,,,,,,,,,,,,,,,,,,,,,,,,,,,,,,,,,,,,,,,,,,,,,,,,,,,,,,,,,,,,,,,,,,,,,,,,,,,,,,,,,,,,,,,,,,,,,,,,,,,,,,,,,,,,,,,,,,
1725716052.521067,1725716052.523197,241.0,0.0,4357.563965,4276.666504,4353.461426,4306.025879,4261.794922,4201.025879,4340.769043,4282.820313,4279.743652,4259.358887,4478.846191,4540.0,4372.179688,4431.666504,3814.0,1.0,15.0,,,,0.0,4.0,4.0,4.0,4.0,4.0,4.0,4.0,4.0,4.0,4.0,4.0,4.0,4.0,4.0,100.0,,,,,,,,,,,,,,,,,,,,,,,,,,,,,,,,,,,,,,,,,,,,,,,,,,,,,,,,,,,,,,,,,,,,,,,,,,,,,,,,,,,,,,,,,,,,,,,,,,,,,,,,,,,,,,,,,,,,,,,,,,,,,,,,,,,
1725716052.524971,1725716052.527101,242.0,0.0,4358.461426,4276.538574,4356.153809,4302.820313,4261.666504,4201.410156,4340.256348,4281.538574,4280.0,4260.512695,4477.820313,4541.153809,4369.871582,4430.128418,2889.0,1.0,15.0,,,,0.0,4.0,4.0,4.0,4.0,4.0,4.0,4.0,4.0,4.0,4.0,4.0,4.0,4.0,4.0,100.0,,,,,,,,,,,,,,,,,,,,,,,,,,,,,,,,,,,,,,,,,,,,,,,,,,,,,,,,,,,,,,,,,,,,,,,,,,,,,,,,,,,,,,,,,,,,,,,,,,,,,,,,,,,,,,,,,,,,,,,,,,,,,,,,,,,
1725716052.528875,1725716052.531005,243.0,0.0,4358.974121,4278.205078,4357.820313,4296.282227,4262.05127,4201.282227,4340.0,4280.769043,4281.153809,4260.897461,4477.05127,4540.897461,4367.563965,4425.769043,3114.0,1.0,15.0,,,,0.0,4.0,4.0,4.0,4.0,4.0,4.0,4.0,4.0,4.0,4.0,4.0,4.0,4.0,4.0,100.0,,,,,,,,,,,,,,,,,,,,,,,,,,,,,,,,,,,,,,,,,,,,,,,,,,,,,,,,,,,,,,,,,,,,,,,,,,,,,,,,,,,,,,,,,,,,,,,,,,,,,,,,,,,,,,,,,,,,,,,,,,,,,,,,,,,
1725716052.532779,1725716052.535009,244.0,0.0,4359.743652,4280.0,4357.94873,4286.666504,4262.307617,4200.769043,4340.384766,4280.512695,4281.922852,4259.102539,4476.922852,4538.589844,4365.641113,4420.128418,3396.0,1.0,15.0,,,,0.0,4.0,4.0,4.0,4.0,4.0,4.0,4.0,4.0,4.0,4.0,4.0,4.0,4.0,4.0,100.0,,,,,,,,,,,,,,,,,1.0,0.0,0.0,,,,,,,,,,,,,,,,,,,,,,,,,,,,,,,,,,,,,0.0,0.0,1.0,0.0,1.0,0.0,2.436101,1.531604,0.744785,0.274763,0.122018,1.638494,1.170349,0.881247,0.257522,0.106589,2.275821,1.090392,0.798965,0.265999,0.066365,5.95259,3.088582,0.579764,0.290202,0.09391,0.716536,0.743735,0.139367,0.088268,0.03701,0.342697,0.834297,0.124471,0.068418,0.039527,1.155751,0.800156,0.536451,0.181105,0.080588,1.305511,0.69214,1.040676,0.244802,0.068997,1.217253,0.833319,0.827635,0.21325,0.088641,2.640348,0.638989,0.839601,0.341467,0.122567,4.8113,1.751613,1.51841,0.401132,0.161414,4.436007,1.850986,1.19878,0.404026,0.140513,3.290799,0.922164,1.300989,0.421279,0.138449,4.346718,1.403803,1.294338,0.293863,0.133149
1725716052.536683,1725716052.538913,245.0,0.0,4361.282227,4279.102539,4356.666504,4275.897461,4262.05127,4200.0,4341.025879,4280.0,4282.307617,4255.0,4476.666504,4534.102539,4364.743652,4414.743652,3814.0,1.0,15.0,,,,0.0,4.0,4.0,4.0,4.0,4.0,4.0,4.0,4.0,4.0,4.0,4.0,4.0,4.0,4.0,100.0,,,,,,,,,,,,,,,,,,,,,,,,,,,,,,,,,,,,,,,,,,,,,,,,,,,,,,,,,,,,,,,,,,,,,,,,,,,,,,,,,,,,,,,,,,,,,,,,,,,,,,,,,,,,,,,,,,,,,,,,,,,,,,,,,,,
1725716052.540588,1725716052.542817,246.0,0.0,4363.077148,4274.230957,4354.615234,4266.153809,4260.769043,4199.615234,4341.153809,4278.846191,4282.05127,4250.384766,4474.743652,4528.461426,4364.358887,4411.025879,2889.0,1.0,15.0,,,,0.0,4.0,4.0,4.0,4.0,4.0,4.0,4.0,4.0,4.0,4.0,4.0,4.0,4.0,4.0,100.0,,,,,,,,,,,,,,,,,,,,,,,,,,,,,,,,,,,,,,,,,,,,,,,,,,,,,,,,,,,,,,,,,,,,,,,,,,,,,,,,,,,,,,,,,,,,,,,,,,,,,,,,,,,,,,,,,,,,,,,,,,,,,,,,,,,
1725716052.544492,1725716052.546721,247.0,0.0,4363.717773,4267.307617,4352.820313,4259.487305,4258.333496,4199.743652,4340.128418,4277.563965,4281.922852,4247.05127,4470.128418,4523.205078,4363.077148,4409.487305,3114.0,1.0,15.0,,,,0.0,4.0,4.0,4.0,4.0,4.0,4.0,4.0,4.0,4.0,4.0,4.0,4.0,4.0,4.0,100.0,,,,,,,,,,,,,,,,,,,,,,,,,,,,,,,,,,,,,,,,,,,,,,,,,,,,,,,,,,,,,,,,,,,,,,,,,,,,,,,,,,,,,,,,,,,,,,,,,,,,,,,,,,,,,,,,,,,,,,,,,,,,,,,,,,,
1725716052.548396,1725716052.550725,248.0,0.0,4362.307617,4262.307617,4352.05127,4256.282227,4255.641113,4200.256348,4338.205078,4276.794922,4281.794922,4246.153809,4464.230957,4519.358887,4360.384766,4410.0,3396.0,1.0,15.0,,,,0.0,4.0,4.0,4.0,4.0,4.0,4.0,4.0,4.0,4.0,4.0,4.0,4.0,4.0,4.0,100.0,,,,,,,,,,,,,,,,,,,,,,,,,,,,,,,,,,,,,,,,,,,,,,,,,,,,,,,,,,,,,,,,,,,,,,,,,,,,,,,,,,,,,,,,,,,,,,,,,,,,,,,,,,,,,,,,,,,,,,,,,,,,,,,,,,,
1725716052.5523,1725716052.554629,249.0,0.0,4359.358887,4262.307617,4353.205078,4255.897461,4253.974121,4200.512695,4336.410156,4276.922852,4281.282227,4247.05127,4460.128418,4518.461426,4357.307617,4411.794922,3814.0,1.0,15.0,,,,0.0,4.0,4.0,4.0,4.0,4.0,4.0,4.0,4.0,4.0,4.0,4.0,4.0,4.0,4.0,100.0,,,,,,,,,,,,,,,,,,,,,,,,,,,,,,,,,,,,,,,,,,,,,,,,,,,,,,,,,,,,,,,,,,,,,,,,,,,,,,,,,,,,,,,,,,,,,,,,,,,,,,,,,,,,,,,,,,,,,,,,,,,,,,,,,,,
1725716052.556204,1725716052.558533,250.0,0.0,4356.794922,4266.282227,4356.410156,4256.922852,4253.846191,4200.0,4336.153809,4277.692383,4280.384766,4248.589844,4460.512695,4520.641113,4356.153809,4413.589844,2889.0,1.0,15.0,,,,0.0,4.0,4.0,4.0,4.0,4.0,4.0,4.0,4.0,4.0,4.0,4.0,4.0,4.0,4.0,100.0,,,,,,,,,,,,,,,,,,,,,,,,,,,,,,,,,,,,,,,,,,,,,,,,,,,,,,,,,,,,,,,,,,,,,,,,,,,,,,,,,,,,,,,,,,,,,,,,,,,,,,,,,,,,,,,,,,,,,,,,,,,,,,,,,,,
1725716052.560108,1725716052.562438,251.0,0.0,4356.282227,4270.897461,4360.769043,4258.333496,4254.615234,4198.974121,4337.692383,4278.717773,4279.615234,4249.743652,4465.641113,4524.230957,4358.205078,4414.102539,3114.0,1.0,15.0,,,,0.0,4.0,4.0,4.0,4.0,4.0,4.0,4.0,4.0,4.0,4.0,4.0,4.0,4.0,4.0,100.0,,,,,,,,,,,,,,,,,,,,,,,,,,,,,,,,,,,,,,,,,,,,,,,,,,,,,,,,,,,,,,,,,,,,,,,,,,,,,,,,,,,,,,,,,,,,,,,,,,,,,,,,,,,,,,,,,,,,,,,,,,,,,,,,,,,
1725716052.564012,1725716052.566342,252.0,0.0,4357.692383,4272.563965,4364.230957,4259.487305,4255.384766,4197.94873,4340.384766,4279.615234,4279.487305,4250.128418,4472.692383,4527.05127,4361.922852,4413.077148,3396.0,1.0,15.0,,,,0.0,4.0,4.0,4.0,4.0,4.0,4.0,4.0,4.0,4.0,4.0,4.0,4.0,4.0,4.0,100.0,,,,,,,,,,,,,,,,,,,,,,,,,,,,,,,,,,,,,,,,,,,,,,,,,,,,,,,,0.0,0.0,1.0,0.0,1.0,0.0,,,,,,,,,,,,,,,,,,,,,,,,,,,,,,,,,,,,,,,,,,,,,,,,,,,,,,,,,,,,,,,,,,,,,,
1725716052.567916,1725716052.570146,253.0,0.0,4359.230957,4270.897461,4365.769043,4260.512695,4255.512695,4197.563965,4342.820313,4279.871582,4279.743652,4250.0,4477.820313,4527.307617,4364.743652,4411.666504,3814.0,1.0,15.0,,,,0.0,4.0,4.0,4.0,4.0,4.0,4.0,4.0,4.0,4.0,4.0,4.0,4.0,4.0,4.0,100.0,,,,,,,,,,,,,,,,,,,,,,,,,,,,,,,,,,,,,,,,,,,,,,,,,,,,,,,,,,,,,,,,,,,,,,,,,,,,,,,,,,,,,,,,,,,,,,,,,,,,,,,,,,,,,,,,,,,,,,,,,,,,,,,,,,,
1725716052.57182,1725716052.57405,254.0,0.0,4359.102539,4268.205078,4365.897461,4261.282227,4255.769043,4197.94873,4343.717773,4278.974121,4279.487305,4249.615234,4478.846191,4525.512695,4365.769043,4411.666504,2889.0,1.0,15.0,,,,0.0,4.0,4.0,4.0,4.0,4.0,4.0,4.0,4.0,4.0,4.0,4.0,4.0,4.0,4.0,100.0,,,,,,,,,,,,,,,,,,,,,,,,,,,,,,,,,,,,,,,,,,,,,,,,,,,,,,,,,,,,,,,,,,,,,,,,,,,,,,,,,,,,,,,,,,,,,,,,,,,,,,,,,,,,,,,,,,,,,,,,,,,,,,,,,,,
1725716052.575724,1725716052.578054,255.0,0.0,4357.563965,4268.461426,4365.897461,4262.179688,4256.538574,4198.846191,4342.820313,4277.820313,4278.974121,4249.230957,4476.538574,4524.358887,4366.025879,4414.743652,15.0,1.0,15.0,,,,0.0,4.0,4.0,4.0,4.0,4.0,4.0,4.0,4.0,4.0,4.0,4.0,4.0,4.0,4.0,100.0,,,,,,,,,,,,,,,,,,,,,,,,,,,,,,,,,,,,,,,,,,,,,,,,,,,,,,,,,,,,,,,,,,,,,,,,,,,,,,,,,,,,,,,,,,,,,,,,,,,,,,,,,,,,,,,,,,,,,,,,,,,,,,,,,,,
1725716052.579628,1725716052.581958,0.0,0.0,4356.666504,4273.333496,4367.05127,4263.717773,4258.205078,4199.487305,4340.897461,4277.05127,4279.102539,4249.230957,4473.974121,4526.282227,4367.05127,4420.897461,2688.0,1.0,15.0,,,,0.0,4.0,4.0,4.0,4.0,4.0,4.0,4.0,4.0,4.0,4.0,4.0,4.0,4.0,4.0,100.0,,,,,,,,,,,,,,,,,,,,,,,,,,,,,,,,,,,,,,,,,,,,,,,,,,,,,,,,,,,,,,,,,,,,,,,,,,,,,,,,,,,,,,,,,,,,,,,,,,,,,,,,,,,,,,,,,,,,,,,,,,,,,,,,,,,
1725716052.583532,1725716052.585862,1.0,0.0,4357.692383,4281.410156,4369.615234,4265.512695,4260.769043,4199.487305,4339.871582,4276.794922,4280.256348,4250.0,4473.333496,4531.410156,4369.487305,4428.333496,2558.0,1.0,15.0,,,,0.0,4.0,4.0,4.0,4.0,4.0,4.0,4.0,4.0,4.0,4.0,4.0,4.0,4.0,4.0,100.0,,,,,,,,,,,,,,,,,,,,,,,,,,,,,,,,,,,,,,,,,,,,,,,,,,,,,,,,,,,,,,,,,,,,,,,,,,,,,,,,,,,,,,,,,,,,,,,,,,,,,,,,,,,,,,,,,,,,,,,,,,,,,,,,,,,
1725716052.587437,1725716052.589766,2.0,0.0,4360.128418,4288.974121,4372.692383,4267.179688,4263.717773,4199.230957,4340.897461,4276.794922,4281.025879,4251.922852,4475.256348,4537.563965,4372.436035,4434.230957,2486.0,1.0,15.0,,,,0.0,4.0,4.0,4.0,4.0,4.0,4.0,4.0,4.0,4.0,4.0,4.0,4.0,4.0,4.0,100.0,,,,,,,,,,,,,,,,,,,,,,,,,,,,,,,,,,,,,,,,,,,,,,,,,,,,,,,,,,,,,,,,,,,,,,,,,,,,,,,,,,,,,,,,,,,,,,,,,,,,,,,,,,,,,,,,,,,,,,,,,,,,,,,,,,,
1725716052.591341,1725716052.59367,3.0,0.0,4361.794922,4292.05127,4375.384766,4268.461426,4265.769043,4198.846191,4342.94873,4276.153809,4279.743652,4253.846191,4478.461426,4541.666504,4374.871582,4435.769043,2463.0,1.0,15.0,,,,0.0,4.0,4.0,4.0,4.0,4.0,4.0,4.0,4.0,4.0,4.0,4.0,4.0,4.0,4.0,100.0,,,,,,,,,,,,,,,,,,,,,,,,,,,,,,,,,,,,,,,,,,,,,,,,,,,,,,,,,,,,,,,,,,,,,,,,,,,,,,,,,,,,,,,,,,,,,,,,,,,,,,,,,,,,,,,,,,,,,,,,,,,,,,,,,,,
1725716052.595245,1725716052.597475,4.0,0.0,4360.641113,4289.743652,4376.538574,4269.358887,4265.897461,4198.974121,4344.230957,4274.230957,4276.410156,4253.717773,4480.256348,4541.282227,4375.641113,4432.436035,2441.0,1.0,15.0,,,,0.0,4.0,4.0,4.0,4.0,4.0,4.0,4.0,4.0,4.0,4.0,4.0,4.0,4.0,4.0,100.0,,,,,,,,,,,,,,,,,,,,,,,,,,,,,,,,,,,,,,,,,,,,,,,,,,,,,,,,0.0,0.0,1.0,0.0,1.0,0.0,,,,,,,,,,,,,,,,,,,,,,,,,,,,,,,,,,,,,,,,,,,,,,,,,,,,,,,,,,,,,,,,,,,,,,
1725716052.599149,1725716052.601379,5.0,0.0,4356.538574,4284.487305,4375.641113,4269.615234,4263.461426,4199.102539,4342.94873,4270.512695,4271.794922,4250.641113,4479.102539,4536.282227,4373.974121,4425.769043,2396.0,1.0,15.0,,,,0.0,4.0,4.0,4.0,4.0,4.0,4.0,4.0,4.0,4.0,4.0,4.0,4.0,4.0,4.0,100.0,,,,,,,,,,,,,,,,,,,,,,,,,,,,,,,,,,,,,,,,,,,,,,,,,,,,,,,,,,,,,,,,,,,,,,,,,,,,,,,,,,,,,,,,,,,,,,,,,,,,,,,,,,,,,,,,,,,,,,,,,,,,,,,,,,,
1725716052.603053,1725716052.605283,6.0,0.0,4350.256348,4279.615234,4372.94873,4268.461426,4259.487305,4199.102539,4339.230957,4265.0,4267.307617,4245.384766,4474.358887,4528.589844,4369.358887,4418.846191,2439.0,1.0,15.0,,,,0.0,4.0,4.0,4.0,4.0,4.0,4.0,4.0,4.0,4.0,4.0,4.0,4.0,4.0,4.0,100.0,,,,,,,,,,,,,,,,,,,,,,,,,,,,,,,,,,,,,,,,,,,,,,,,,,,,,,,,,,,,,,,,,,,,,,,,,,,,,,,,,,,,,,,,,,,,,,,,,,,,,,,,,,,,,,,,,,,,,,,,,,,,,,,,,,,
1725716052.606957,1725716052.609187,7.0,0.0,4343.333496,4276.282227,4368.974121,4266.025879,4255.384766,4198.846191,4334.230957,4258.846191,4262.94873,4240.0,4466.538574,4520.897461,4361.153809,4413.589844,2486.0,1.0,15.0,,,,0.0,4.0,4.0,4.0,4.0,4.0,4.0,4.0,4.0,4.0,4.0,4.0,4.0,4.0,4.0,100.0,,,,,,,,,,,,,,,,,,,,,,,,,,,,,,,,,,,,,,,,,,,,,,,,,,,,,,,,,,,,,,,,,,,,,,,,,,,,,,,,,,,,,,,,,,,,,,,,,,,,,,,,,,,,,,,,,,,,,,,,,,,,,,,,,,,
1725716052.610861,1725716052.612991,8.0,0.0,4336.922852,4272.692383,4364.358887,4262.307617,4251.538574,4198.461426,4329.358887,4253.461426,4258.461426,4235.128418,4456.922852,4515.512695,4349.871582,4408.846191,2471.0,1.0,15.0,,,,0.0,4.0,4.0,4.0,4.0,4.0,4.0,4.0,4.0,4.0,4.0,4.0,4.0,4.0,4.0,100.0,,,,,,,,,,,,,,,,,,,,,,,,,,,,,,,,,,,,,,,,,,,,,,,,,,,,,,,,,,,,,,,,,,,,,,,,,,,,,,,,,,,,,,,,,,,,,,,,,,,,,,,,,,,,,,,,,,,,,,,,,,,,,,,,,,,
1725716052.614765,1725716052.616895,9.0,0.0,4331.282227,4266.666504,4359.487305,4257.820313,4248.205078,4197.820313,4325.769043,4250.769043,4254.230957,4229.743652,4446.794922,4511.922852,4337.179688,4403.333496,2558.0,1.0,15.0,,,,0.0,4.0,4.0,4.0,4.0,4.0,4.0,4.0,4.0,4.0,4.0,4.0,4.0,4.0,4.0,100.0,,,,,,,,,,,,,,,,,,,,,,,,,,,,,,,,,,,,,,,,,,,,,,,,,,,,,,,,,,,,,,,,,,,,,,,,,,,,,,,,,,,,,,,,,,,,,,,,,,,,,,,,,,,,,,,,,,,,,,,,,,,,,,,,,,,
1725716052.618669,1725716052.620799,10.0,0.0,4325.769043,4257.820313,4355.641113,4252.692383,4245.384766,4197.179688,4323.974121,4251.538574,4251.282227,4222.94873,4438.077148,4508.461426,4325.769043,4397.179688,2879.0,1.0,15.0,,,,0.0,4.0,4.0,4.0,4.0,4.0,4.0,4.0,4.0,4.0,4.0,4.0,4.0,4.0,4.0,100.0,,,,,,,,,,,,,,,,,,,,,,,,,,,,,,,,,,,,,,,,,,,,,,,,,,,,,,,,,,,,,,,,,,,,,,,,,,,,,,,,,,,,,,,,,,,,,,,,,,,,,,,,,,,,,,,,,,,,,,,,,,,,,,,,,,,
1725716052.622574,1725716052.624703,11.0,0.0,4320.384766,4249.487305,4354.102539,4248.077148,4244.230957,4196.922852,4324.487305,4255.384766,4251.153809,4216.025879,4432.94873,4504.615234,4318.717773,4392.436035,3111.0,1.0,15.0,,,,0.0,4.0,4.0,4.0,4.0,4.0,4.0,4.0,4.0,4.0,4.0,4.0,4.0,4.0,4.0,100.0,,,,,,,,,,,,,,,,,,,,,,,,,,,,,,,,,,,,,,,,,,,,,,,,,,,,,,,,,,,,,,,,,,,,,,,,,,,,,,,,,,,,,,,,,,,,,,,,,,,,,,,,,,,,,,,,,,,,,,,,,,,,,,,,,,,
1725716052.626478,1725716052.628508,12.0,0.0,4316.153809,4245.641113,4355.128418,4245.256348,4245.0,4196.922852,4327.05127,4261.666504,4254.358887,4212.436035,4433.589844,4502.820313,4318.589844,4391.410156,3396.0,1.0,15.0,,,,0.0,4.0,4.0,4.0,4.0,4.0,4.0,4.0,4.0,4.0,4.0,4.0,4.0,4.0,4.0,100.0,,,,,,,,,,,,,,,,,,,,,,,,,,,,,,,,,,,,,,,,,,,,,,,,,,,,,,,,0.0,0.0,1.0,0.0,1.0,0.0,,,,,,,,,,,,,,,,,,,,,,,,,,,,,,,,,,,,,,,,,,,,,,,,,,,,,,,,,,,,,,,,,,,,,,
1725716052.630382,1725716052.632412,13.0,0.0,4314.743652,4248.589844,4357.692383,4245.897461,4246.538574,4197.563965,4330.512695,4269.102539,4261.025879,4215.512695,4440.128418,4505.897461,4325.512695,4395.256348,3812.0,1.0,15.0,,,,0.0,4.0,4.0,4.0,4.0,4.0,4.0,4.0,4.0,4.0,4.0,4.0,4.0,4.0,4.0,100.0,,,,,,,,,,,,,,,,,,,,,,,,,,,,,,,,,,,,,,,,,,,,,,,,,,,,,,,,,,,,,,,,,,,,,,,,,,,,,,,,,,,,,,,,,,,,,,,,,,,,,,,,,,,,,,,,,,,,,,,,,,,,,,,,,,,
1725716052.634286,1725716052.636316,14.0,0.0,4317.05127,4257.307617,4361.025879,4249.743652,4247.436035,4198.589844,4333.974121,4276.666504,4269.871582,4225.512695,4451.282227,4515.0,4337.179688,4402.820313,2879.0,1.0,15.0,,,,0.0,4.0,4.0,4.0,4.0,4.0,4.0,4.0,4.0,4.0,4.0,4.0,4.0,4.0,4.0,100.0,,,,,,,,,,,,,,,,,,,,,,,,,,,,,,,,,,,,,,,,,,,,,,,,,,,,,,,,,,,,,,,,,,,,,,,,,,,,,,,,,,,,,,,,,,,,,,,,,,,,,,,,,,,,,,,,,,,,,,,,,,,,,,,,,,,
1725716052.63819,1725716052.64032,15.0,0.0,4321.794922,4267.94873,4364.230957,4255.769043,4247.563965,4200.0,4336.922852,4283.846191,4278.333496,4238.717773,4463.717773,4527.307617,4349.102539,4411.282227,3111.0,1.0,15.0,,,,0.0,4.0,4.0,4.0,4.0,4.0,4.0,4.0,4.0,4.0,4.0,4.0,4.0,4.0,4.0,100.0,,,,,,,,,,,,,,,,,,,,,,,,,,,,,,,,,,,,,,,,,,,,,,,,,,,,,,,,,,,,,,,,,,,,,,,,,,,,,,,,,,,,,,,,,,,,,,,,,,,,,,,,,,,,,,,,,,,,,,,,,,,,,,,,,,,
1725716052.642094,1725716052.644224,16.0,0.0,4326.282227,4276.666504,4367.05127,4261.666504,4248.205078,4201.538574,4338.974121,4290.256348,4284.102539,4249.487305,4473.589844,4538.205078,4357.692383,4418.333496,3396.0,1.0,15.0,,,,0.0,4.0,4.0,4.0,4.0,4.0,4.0,4.0,4.0,4.0,4.0,4.0,4.0,4.0,4.0,100.0,,,,,,,,,,,,,,,,,,,,,,,,,,,,,,,,,,,,,,,,,,,,,,,,,,,,,,,,,,,,,,,,,,,,,,,,,,,,,,,,,,,,,,,,,,,,,,,,,,,,,,,,,,,,,,,,,,,,,,,,,,,,,,,,,,,
1725716052.645998,1725716052.648128,17.0,0.0,4328.333496,4280.512695,4369.871582,4265.512695,4250.512695,4202.94873,4340.769043,4295.0,4287.307617,4254.615234,4478.717773,4544.487305,4362.05127,4422.94873,3812.0,1.0,15.0,,,,0.0,4.0,4.0,4.0,4.0,4.0,4.0,4.0,4.0,4.0,4.0,4.0,4.0,4.0,4.0,100.0,,,,,,,,,,,,,,,,,,,,,,,,,,,,,,,,,,,,,,,,,,,,,,,,,,,,,,,,,,,,,,,,,,,,,,,,,,,,,,,,,,,,,,,,,,,,,,,,,,,,,,,,,,,,,,,,,,,,,,,,,,,,,,,,,,,
1725716052.649902,1725716052.652132,18.0,0.0,4327.94873,4280.0,4372.820313,4266.666504,4253.974121,4203.974121,4342.307617,4297.563965,4289.102539,4254.487305,4478.717773,4545.0,4363.589844,4425.641113,2879.0,1.0,15.0,,,,0.0,4.0,4.0,4.0,4.0,4.0,4.0,4.0,4.0,4.0,4.0,4.0,4.0,4.0,4.0,100.0,,,,,,,,,,,,,,,,,,,,,,,,,,,,,,,,,,,,,,,,,,,,,,,,,,,,,,,,,,,,,,,,,,,,,,,,,,,,,,,,,,,,,,,,,,,,,,,,,,,,,,,,,,,,,,,,,,,,,,,,,,,,,,,,,,,
1725716052.653806,1725716052.656036,19.0,0.0,4326.666504,4277.692383,4376.025879,4266.025879,4257.436035,4204.358887,4343.589844,4297.307617,4290.512695,4252.179688,4476.282227,4541.666504,4364.230957,4427.563965,3111.0,1.0,15.0,,,,0.0,4.0,4.0,4.0,4.0,4.0,4.0,4.0,4.0,4.0,4.0,4.0,4.0,4.0,4.0,100.0,,,,,,,,,,,,,,,,,,,,,,,,,,,,,,,,,,,,,,,,,,,,,,,,,,,,,,,,,,,,,,,,,,,,,,,,,,,,,,,,,,,,,,,,,,,,,,,,,,,,,,,,,,,,,,,,,,,,,,,,,,,,,,,,,,,
1725716052.65771,1725716052.65994,20.0,0.0,4326.282227,4276.282227,4379.102539,4264.615234,4259.487305,4203.974121,4344.487305,4293.974121,4291.282227,4250.641113,4474.358887,4537.94873,4364.871582,4429.230957,3396.0,1.0,15.0,,,,0.0,4.0,4.0,4.0,4.0,4.0,4.0,4.0,4.0,4.0,4.0,4.0,4.0,4.0,4.0,100.0,,,,,,,,,,,,,,,,,1.0,0.0,0.0,,,,,,,,,,,,,,,,,,,,,,,,,,,,,,,,,,,,,0.0,0.0,1.0,0.0,1.0,0.0,2.298202,1.607695,0.766494,0.303555,0.129167,1.673156,1.267067,0.89505,0.285367,0.110631,2.110161,1.115472,0.823728,0.300733,0.070424,4.748373,2.42426,0.568833,0.262636,0.082083,0.707607,0.797913,0.132052,0.096517,0.040125,0.354766,0.893158,0.130213,0.068625,0.036497,1.241858,0.933698,0.592235,0.172579,0.075225,1.283945,0.591711,1.078208,0.243435,0.072322,1.298246,0.793622,0.87016,0.224929,0.090273,2.797701,0.603553,0.829685,0.364468,0.12589,4.901466,1.772966,1.538952,0.43148,0.163615,4.001439,1.671771,1.304032,0.43699,0.133694,3.643117,0.940861,1.337401,0.445354,0.137248,4.24054,1.444481,1.347196,0.317148,0.131983
1725716052.661615,1725716052.663844,21.0,0.0,4327.179688,4277.05127,4381.410156,4263.717773,4260.512695,4203.205078,4344.487305,4288.846191,4290.512695,4250.897461,4474.615234,4536.666504,4365.384766,4429.743652,3812.0,1.0,15.0,,,,0.0,4.0,4.0,4.0,4.0,4.0,4.0,4.0,4.0,4.0,4.0,4.0,4.0,4.0,4.0,100.0,,,,,,,,,,,,,,,,,,,,,,,,,,,,,,,,,,,,,,,,,,,,,,,,,,,,,,,,,,,,,,,,,,,,,,,,,,,,,,,,,,,,,,,,,,,,,,,,,,,,,,,,,,,,,,,,,,,,,,,,,,,,,,,,,,,
1725716052.665519,1725716052.667748,22.0,0.0,4328.077148,4278.974121,4382.563965,4263.846191,4260.641113,4202.436035,4343.333496,4284.487305,4287.820313,4251.922852,4475.897461,4538.333496,4365.384766,4428.333496,2879.0,1.0,15.0,,,,0.0,4.0,4.0,4.0,4.0,4.0,4.0,4.0,4.0,4.0,4.0,4.0,4.0,4.0,4.0,100.0,,,,,,,,,,,,,,,,,,,,,,,,,,,,,,,,,,,,,,,,,,,,,,,,,,,,,,,,,,,,,,,,,,,,,,,,,,,,,,,,,,,,,,,,,,,,,,,,,,,,,,,,,,,,,,,,,,,,,,,,,,,,,,,,,,,
1725716052.669423,1725716052.671553,23.0,0.0,4328.333496,4280.641113,4382.563965,4264.743652,4260.641113,4201.922852,4340.512695,4282.436035,4285.128418,4251.794922,4475.769043,4540.897461,4364.615234,4424.743652,3111.0,1.0,15.0,,,,0.0,4.0,4.0,4.0,4.0,4.0,4.0,4.0,4.0,4.0,4.0,4.0,4.0,4.0,4.0,100.0,,,,,,,,,,,,,,,,,,,,,,,,,,,,,,,,,,,,,,,,,,,,,,,,,,,,,,,,,,,,,,,,,,,,,,,,,,,,,,,,,,,,,,,,,,,,,,,,,,,,,,,,,,,,,,,,,,,,,,,,,,,,,,,,,,,
1725716052.673327,1725716052.675457,24.0,0.0,4328.077148,4281.025879,4381.410156,4266.025879,4260.641113,4201.666504,4336.410156,4282.05127,4284.102539,4250.512695,4472.436035,4541.794922,4363.205078,4420.128418,3396.0,1.0,15.0,,,,0.0,4.0,4.0,4.0,4.0,4.0,4.0,4.0,4.0,4.0,4.0,4.0,4.0,4.0,4.0,100.0,,,,,,,,,,,,,,,,,,,,,,,,,,,,,,,,,,,,,,,,,,,,,,,,,,,,,,,,,,,,,,,,,,,,,,,,,,,,,,,,,,,,,,,,,,,,,,,,,,,,,,,,,,,,,,,,,,,,,,,,,,,,,,,,,,,
1725716052.677231,1725716052.679361,25.0,0.0,4328.077148,4280.769043,4380.0,4267.05127,4260.769043,4201.538574,4332.05127,4280.897461,4284.743652,4249.358887,4466.666504,4538.974121,4360.512695,4416.153809,3812.0,1.0,15.0,,,,0.0,4.0,4.0,4.0,4.0,4.0,4.0,4.0,4.0,4.0,4.0,4.0,4.0,4.0,4.0,100.0,,,,,,,,,,,,,,,,,,,,,,,,,,,,,,,,,,,,,,,,,,,,,,,,,,,,,,,,,,,,,,,,,,,,,,,,,,,,,,,,,,,,,,,,,,,,,,,,,,,,,,,,,,,,,,,,,,,,,,,,,,,,,,,,,,,
1725716052.681135,1725716052.683365,26.0,0.0,4329.102539,4280.256348,4379.615234,4267.436035,4261.025879,4201.410156,4328.717773,4277.436035,4285.0,4249.358887,4460.769043,4533.589844,4356.410156,4413.717773,2879.0,1.0,15.0,,,,0.0,4.0,4.0,4.0,4.0,4.0,4.0,4.0,4.0,4.0,4.0,4.0,4.0,4.0,4.0,100.0,,,,,,,,,,,,,,,,,,,,,,,,,,,,,,,,,,,,,,,,,,,,,,,,,,,,,,,,,,,,,,,,,,,,,,,,,,,,,,,,,,,,,,,,,,,,,,,,,,,,,,,,,,,,,,,,,,,,,,,,,,,,,,,,,,,
