Timestamp,OriginalTimestamp,EEG.Counter,EEG.Interpolated,EEG.AF3,EEG.F7,EEG.F3,EEG.FC5,EEG.T7,EEG.P7,EEG.O1,EEG.O2,EEG.P8,EEG.T8,EEG.FC6,EEG.F4,EEG.F8,EEG.AF4,EEG.RawCq,EEG.Battery,EEG.BatteryPercent,MarkerIndex,MarkerType,MarkerValueInt,EEG.MarkerHardware,CQ.AF3,CQ.F7,CQ.F3,CQ.FC5,CQ.T7,CQ.P7,CQ.O1,CQ.O2,CQ.P8,CQ.T8,CQ.FC6,CQ.F4,CQ.F8,CQ.AF4,CQ.Overall,EQ.SampleRateQuality,EQ.OVERALL,EQ.AF3,EQ.F7,EQ.F3,EQ.FC5,EQ.T7,EQ.P7,EQ.O1,EQ.O2,EQ.P8,EQ.T8,EQ.FC6,EQ.F4,EQ.F8,EQ.AF4,MC.Action,MC.ActionPower,MC.IsActive,PM.Attention.IsActive,PM.Attention.Scaled,PM.Attention.Raw,PM.Attention.Min,PM.Attention.Max,PM.Engagement.IsActive,PM.Engagement.Scaled,PM.Engagement.Raw,PM.Engagement.Min,PM.Engagement.Max,PM.Excitement.IsActive,PM.Excitement.Scaled,PM.Excitement.Raw,PM.Excitement.Min,PM.Excitement.Max,PM.LongTermExcitement,PM.Stress.IsActive,PM.Stress.Scaled,PM.Stress.Raw,PM.Stress.Min,PM.Stress.Max,PM.Relaxation.IsActive,PM.Relaxation.Scaled,PM.Relaxation.Raw,PM.Relaxation.Min,PM.Relaxation.Max,PM.Interest.IsActive,PM.Interest.Scaled,PM.Interest.Raw,PM.Interest.Min,PM.Interest.Max,PM.Focus.IsActive,PM.Focus.Scaled,PM.Focus.Raw,PM.Focus.Min,PM.Focus.Max,FE.BlinkWink,FE.HorizontalEyesDirection,FE.UpperFaceAction,FE.UpperFaceActionPower,FE.LowerFaceAction,FE.LowerFaceActionPower,POW.AF3.Theta,POW.AF3.Alpha,POW.AF3.BetaL,POW.AF3.BetaH,POW.AF3.Gamma,POW.F7.Theta,POW.F7.Alpha,POW.F7.BetaL,POW.F7.BetaH,POW.F7.Gamma,POW.F3.Theta,POW.F3.Alpha,POW.F3.BetaL,POW.F3.BetaH,POW.F3.Gamma,POW.FC5.Theta,POW.FC5.Alpha,POW.FC5.BetaL,POW.FC5.BetaH,POW.FC5.Gamma,POW.T7.Theta,POW.T7.Alpha,POW.T7.BetaL,POW.T7.BetaH,POW.T7.Gamma,POW.P7.Theta,POW.P7.Alpha,POW.P7.BetaL,POW.P7.BetaH,POW.P7.Gamma,POW.O1.Theta,POW.O1.Alpha,POW.O1.BetaL,POW.O1.BetaH,POW.O1.Gamma,POW.O2.Theta,POW.O2.Alpha,POW.O2.BetaL,POW.O2.BetaH,POW.O2.Gamma,POW.P8.Theta,POW.P8.Alpha,POW.P8.BetaL,POW.P8.BetaH,POW.P8.Gamma,POW.T8.Theta,POW.T8.Alpha,POW.T8.BetaL,POW.T8.BetaH,POW.T8.Gamma,POW.FC6.Theta,POW.FC6.Alpha,POW.FC6.BetaL,POW.FC6.BetaH,POW.FC6.Gamma,POW.F4.Theta,POW.F4.Alpha,POW.F4.BetaL,POW.F4.BetaH,POW.F4.Gamma,POW.F8.Theta,POW.F8.Alpha,POW.F8.BetaL,POW.F8.BetaH,POW.F8.Gamma,POW.AF4.Theta,POW.AF4.Alpha,POW.AF4.BetaL,POW.AF4.BetaH,POW.AF4.Gamma
1725618205.604523,1725618205.605765,150.0,0.0,4236.410156,4232.05127,4265.256348,4273.461426,4202.692383,4217.692383,4217.692383,4214.743652,4217.05127,4214.230957,4520.512695,4517.179688,4365.256348,4443.461426,2885.0,2.0,35.0,5.0,1.0,1.0,0.0,4.0,4.0,4.0,4.0,4.0,4.0,4.0,4.0,4.0,4.0,4.0,4.0,4.0,4.0,100.0,,,,,,,,,,,,,,,,,,,,,,,,,,,,,,,,,,,,,,,,,,,,,,,,,,,,,,,,,,,,,,,,,,,,,,,,,,,,,,,,,,,,,,,,,,,,,,,,,,,,,,,,,,,,,,,,,,,,,,,,,,,,,,,,,,,
1725618205.608427,1725618205.609669,151.0,0.0,4235.128418,4231.282227,4265.256348,4274.230957,4202.563965,4217.307617,4219.615234,4213.589844,4215.769043,4213.205078,4518.974121,4515.897461,4363.077148,4442.307617,3064.0,2.0,35.0,,,,0.0,4.0,4.0,4.0,4.0,4.0,4.0,4.0,4.0,4.0,4.0,4.0,4.0,4.0,4.0,100.0,,,,,,,,,,,,,,,,,,,,,,,,,,,,,,,,,,,,,,,,,,,,,,,,,,,,,,,,,,,,,,,,,,,,,,,,,,,,,,,,,,,,,,,,,,,,,,,,,,,,,,,,,,,,,,,,,,,,,,,,,,,,,,,,,,,
1725618205.612331,1725618205.613473,152.0,0.0,4233.717773,4230.0,4265.512695,4273.589844,4202.692383,4216.794922,4222.179688,4213.974121,4216.025879,4213.461426,4518.205078,4515.0,4361.666504,4441.922852,3406.0,2.0,35.0,,,,0.0,4.0,4.0,4.0,4.0,4.0,4.0,4.0,4.0,4.0,4.0,4.0,4.0,4.0,4.0,100.0,,,,,,,,,,,,,,,,,,,,,,,,,,,,,,,,,,,,,,,,,,,,,,,,,,,,,,,,,,,,,,,,,,,,,,,,,,,,,,,,,,,,,,,,,,,,,,,,,,,,,,,,,,,,,,,,,,,,,,,,,,,,,,,,,,,
1725618205.616235,1725618205.617377,153.0,0.0,4233.333496,4229.102539,4265.256348,4272.05127,4202.563965,4216.282227,4224.615234,4215.0,4217.436035,4213.461426,4518.846191,4512.820313,4362.179688,4442.436035,3876.0,2.0,35.0,,,,0.0,4.0,4.0,4.0,4.0,4.0,4.0,4.0,4.0,4.0,4.0,4.0,4.0,4.0,4.0,100.0,,,,,,,,,,,,,,,,,,,,,,,,,,,,,,,,,,,,,,,,,,,,,,,,,,,,,,,,,,,,,,,,,,,,,,,,,,,,,,,,,,,,,,,,,,,,,,,,,,,,,,,,,,,,,,,,,,,,,,,,,,,,,,,,,,,
1725618205.620139,1725618205.621281,154.0,0.0,4234.230957,4229.230957,4264.230957,4270.256348,4201.922852,4215.769043,4226.666504,4216.025879,4218.205078,4213.077148,4521.025879,4509.230957,4364.230957,4443.589844,2885.0,2.0,35.0,,,,0.0,4.0,4.0,4.0,4.0,4.0,4.0,4.0,4.0,4.0,4.0,4.0,4.0,4.0,4.0,100.0,,,,,,,,,,,,,,,,,,,,,,,,,,,,,,,,,,,,,,,,,,,,,,,,,,,,,,,,0.0,0.0,1.0,0.0,1.0,0.0,,,,,,,,,,,,,,,,,,,,,,,,,,,,,,,,,,,,,,,,,,,,,,,,,,,,,,,,,,,,,,,,,,,,,,
1725618205.624043,1725618205.625186,155.0,0.0,4235.512695,4230.128418,4263.333496,4268.846191,4201.153809,4215.641113,4228.077148,4216.794922,4216.410156,4213.077148,4523.846191,4506.538574,4366.282227,4444.230957,3064.0,2.0,35.0,,,,0.0,4.0,4.0,4.0,4.0,4.0,4.0,4.0,4.0,4.0,4.0,4.0,4.0,4.0,4.0,100.0,,,,,,,,,,,,,,,,,,,,,,,,,,,,,,,,,,,,,,,,,,,,,,,,,,,,,,,,,,,,,,,,,,,,,,,,,,,,,,,,,,,,,,,,,,,,,,,,,,,,,,,,,,,,,,,,,,,,,,,,,,,,,,,,,,,
1725618205.627947,1725618205.62899,156.0,0.0,4236.282227,4231.025879,4263.205078,4268.589844,4201.282227,4215.897461,4229.102539,4216.538574,4211.666504,4214.102539,4525.512695,4507.307617,4367.05127,4444.230957,3406.0,2.0,35.0,,,,0.0,4.0,4.0,4.0,4.0,4.0,4.0,4.0,4.0,4.0,4.0,4.0,4.0,4.0,4.0,100.0,,,,,,,,,,,,,,,,,,,,,,,,,,,,,,,,,,,,,,,,,,,,,,,,,,,,,,,,,,,,,,,,,,,,,,,,,,,,,,,,,,,,,,,,,,,,,,,,,,,,,,,,,,,,,,,,,,,,,,,,,,,,,,,,,,,
1725618205.631851,1725618205.632894,157.0,0.0,4236.282227,4230.897461,4264.230957,4269.230957,4202.307617,4216.410156,4230.0,4214.871582,4205.897461,4215.384766,4525.256348,4511.666504,4366.410156,4443.846191,3876.0,2.0,35.0,,,,0.0,4.0,4.0,4.0,4.0,4.0,4.0,4.0,4.0,4.0,4.0,4.0,4.0,4.0,4.0,100.0,,,,,,,,,,,,,,,,,,,,,,,,,,,,,,,,,,,,,,,,,,,,,,,,,,,,,,,,,,,,,,,,,,,,,,,,,,,,,,,,,,,,,,,,,,,,,,,,,,,,,,,,,,,,,,,,,,,,,,,,,,,,,,,,,,,
1725618205.635755,1725618205.636798,158.0,0.0,4235.897461,4230.256348,4265.512695,4271.153809,4203.974121,4217.05127,4230.769043,4212.05127,4202.179688,4215.512695,4523.974121,4516.538574,4366.282227,4443.717773,2885.0,2.0,35.0,,,,0.0,4.0,4.0,4.0,4.0,4.0,4.0,4.0,4.0,4.0,4.0,4.0,4.0,4.0,4.0,100.0,,,,,,,,,,,,,,,,,,,,,,,,,,,,,,,,,,,,,,,,,,,,,,,,,,,,,,,,,,,,,,,,,,,,,,,,,,,,,,,,,,,,,,,,,,,,,,,,,,,,,,,,,,,,,,,,,,,,,,,,,,,,,,,,,,,
1725618205.63966,1725618205.640802,159.0,0.0,4235.641113,4230.0,4266.666504,4273.846191,4205.256348,4217.563965,4231.794922,4209.615234,4202.94873,4214.230957,4523.461426,4518.717773,4368.077148,4444.102539,3064.0,2.0,35.0,,,,0.0,4.0,4.0,4.0,4.0,4.0,4.0,4.0,4.0,4.0,4.0,4.0,4.0,4.0,4.0,100.0,,,,,,,,,,,,,,,,,,,,,,,,,,,,,,,,,,,,,,,,,,,,,,,,,,,,,,,,,,,,,,,,,,,,,,,,,,,,,,,,,,,,,,,,,,,,,,,,,,,,,,,,,,,,,,,,,,,,,,,,,,,,,,,,,,,
1725618205.643564,1725618205.644706,160.0,0.0,4235.641113,4230.897461,4267.307617,4276.153809,4205.897461,4217.692383,4232.820313,4208.589844,4207.436035,4212.563965,4524.358887,4516.922852,4371.794922,4444.871582,3406.0,2.0,35.0,,,,0.0,4.0,4.0,4.0,4.0,4.0,4.0,4.0,4.0,4.0,4.0,4.0,4.0,4.0,4.0,100.0,,,,,,,,,,,,,,,,,,,,,,,,,,,,,,,,,,,,,,,,,,,,,,,,,,,,,,,,,,,,,,,,,,,,,,,,,,,,,,,,,,,,,,,,,,,,,,,,,,,,,,,,,,,,,,,,,,,,,,,,,,,,,,,,,,,
1725618205.647468,1725618205.64861,161.0,0.0,4235.128418,4232.692383,4267.307617,4276.538574,4205.769043,4217.436035,4233.333496,4209.615234,4213.077148,4211.666504,4526.025879,4512.563965,4375.256348,4445.0,3876.0,2.0,35.0,,,,0.0,4.0,4.0,4.0,4.0,4.0,4.0,4.0,4.0,4.0,4.0,4.0,4.0,4.0,4.0,100.0,,,,,,,,,,,,,,,,,,,,,,,,,,,,,,,,,,,,,,,,,,,,,,,,,,,,,,,,,,,,,,,,,,,,,,,,,,,,,,,,,,,,,,,,,,,,,,,,,,,,,,,,,,,,,,,,,,,,,,,,,,,,,,,,,,,
1725618205.651372,1725618205.652514,162.0,0.0,4233.974121,4234.230957,4266.666504,4274.358887,4205.128418,4217.05127,4233.205078,4211.922852,4216.794922,4212.436035,4526.794922,4508.333496,4376.153809,4443.589844,2885.0,2.0,35.0,,,,0.0,4.0,4.0,4.0,4.0,4.0,4.0,4.0,4.0,4.0,4.0,4.0,4.0,4.0,4.0,100.0,,,,,,,,,,,,,,,,,1.0,0.0,0.0,,,,,,,,,,,,,,,,,,,,,,,,,,,,,,,,,,,,,0.0,0.0,1.0,0.0,1.0,0.0,5.127766,0.800035,1.32326,0.294812,0.076736,2.777194,0.939398,0.715801,0.251079,0.073394,4.258687,0.583964,1.193395,0.341448,0.139026,3.608587,0.933906,0.876964,0.161147,0.119614,1.355472,1.030162,0.320619,0.142296,0.092313,0.347644,0.296435,0.190378,0.088369,0.028823,1.919144,1.232875,0.26534,0.120279,0.066092,1.5104,2.095673,0.480316,0.495597,0.221708,1.492338,1.051757,0.951104,0.222718,0.100593,2.981586,1.230217,1.640402,0.326625,0.103103,4.463716,0.842495,2.184505,0.384231,0.275635,6.703715,1.960766,1.949721,0.7599,0.263615,4.284133,1.247611,1.868746,0.409618,0.10596,5.53149,1.156557,2.313266,0.472526,0.112327
1725618205.655276,1725618205.656418,163.0,0.0,4232.692383,4234.358887,4265.769043,4271.153809,4204.358887,4216.666504,4232.563965,4214.102539,4217.307617,4214.102539,4526.410156,4506.538574,4373.589844,4440.641113,3064.0,2.0,35.0,,,,0.0,4.0,4.0,4.0,4.0,4.0,4.0,4.0,4.0,4.0,4.0,4.0,4.0,4.0,4.0,100.0,,,,,,,,,,,,,,,,,,,,,,,,,,,,,,,,,,,,,,,,,,,,,,,,,,,,,,,,,,,,,,,,,,,,,,,,,,,,,,,,,,,,,,,,,,,,,,,,,,,,,,,,,,,,,,,,,,,,,,,,,,,,,,,,,,,
1725618205.65918,1725618205.660223,164.0,0.0,4232.05127,4233.205078,4265.256348,4269.230957,4203.846191,4216.538574,4231.922852,4215.384766,4215.641113,4215.641113,4525.384766,4507.307617,4369.102539,4436.666504,3406.0,2.0,35.0,,,,0.0,4.0,4.0,4.0,4.0,4.0,4.0,4.0,4.0,4.0,4.0,4.0,4.0,4.0,4.0,100.0,,,,,,,,,,,,,,,,,,,,,,,,,,,,,,,,,,,,,,,,,,,,,,,,,,,,,,,,,,,,,,,,,,,,,,,,,,,,,,,,,,,,,,,,,,,,,,,,,,,,,,,,,,,,,,,,,,,,,,,,,,,,,,,,,,,
1725618205.663084,1725618205.664127,165.0,0.0,4232.05127,4231.922852,4265.769043,4269.102539,4203.846191,4216.538574,4231.794922,4215.769043,4213.717773,4215.641113,4525.128418,4509.358887,4365.512695,4432.436035,3876.0,2.0,35.0,,,,0.0,4.0,4.0,4.0,4.0,4.0,4.0,4.0,4.0,4.0,4.0,4.0,4.0,4.0,4.0,100.0,,,,,,,,,,,,,,,,,,,,,,,,,,,,,,,,,,,,,,,,,,,,,,,,,,,,,,,,,,,,,,,,,,,,,,,,,,,,,,,,,,,,,,,,,,,,,,,,,,,,,,,,,,,,,,,,,,,,,,,,,,,,,,,,,,,
1725618205.666988,1725618205.668031,166.0,0.0,4232.563965,4231.410156,4266.666504,4270.0,4204.102539,4216.282227,4232.307617,4216.282227,4213.205078,4214.230957,4525.512695,4510.384766,4364.487305,4428.974121,2885.0,2.0,35.0,,,,0.0,4.0,4.0,4.0,4.0,4.0,4.0,4.0,4.0,4.0,4.0,4.0,4.0,4.0,4.0,100.0,,,,,,,,,,,,,,,,,,,,,,,,,,,,,,,,,,,,,,,,,,,,,,,,,,,,,,,,,,,,,,,,,,,,,,,,,,,,,,,,,,,,,,,,,,,,,,,,,,,,,,,,,,,,,,,,,,,,,,,,,,,,,,,,,,,
1725618205.670892,1725618205.672035,167.0,0.0,4232.820313,4231.666504,4266.794922,4270.384766,4204.358887,4215.641113,4232.820313,4217.436035,4214.230957,4212.179688,4525.256348,4509.743652,4365.256348,4427.436035,3064.0,2.0,35.0,,,,0.0,4.0,4.0,4.0,4.0,4.0,4.0,4.0,4.0,4.0,4.0,4.0,4.0,4.0,4.0,100.0,,,,,,,,,,,,,,,,,,,,,,,,,,,,,,,,,,,,,,,,,,,,,,,,,,,,,,,,,,,,,,,,,,,,,,,,,,,,,,,,,,,,,,,,,,,,,,,,,,,,,,,,,,,,,,,,,,,,,,,,,,,,,,,,,,,
1725618205.674796,1725618205.675939,168.0,0.0,4232.563965,4232.05127,4265.384766,4269.871582,4204.230957,4214.743652,4232.563965,4218.205078,4215.384766,4211.153809,4523.717773,4507.94873,4366.025879,4428.333496,3406.0,2.0,35.0,,,,0.0,4.0,4.0,4.0,4.0,4.0,4.0,4.0,4.0,4.0,4.0,4.0,4.0,4.0,4.0,100.0,,,,,,,,,,,,,,,,,,,,,,,,,,,,,,,,,,,,,,,,,,,,,,,,,,,,,,,,,,,,,,,,,,,,,,,,,,,,,,,,,,,,,,,,,,,,,,,,,,,,,,,,,,,,,,,,,,,,,,,,,,,,,,,,,,,
1725618205.678701,1725618205.679843,169.0,0.0,4232.05127,4231.794922,4263.333496,4269.102539,4203.717773,4214.102539,4231.538574,4217.563965,4215.384766,4211.794922,4521.666504,4506.666504,4365.512695,4431.153809,3876.0,2.0,35.0,,,,0.0,4.0,4.0,4.0,4.0,4.0,4.0,4.0,4.0,4.0,4.0,4.0,4.0,4.0,4.0,100.0,,,,,,,,,,,,,,,,,,,,,,,,,,,,,,,,,,,,,,,,,,,,,,,,,,,,,,,,,,,,,,,,,,,,,,,,,,,,,,,,,,,,,,,,,,,,,,,,,,,,,,,,,,,,,,,,,,,,,,,,,,,,,,,,,,,
1725618205.682605,1725618205.683847,170.0,0.0,4231.794922,4230.769043,4262.820313,4269.230957,4203.589844,4214.615234,4230.256348,4215.384766,4214.615234,4213.461426,4522.05127,4507.692383,4365.0,4435.128418,2885.0,2.0,35.0,,,,0.0,4.0,4.0,4.0,4.0,4.0,4.0,4.0,4.0,4.0,4.0,4.0,4.0,4.0,4.0,100.0,,,,,,,,,,,,,,,,,,,,,,,,,,,,,,,,,,,,,,,,,,,,,,,,,,,,,,,,0.0,0.0,1.0,0.0,1.0,0.0,,,,,,,,,,,,,,,,,,,,,,,,,,,,,,,,,,,,,,,,,,,,,,,,,,,,,,,,,,,,,,,,,,,,,,
1725618205.686509,1725618205.687751,171.0,0.0,4232.05127,4229.743652,4265.256348,4271.410156,4203.974121,4216.282227,4229.102539,4214.102539,4214.743652,4215.769043,4526.794922,4512.05127,4366.538574,4439.487305,3064.0,2.0,35.0,,,,0.0,4.0,4.0,4.0,4.0,4.0,4.0,4.0,4.0,4.0,4.0,4.0,4.0,4.0,4.0,100.0,,,,,,,,,,,,,,,,,,,,,,,,,,,,,,,,,,,,,,,,,,,,,,,,,,,,,,,,,,,,,,,,,,,,,,,,,,,,,,,,,,,,,,,,,,,,,,,,,,,,,,,,,,,,,,,,,,,,,,,,,,,,,,,,,,,
1725618205.690413,1725618205.691655,172.0,0.0,4233.205078,4229.615234,4269.615234,4275.641113,4204.871582,4218.461426,4228.717773,4216.025879,4216.794922,4218.333496,4534.743652,4518.717773,4370.897461,4443.589844,3406.0,2.0,35.0,,,,0.0,4.0,4.0,4.0,4.0,4.0,4.0,4.0,4.0,4.0,4.0,4.0,4.0,4.0,4.0,100.0,,,,,,,,,,,,,,,,,,,,,,,,,,,,,,,,,,,,,,,,,,,,,,,,,,,,,,,,,,,,,,,,,,,,,,,,,,,,,,,,,,,,,,,,,,,,,,,,,,,,,,,,,,,,,,,,,,,,,,,,,,,,,,,,,,,
1725618205.694317,1725618205.695559,173.0,0.0,4234.871582,4230.641113,4273.333496,4280.512695,4205.384766,4220.128418,4229.487305,4220.897461,4219.871582,4220.512695,4540.641113,4525.128418,4375.769043,4446.410156,3876.0,2.0,35.0,,,,0.0,4.0,4.0,4.0,4.0,4.0,4.0,4.0,4.0,4.0,4.0,4.0,4.0,4.0,4.0,100.0,,,,,,,,,,,,,,,,,,,,,,,,,,,,,,,,,,,,,,,,,,,,,,,,,,,,,,,,,,,,,,,,,,,,,,,,,,,,,,,,,,,,,,,,,,,,,,,,,,,,,,,,,,,,,,,,,,,,,,,,,,,,,,,,,,,
1725618205.698221,1725618205.699463,174.0,0.0,4236.538574,4231.922852,4274.358887,4282.94873,4204.743652,4220.0,4230.641113,4224.871582,4221.538574,4221.153809,4539.102539,4528.205078,4377.563965,4446.922852,2885.0,2.0,35.0,,,,0.0,4.0,4.0,4.0,4.0,4.0,4.0,4.0,4.0,4.0,4.0,4.0,4.0,4.0,4.0,100.0,,,,,,,,,,,,,,,,,,,,,,,,,,,,,,,,,,,,,,,,,,,,,,,,,,,,,,,,,,,,,,,,,,,,,,,,,,,,,,,,,,,,,,,,,,,,,,,,,,,,,,,,,,,,,,,,,,,,,,,,,,,,,,,,,,,
1725618205.702125,1725618205.703368,175.0,0.0,4237.307617,4232.307617,4271.922852,4280.384766,4203.205078,4217.820313,4231.153809,4222.820313,4219.487305,4218.846191,4528.846191,4525.897461,4374.358887,4444.615234,3064.0,2.0,35.0,,,,0.0,4.0,4.0,4.0,4.0,4.0,4.0,4.0,4.0,4.0,4.0,4.0,4.0,4.0,4.0,100.0,,,,,,,,,,,,,,,,,,,,,,,,,,,,,,,,,,,,,,,,,,,,,,,,,,,,,,,,,,,,,,,,,,,,,,,,,,,,,,,,,,,,,,,,,,,,,,,,,,,,,,,,,,,,,,,,,,,,,,,,,,,,,,,,,,,
1725618205.706029,1725618205.707172,176.0,0.0,4236.282227,4231.282227,4266.794922,4273.717773,4201.153809,4214.871582,4230.641113,4212.692383,4213.205078,4213.589844,4514.615234,4518.333496,4367.307617,4439.487305,3406.0,2.0,35.0,,,,0.0,4.0,4.0,4.0,4.0,4.0,4.0,4.0,4.0,4.0,4.0,4.0,4.0,4.0,4.0,100.0,,,,,,,,,,,,,,,,,,,,,,,,,,,,,,,,,,,,,,,,,,,,,,,,,,,,,,,,,,,,,,,,,,,,,,,,,,,,,,,,,,,,,,,,,,,,,,,,,,,,,,,,,,,,,,,,,,,,,,,,,,,,,,,,,,,
1725618205.709933,1725618205.711076,177.0,0.0,4233.205078,4229.615234,4261.538574,4266.025879,4199.615234,4212.563965,4229.358887,4198.461426,4205.0,4207.563965,4504.615234,4508.205078,4360.384766,4432.692383,3876.0,2.0,35.0,,,,0.0,4.0,4.0,4.0,4.0,4.0,4.0,4.0,4.0,4.0,4.0,4.0,4.0,4.0,4.0,100.0,,,,,,,,,,,,,,,,,,,,,,,,,,,,,,,,,,,,,,,,,,,,,,,,,,,,,,,,,,,,,,,,,,,,,,,,,,,,,,,,,,,,,,,,,,,,,,,,,,,,,,,,,,,,,,,,,,,,,,,,,,,,,,,,,,,
1725618205.713838,1725618205.71508,178.0,0.0,4230.384766,4228.589844,4259.230957,4262.05127,4199.230957,4212.179688,4228.205078,4188.333496,4198.846191,4203.333496,4504.102539,4500.512695,4356.922852,4426.922852,2885.0,2.0,35.0,,,,0.0,4.0,4.0,4.0,4.0,4.0,4.0,4.0,4.0,4.0,4.0,4.0,4.0,4.0,4.0,100.0,,,,,,,,,,,,,,,,,,,,,,,,,,,,,,,,,,,,,,,,,,,,,,,,,,,,,,,,0.0,0.0,1.0,0.0,1.0,0.0,,,,,,,,,,,,,,,,,,,,,,,,,,,,,,,,,,,,,,,,,,,,,,,,,,,,,,,,,,,,,,,,,,,,,,
1725618205.717742,1725618205.718984,179.0,0.0,4230.384766,4228.846191,4262.179688,4263.974121,4200.256348,4213.589844,4227.94873,4188.333496,4198.333496,4202.436035,4511.666504,4499.230957,4357.692383,4424.615234,3064.0,2.0,35.0,,,,0.0,4.0,4.0,4.0,4.0,4.0,4.0,4.0,4.0,4.0,4.0,4.0,4.0,4.0,4.0,100.0,,,,,,,,,,,,,,,,,,,,,,,,,,,,,,,,,,,,,,,,,,,,,,,,,,,,,,,,,,,,,,,,,,,,,,,,,,,,,,,,,,,,,,,,,,,,,,,,,,,,,,,,,,,,,,,,,,,,,,,,,,,,,,,,,,,
1725618205.721646,1725618205.722888,180.0,0.0,4234.358887,4230.0,4269.487305,4270.512695,4202.05127,4215.769043,4228.717773,4197.94873,4203.205078,4203.077148,4521.538574,4505.0,4361.666504,4427.179688,3406.0,2.0,35.0,,,,0.0,4.0,4.0,4.0,4.0,4.0,4.0,4.0,4.0,4.0,4.0,4.0,4.0,4.0,4.0,100.0,,,,,,,,,,,,,,,,,,,,,,,,,,,,,,,,,,,,,,,,,,,,,,,,,,,,,,,,,,,,,,,,,,,,,,,,,,,,,,,,,,,,,,,,,,,,,,,,,,,,,,,,,,,,,,,,,,,,,,,,,,,,,,,,,,,
1725618205.72555,1725618205.726792,181.0,0.0,4240.897461,4231.153809,4276.794922,4277.820313,4203.717773,4217.436035,4230.256348,4210.256348,4210.0,4203.333496,4527.563965,4514.358887,4366.025879,4433.461426,3876.0,2.0,35.0,,,,0.0,4.0,4.0,4.0,4.0,4.0,4.0,4.0,4.0,4.0,4.0,4.0,4.0,4.0,4.0,100.0,,,,,,,,,,,,,,,,,,,,,,,,,,,,,,,,,,,,,,,,,,,,,,,,,,,,,,,,,,,,,,,,,,,,,,,,,,,,,,,,,,,,,,,,,,,,,,,,,,,,,,,,,,,,,,,,,,,,,,,,,,,,,,,,,,,
1725618205.729454,1725618205.730696,182.0,0.0,4246.282227,4231.666504,4279.743652,4281.666504,4203.846191,4218.077148,4231.794922,4216.922852,4213.974121,4203.205078,4527.692383,4521.922852,4369.230957,4440.128418,2885.0,2.0,35.0,,,,0.0,4.0,4.0,4.0,4.0,4.0,4.0,4.0,4.0,4.0,4.0,4.0,4.0,4.0,4.0,100.0,,,,,,,,,,,,,,,,,,,,,,,,,,,,,,,,,,,,,,,,,,,,,,,,,,,,,,,,,,,,,,,,,,,,,,,,,,,,,,,,,,,,,,,,,,,,,,,,,,,,,,,,,,,,,,,,,,,,,,,,,,,,,,,,,,,
1725618205.733358,1725618205.7345,183.0,0.0,4247.94873,4231.666504,4277.05127,4280.384766,4202.692383,4217.563965,4232.436035,4214.358887,4212.820313,4203.846191,4523.974121,4524.230957,4370.641113,4443.846191,3064.0,2.0,35.0,,,,0.0,4.0,4.0,4.0,4.0,4.0,4.0,4.0,4.0,4.0,4.0,4.0,4.0,4.0,4.0,100.0,,,,,,,,,,,,,,,,,,,,,,,,,,,,,,,,,,,,,,,,,,,,,,,,,,,,,,,,,,,,,,,,,,,,,,,,,,,,,,,,,,,,,,,,,,,,,,,,,,,,,,,,,,,,,,,,,,,,,,,,,,,,,,,,,,,
1725618205.737262,1725618205.738405,184.0,0.0,4246.025879,4231.282227,4271.153809,4274.871582,4201.538574,4216.282227,4232.179688,4205.897461,4207.692383,4206.153809,4521.025879,4521.794922,4371.282227,4443.333496,3406.0,2.0,35.0,,,,0.0,4.0,4.0,4.0,4.0,4.0,4.0,4.0,4.0,4.0,4.0,4.0,4.0,4.0,4.0,100.0,,,,,,,,,,,,,,,,,,,,,,,,,,,,,,,,,,,,,,,,,,,,,,,,,,,,,,,,,,,,,,,,,,,,,,,,,,,,,,,,,,,,,,,,,,,,,,,,,,,,,,,,,,,,,,,,,,,,,,,,,,,,,,,,,,,
1725618205.741166,1725618205.742309,185.0,0.0,4242.820313,4231.153809,4266.538574,4268.333496,4202.05127,4214.871582,4231.282227,4198.846191,4202.820313,4209.358887,4521.410156,4517.307617,4372.05127,4440.641113,3876.0,2.0,35.0,,,,0.0,4.0,4.0,4.0,4.0,4.0,4.0,4.0,4.0,4.0,4.0,4.0,4.0,4.0,4.0,100.0,,,,,,,,,,,,,,,,,,,,,,,,,,,,,,,,,,,,,,,,,,,,,,,,,,,,,,,,,,,,,,,,,,,,,,,,,,,,,,,,,,,,,,,,,,,,,,,,,,,,,,,,,,,,,,,,,,,,,,,,,,,,,,,,,,,
1725618205.74507,1725618205.746213,186.0,0.0,4241.410156,4231.153809,4266.282227,4264.615234,4204.615234,4213.846191,4230.897461,4198.717773,4201.538574,4211.666504,4524.102539,4514.102539,4373.205078,4439.615234,2885.0,2.0,35.0,,,,0.0,4.0,4.0,4.0,4.0,4.0,4.0,4.0,4.0,4.0,4.0,4.0,4.0,4.0,4.0,100.0,,,,,,,,,,,,,,,,,,,,,,,,,,,,,,,,,,,,,,,,,,,,,,,,,,,,,,,,0.0,0.0,1.0,0.0,1.0,0.0,,,,,,,,,,,,,,,,,,,,,,,,,,,,,,,,,,,,,,,,,,,,,,,,,,,,,,,,,,,,,,,,,,,,,,
1725618205.748974,1725618205.750017,187.0,0.0,4243.077148,4231.282227,4270.384766,4266.025879,4207.94873,4213.205078,4231.410156,4205.0,4204.615234,4211.922852,4525.897461,4514.871582,4374.230957,4442.820313,3064.0,2.0,35.0,,,,0.0,4.0,4.0,4.0,4.0,4.0,4.0,4.0,4.0,4.0,4.0,4.0,4.0,4.0,4.0,100.0,,,,,,,,,,,,,,,,,,,,,,,,,,,,,,,,,,,,,,,,,,,,,,,,,,,,,,,,,,,,,,,,,,,,,,,,,,,,,,,,,,,,,,,,,,,,,,,,,,,,,,,,,,,,,,,,,,,,,,,,,,,,,,,,,,,
1725618205.752879,1725618205.753921,188.0,0.0,4246.922852,4231.410156,4276.410156,4271.410156,4210.769043,4213.077148,4232.820313,4212.692383,4209.615234,4210.384766,4525.256348,4520.0,4374.230957,4449.487305,3406.0,2.0,35.0,,,,0.0,4.0,4.0,4.0,4.0,4.0,4.0,4.0,4.0,4.0,4.0,4.0,4.0,4.0,4.0,100.0,,,,,,,,,,,,,,,,,,,,,,,,,,,,,,,,,,,,,,,,,,,,,,,,,,,,,,,,,,,,,,,,,,,,,,,,,,,,,,,,,,,,,,,,,,,,,,,,,,,,,,,,,,,,,,,,,,,,,,,,,,,,,,,,,,,
1725618205.756783,1725618205.757825,189.0,0.0,4250.769043,4231.410156,4281.666504,4277.307617,4212.692383,4213.717773,4234.358887,4216.666504,4213.333496,4208.717773,4523.461426,4526.922852,4373.589844,4456.410156,3876.0,2.0,35.0,,,,0.0,4.0,4.0,4.0,4.0,4.0,4.0,4.0,4.0,4.0,4.0,4.0,4.0,4.0,4.0,100.0,,,,,,,,,,,,,,,,,,,,,,,,,,,,,,,,,,,,,,,,,,,,,,,,,,,,,,,,,,,,,,,,,,,,,,,,,,,,,,,,,,,,,,,,,,,,,,,,,,,,,,,,,,,,,,,,,,,,,,,,,,,,,,,,,,,
1725618205.760687,1725618205.761729,190.0,0.0,4252.692383,4231.410156,4283.717773,4280.512695,4213.846191,4215.128418,4235.256348,4216.153809,4214.615234,4208.846191,4523.333496,4532.436035,4374.102539,4460.769043,2885.0,2.0,35.0,,,,0.0,4.0,4.0,4.0,4.0,4.0,4.0,4.0,4.0,4.0,4.0,4.0,4.0,4.0,4.0,100.0,,,,,,,,,,,,,,,,,,,,,,,,,,,,,,,,,,,,,,,,,,,,,,,,,,,,,,,,,,,,,,,,,,,,,,,,,,,,,,,,,,,,,,,,,,,,,,,,,,,,,,,,,,,,,,,,,,,,,,,,,,,,,,,,,,,
1725618205.764591,1725618205.765533,191.0,0.0,4252.05127,4231.282227,4282.436035,4280.769043,4214.358887,4216.794922,4235.0,4213.589844,4213.974121,4211.666504,4526.794922,4534.102539,4377.179688,4461.666504,3064.0,2.0,35.0,,,,0.0,4.0,4.0,4.0,4.0,4.0,4.0,4.0,4.0,4.0,4.0,4.0,4.0,4.0,4.0,100.0,,,,,,,,,,,,,,,,,,,,,,,,,,,,,,,,,,,,,,,,,,,,,,,,,,,,,,,,,,,,,,,,,,,,,,,,,,,,,,,,,,,,,,,,,,,,,,,,,,,,,,,,,,,,,,,,,,,,,,,,,,,,,,,,,,,
1725618205.768495,1725618205.769438,192.0,0.0,4250.128418,4231.282227,4279.871582,4279.487305,4214.615234,4217.820313,4233.974121,4212.692383,4213.589844,4215.512695,4533.077148,4532.179688,4382.820313,4460.641113,3406.0,2.0,35.0,,,,0.0,4.0,4.0,4.0,4.0,4.0,4.0,4.0,4.0,4.0,4.0,4.0,4.0,4.0,4.0,100.0,,,,,,,,,,,,,,,,,,,,,,,,,,,,,,,,,,,,,,,,,,,,,,,,,,,,,,,,,,,,,,,,,,,,,,,,,,,,,,,,,,,,,,,,,,,,,,,,,,,,,,,,,,,,,,,,,,,,,,,,,,,,,,,,,,,
1725618205.772399,1725618205.773342,193.0,0.0,4248.461426,4231.282227,4278.205078,4278.461426,4213.846191,4217.692383,4232.820313,4214.358887,4214.615234,4217.94873,4539.230957,4529.358887,4388.846191,4459.487305,3876.0,2.0,35.0,,,,0.0,4.0,4.0,4.0,4.0,4.0,4.0,4.0,4.0,4.0,4.0,4.0,4.0,4.0,4.0,100.0,,,,,,,,,,,,,,,,,,,,,,,,,,,,,,,,,,,,,,,,,,,,,,,,,,,,,,,,,,,,,,,,,,,,,,,,,,,,,,,,,,,,,,,,,,,,,,,,,,,,,,,,,,,,,,,,,,,,,,,,,,,,,,,,,,,
1725618205.776303,1725618205.777346,194.0,0.0,4247.820313,4231.282227,4278.333496,4278.205078,4211.410156,4216.282227,4232.179688,4216.922852,4216.922852,4217.692383,4542.179688,4528.333496,4392.692383,4459.615234,2885.0,2.0,35.0,,,,0.0,4.0,4.0,4.0,4.0,4.0,4.0,4.0,4.0,4.0,4.0,4.0,4.0,4.0,4.0,100.0,1.0,75.0,4.0,4.0,4.0,4.0,4.0,1.0,4.0,4.0,4.0,4.0,4.0,4.0,4.0,4.0,1.0,0.0,0.0,1.0,0.3618,-7.215236,-10.413277,-2.386968,1.0,0.499117,-0.477435,-1.078666,-0.023297,1.0,0.104938,1.948881,1.302605,7.461212,0.160024,1.0,0.327601,20.402477,-19.164488,91.92377,1.0,0.202333,0.103063,0.065749,0.25281,1.0,0.474085,2.404898,-16.992606,23.549319,1.0,0.354272,0.354272,0.0,1.0,0.0,0.0,1.0,0.0,1.0,0.0,5.778655,0.77142,1.51419,0.314545,0.081792,3.100887,0.983863,0.840657,0.302353,0.075618,4.735542,0.552424,1.272146,0.37223,0.135352,4.090421,0.93229,0.939355,0.187586,0.121315,1.616537,0.876273,0.303947,0.166034,0.09304,0.39955,0.303283,0.248663,0.109973,0.033984,2.06693,0.987741,0.271866,0.135793,0.069155,1.501927,2.250294,0.608783,0.48784,0.229328,1.663729,1.13828,1.105152,0.2415,0.109141,3.450082,1.144001,1.884534,0.379933,0.103487,5.09821,0.781978,2.404214,0.400564,0.298316,7.566752,1.661447,2.026957,0.82495,0.264505,4.86179,1.276328,2.098441,0.436235,0.106903,6.191609,1.193299,2.513432,0.513159,0.119044
1725618205.780207,1725618205.78125,195.0,0.0,4247.94873,4231.410156,4278.846191,4278.461426,4206.922852,4214.615234,4232.307617,4217.692383,4218.461426,4216.282227,4541.153809,4529.615234,4393.333496,4460.256348,3064.0,2.0,35.0,,,,0.0,4.0,4.0,4.0,4.0,4.0,4.0,4.0,4.0,4.0,4.0,4.0,4.0,4.0,4.0,100.0,,,,,,,,,,,,,,,,,,,,,,,,,,,,,,,,,,,,,,,,,,,,,,,,,,,,,,,,,,,,,,,,,,,,,,,,,,,,,,,,,,,,,,,,,,,,,,,,,,,,,,,,,,,,,,,,,,,,,,,,,,,,,,,,,,,
1725618205.784111,1725618205.785154,196.0,0.0,4248.461426,4231.666504,4278.461426,4278.846191,4202.179688,4213.589844,4232.692383,4217.05127,4217.94873,4216.025879,4538.333496,4532.563965,4391.794922,4460.641113,3406.0,2.0,35.0,,,,0.0,4.0,4.0,4.0,4.0,4.0,4.0,4.0,4.0,4.0,4.0,4.0,4.0,4.0,4.0,100.0,,,,,,,,,,,,,,,,,,,,,,,,,,,,,,,,,,,,,,,,,,,,,,,,,,,,,,,,,,,,,,,,,,,,,,,,,,,,,,,,,,,,,,,,,,,,,,,,,,,,,,,,,,,,,,,,,,,,,,,,,,,,,,,,,,,
1725618205.788015,1725618205.789158,197.0,0.0,4249.230957,4232.307617,4277.692383,4279.230957,4199.871582,4213.589844,4233.077148,4218.205078,4216.666504,4217.436035,4537.436035,4536.025879,4389.871582,4460.128418,3876.0,2.0,35.0,,,,0.0,4.0,4.0,4.0,4.0,4.0,4.0,4.0,4.0,4.0,4.0,4.0,4.0,4.0,4.0,100.0,,,,,,,,,,,,,,,,,,,,,,,,,,,,,,,,,,,,,,,,,,,,,,,,,,,,,,,,,,,,,,,,,,,,,,,,,,,,,,,,,,,,,,,,,,,,,,,,,,,,,,,,,,,,,,,,,,,,,,,,,,,,,,,,,,,
1725618205.79192,1725618205.793062,198.0,0.0,4250.256348,4232.692383,4277.820313,4279.743652,4201.666504,4214.743652,4233.205078,4223.461426,4216.538574,4219.615234,4540.769043,4539.487305,4389.102539,4459.487305,2885.0,2.0,35.0,,,,0.0,4.0,4.0,4.0,4.0,4.0,4.0,4.0,4.0,4.0,4.0,4.0,4.0,4.0,4.0,100.0,,,,,,,,,,,,,,,,,,,,,,,,,,,,,,,,,,,,,,,,,,,,,,,,,,,,,,,,,,,,,,,,,,,,,,,,,,,,,,,,,,,,,,,,,,,,,,,,,,,,,,,,,,,,,,,,,,,,,,,,,,,,,,,,,,,
1725618205.795824,1725618205.796966,199.0,0.0,4251.153809,4232.692383,4279.487305,4280.641113,4206.282227,4216.282227,4233.205078,4231.666504,4218.717773,4220.641113,4547.05127,4542.692383,4389.743652,4459.871582,3064.0,2.0,35.0,,,,0.0,4.0,4.0,4.0,4.0,4.0,4.0,4.0,4.0,4.0,4.0,4.0,4.0,4.0,4.0,100.0,,,,,,,,,,,,,,,,,,,,,,,,,,,,,,,,,,,,,,,,,,,,,,,,,,,,,,,,,,,,,,,,,,,,,,,,,,,,,,,,,,,,,,,,,,,,,,,,,,,,,,,,,,,,,,,,,,,,,,,,,,,,,,,,,,,
1725618205.799728,1725618205.80087,200.0,0.0,4251.282227,4232.307617,4281.666504,4281.666504,4210.641113,4217.563965,4233.333496,4238.717773,4222.179688,4220.512695,4553.077148,4545.256348,4391.410156,4461.538574,3406.0,2.0,35.0,,,,0.0,4.0,4.0,4.0,4.0,4.0,4.0,4.0,4.0,4.0,4.0,4.0,4.0,4.0,4.0,100.0,,,,,,,,,,,,,,,,,,,,,,,,,,,,,,,,,,,,,,,,,,,,,,,,,,,,,,,,,,,,,,,,,,,,,,,,,,,,,,,,,,,,,,,,,,,,,,,,,,,,,,,,,,,,,,,,,,,,,,,,,,,,,,,,,,,
1725618205.803632,1725618205.804774,201.0,0.0,4250.769043,4232.05127,4283.205078,4282.307617,4211.538574,4218.205078,4233.333496,4240.641113,4225.256348,4220.0,4555.769043,4546.794922,4392.692383,4463.461426,3876.0,2.0,35.0,,,,0.0,4.0,4.0,4.0,4.0,4.0,4.0,4.0,4.0,4.0,4.0,4.0,4.0,4.0,4.0,100.0,,,,,,,,,,,,,,,,,,,,,,,,,,,,,,,,,,,,,,,,,,,,,,,,,,,,,,,,,,,,,,,,,,,,,,,,,,,,,,,,,,,,,,,,,,,,,,,,,,,,,,,,,,,,,,,,,,,,,,,,,,,,,,,,,,,
1725618205.807536,1725618205.808678,202.0,0.0,4250.256348,4232.05127,4283.589844,4282.307617,4208.589844,4218.333496,4232.94873,4236.153809,4226.538574,4220.0,4553.589844,4546.794922,4392.436035,4464.230957,2885.0,2.0,35.0,,,,0.0,4.0,4.0,4.0,4.0,4.0,4.0,4.0,4.0,4.0,4.0,4.0,4.0,4.0,4.0,100.0,,,,,,,,,,,,,,,,,,,,,,,,,,,,,,,,,,,,,,,,,,,,,,,,,,,,,,,,0.0,0.0,1.0,0.0,1.0,0.0,,,,,,,,,,,,,,,,,,,,,,,,,,,,,,,,,,,,,,,,,,,,,,,,,,,,,,,,,,,,,,,,,,,,,,
1725618205.81144,1725618205.812483,203.0,0.0,4250.128418,4232.179688,4283.205078,4282.179688,4203.333496,4217.820313,4232.692383,4227.05127,4225.128418,4220.0,4547.563965,4544.871582,4390.384766,4462.692383,3064.0,2.0,35.0,,,,0.0,4.0,4.0,4.0,4.0,4.0,4.0,4.0,4.0,4.0,4.0,4.0,4.0,4.0,4.0,100.0,,,,,,,,,,,,,,,,,,,,,,,,,,,,,,,,,,,,,,,,,,,,,,,,,,,,,,,,,,,,,,,,,,,,,,,,,,,,,,,,,,,,,,,,,,,,,,,,,,,,,,,,,,,,,,,,,,,,,,,,,,,,,,,,,,,
1725618205.815344,1725618205.816487,204.0,0.0,4249.871582,4232.179688,4281.922852,4282.179688,4199.102539,4217.179688,4232.820313,4216.922852,4220.897461,4217.94873,4540.128418,4540.256348,4386.410156,4459.102539,3406.0,2.0,35.0,,,,0.0,4.0,4.0,4.0,4.0,4.0,4.0,4.0,4.0,4.0,4.0,4.0,4.0,4.0,4.0,100.0,,,,,,,,,,,,,,,,,,,,,,,,,,,,,,,,,,,,,,,,,,,,,,,,,,,,,,,,,,,,,,,,,,,,,,,,,,,,,,,,,,,,,,,,,,,,,,,,,,,,,,,,,,,,,,,,,,,,,,,,,,,,,,,,,,,
1725618205.819248,1725618205.820391,205.0,0.0,4248.461426,4230.897461,4279.487305,4281.153809,4197.820313,4216.538574,4232.820313,4209.102539,4215.128418,4212.563965,4533.205078,4533.077148,4380.769043,4454.102539,3876.0,2.0,35.0,,,,0.0,4.0,4.0,4.0,4.0,4.0,4.0,4.0,4.0,4.0,4.0,4.0,4.0,4.0,4.0,100.0,,,,,,,,,,,,,,,,,,,,,,,,,,,,,,,,,,,,,,,,,,,,,,,,,,,,,,,,,,,,,,,,,,,,,,,,,,,,,,,,,,,,,,,,,,,,,,,,,,,,,,,,,,,,,,,,,,,,,,,,,,,,,,,,,,,
1725618205.823152,1725618205.824295,206.0,0.0,4244.615234,4226.794922,4275.769043,4277.563965,4199.487305,4215.897461,4232.307617,4204.615234,4209.487305,4204.487305,4526.666504,4524.230957,4373.461426,4447.692383,2885.0,2.0,35.0,,,,0.0,4.0,4.0,4.0,4.0,4.0,4.0,4.0,4.0,4.0,4.0,4.0,4.0,4.0,4.0,100.0,,,,,,,,,,,,,,,,,,,,,,,,,,,,,,,,,,,,,,,,,,,,,,,,,,,,,,,,,,,,,,,,,,,,,,,,,,,,,,,,,,,,,,,,,,,,,,,,,,,,,,,,,,,,,,,,,,,,,,,,,,,,,,,,,,,
1725618205.827057,1725618205.828199,207.0,0.0,4237.94873,4218.974121,4270.641113,4270.641113,4201.538574,4215.384766,4230.512695,4201.922852,4205.0,4196.153809,4519.487305,4514.743652,4365.128418,4439.871582,3064.0,2.0,35.0,,,,0.0,4.0,4.0,4.0,4.0,4.0,4.0,4.0,4.0,4.0,4.0,4.0,4.0,4.0,4.0,100.0,,,,,,,,,,,,,,,,,,,,,,,,,,,,,,,,,,,,,,,,,,,,,,,,,,,,,,,,,,,,,,,,,,,,,,,,,,,,,,,,,,,,,,,,,,,,,,,,,,,,,,,,,,,,,,,,,,,,,,,,,,,,,,,,,,,
1725618205.830961,1725618205.832103,208.0,0.0,4228.974121,4208.461426,4264.487305,4261.794922,4201.538574,4215.0,4227.563965,4199.487305,4201.282227,4189.871582,4511.025879,4505.128418,4356.666504,4430.897461,3406.0,2.0,35.0,,,,0.0,4.0,4.0,4.0,4.0,4.0,4.0,4.0,4.0,4.0,4.0,4.0,4.0,4.0,4.0,100.0,,,,,,,,,,,,,,,,,,,,,,,,,,,,,,,,,,,,,,,,,,,,,,,,,,,,,,,,,,,,,,,,,,,,,,,,,,,,,,,,,,,,,,,,,,,,,,,,,,,,,,,,,,,,,,,,,,,,,,,,,,,,,,,,,,,
1725618205.834865,1725618205.836107,209.0,0.0,4219.230957,4197.94873,4257.692383,4253.077148,4197.94873,4214.615234,4223.333496,4196.794922,4197.820313,4185.769043,4501.666504,4495.897461,4348.846191,4421.282227,3876.0,2.0,35.0,,,,0.0,4.0,4.0,4.0,4.0,4.0,4.0,4.0,4.0,4.0,4.0,4.0,4.0,4.0,4.0,100.0,,,,,,,,,,,,,,,,,,,,,,,,,,,,,,,,,,,,,,,,,,,,,,,,,,,,,,,,,,,,,,,,,,,,,,,,,,,,,,,,,,,,,,,,,,,,,,,,,,,,,,,,,,,,,,,,,,,,,,,,,,,,,,,,,,,
1725618205.838769,1725618205.840011,210.0,0.0,4210.769043,4190.512695,4250.769043,4246.538574,4191.666504,4214.230957,4218.461426,4195.0,4194.743652,4182.94873,4493.077148,4488.077148,4342.179688,4412.436035,2885.0,2.0,35.0,,,,0.0,4.0,4.0,4.0,4.0,4.0,4.0,4.0,4.0,4.0,4.0,4.0,4.0,4.0,4.0,100.0,,,,,,,,,,,,,,,,,,,,,,,,,,,,,,,,,,,,,,,,,,,,,,,,,,,,,,,,0.0,0.0,1.0,0.0,1.0,0.0,,,,,,,,,,,,,,,,,,,,,,,,,,,,,,,,,,,,,,,,,,,,,,,,,,,,,,,,,,,,,,,,,,,,,,
1725618205.842673,1725618205.843915,211.0,0.0,4205.512695,4187.563965,4245.256348,4243.077148,4185.384766,4214.230957,4214.358887,4195.512695,4193.205078,4180.256348,4487.307617,4483.974121,4336.666504,4406.410156,3064.0,2.0,35.0,,,,0.0,4.0,4.0,4.0,4.0,4.0,4.0,4.0,4.0,4.0,4.0,4.0,4.0,4.0,4.0,100.0,,,,,,,,,,,,,,,,,,,,,,,,,,,,,,,,,,,,,,,,,,,,,,,,,,,,,,,,,,,,,,,,,,,,,,,,,,,,,,,,,,,,,,,,,,,,,,,,,,,,,,,,,,,,,,,,,,,,,,,,,,,,,,,,,,,
1725618205.846577,1725618205.847819,212.0,0.0,4204.743652,4188.846191,4242.94873,4242.692383,4182.820313,4215.384766,4212.820313,4199.615234,4194.743652,4178.846191,4486.282227,4485.641113,4333.205078,4405.769043,3406.0,2.0,35.0,,,,0.0,4.0,4.0,4.0,4.0,4.0,4.0,4.0,4.0,4.0,4.0,4.0,4.0,4.0,4.0,100.0,,,,,,,,,,,,,,,,,,,,,,,,,,,,,,,,,,,,,,,,,,,,,,,,,,,,,,,,,,,,,,,,,,,,,,,,,,,,,,,,,,,,,,,,,,,,,,,,,,,,,,,,,,,,,,,,,,,,,,,,,,,,,,,,,,,
1725618205.850481,1725618205.851823,213.0,0.0,4208.589844,4192.94873,4245.128418,4245.128418,4186.025879,4217.692383,4215.384766,4207.563965,4200.512695,4180.641113,4491.282227,4493.846191,4334.230957,4411.538574,3876.0,2.0,35.0,,,,0.0,4.0,4.0,4.0,4.0,4.0,4.0,4.0,4.0,4.0,4.0,4.0,4.0,4.0,4.0,100.0,,,,,,,,,,,,,,,,,,,,,,,,,,,,,,,,,,,,,,,,,,,,,,,,,,,,,,,,,,,,,,,,,,,,,,,,,,,,,,,,,,,,,,,,,,,,,,,,,,,,,,,,,,,,,,,,,,,,,,,,,,,,,,,,,,,
1725618205.854385,1725618205.855727,214.0,0.0,4215.769043,4198.717773,4251.153809,4250.128418,4193.974121,4219.615234,4221.538574,4217.820313,4209.102539,4187.563965,4501.666504,4506.153809,4341.538574,4421.410156,2885.0,2.0,35.0,,,,0.0,4.0,4.0,4.0,4.0,4.0,4.0,4.0,4.0,4.0,4.0,4.0,4.0,4.0,4.0,100.0,,,,,,,,,,,,,,,,,,,,,,,,,,,,,,,,,,,,,,,,,,,,,,,,,,,,,,,,,,,,,,,,,,,,,,,,,,,,,,,,,,,,,,,,,,,,,,,,,,,,,,,,,,,,,,,,,,,,,,,,,,,,,,,,,,,
1725618205.858289,1725618205.859632,215.0,0.0,4224.230957,4205.897461,4258.589844,4257.436035,4203.077148,4219.871582,4228.717773,4227.307617,4217.820313,4198.461426,4514.743652,4517.820313,4353.717773,4431.666504,3064.0,2.0,35.0,,,,0.0,4.0,4.0,4.0,4.0,4.0,4.0,4.0,4.0,4.0,4.0,4.0,4.0,4.0,4.0,100.0,,,,,,,,,,,,,,,,,,,,,,,,,,,,,,,,,,,,,,,,,,,,,,,,,,,,,,,,,,,,,,,,,,,,,,,,,,,,,,,,,,,,,,,,,,,,,,,,,,,,,,,,,,,,,,,,,,,,,,,,,,,,,,,,,,,
1725618205.862193,1725618205.863536,216.0,0.0,4232.307617,4214.230957,4265.256348,4266.282227,4210.641113,4218.461426,4234.487305,4232.179688,4224.230957,4209.871582,4526.794922,4525.384766,4367.05127,4439.358887,3406.0,2.0,35.0,,,,0.0,4.0,4.0,4.0,4.0,4.0,4.0,4.0,4.0,4.0,4.0,4.0,4.0,4.0,4.0,100.0,,,,,,,,,,,,,,,,,,,,,,,,,,,,,,,,,,,,,,,,,,,,,,,,,,,,,,,,,,,,,,,,,,,,,,,,,,,,,,,,,,,,,,,,,,,,,,,,,,,,,,,,,,,,,,,,,,,,,,,,,,,,,,,,,,,
1725618205.866098,1725618205.86744,217.0,0.0,4238.846191,4223.461426,4270.512695,4274.743652,4215.641113,4217.436035,4237.436035,4231.794922,4227.820313,4217.820313,4535.256348,4528.077148,4377.179688,4444.230957,3876.0,2.0,35.0,,,,0.0,4.0,4.0,4.0,4.0,4.0,4.0,4.0,4.0,4.0,4.0,4.0,4.0,4.0,4.0,100.0,,,,,,,,,,,,,,,,,,,,,,,,,,,,,,,,,,,,,,,,,,,,,,,,,,,,,,,,,,,,,,,,,,,,,,,,,,,,,,,,,,,,,,,,,,,,,,,,,,,,,,,,,,,,,,,,,,,,,,,,,,,,,,,,,,,
1725618205.870002,1725618205.871244,218.0,0.0,4243.589844,4231.794922,4274.487305,4281.025879,4218.461426,4219.230957,4237.94873,4229.871582,4229.743652,4219.871582,4538.974121,4528.461426,4382.563965,4447.692383,2885.0,2.0,35.0,,,,0.0,4.0,4.0,4.0,4.0,4.0,4.0,4.0,4.0,4.0,4.0,4.0,4.0,4.0,4.0,100.0,,,,,,,,,,,,,,,,,,,,,,,,,,,,,,,,,,,,,,,,,,,,,,,,,,,,,,,,0.0,0.0,1.0,0.0,1.0,0.0,,,,,,,,,,,,,,,,,,,,,,,,,,,,,,,,,,,,,,,,,,,,,,,,,,,,,,,,,,,,,,,,,,,,,,
1725618205.873906,1725618205.875148,219.0,0.0,4246.153809,4237.05127,4277.820313,4283.846191,4219.615234,4223.846191,4237.436035,4231.666504,4230.769043,4217.563965,4539.871582,4530.0,4384.102539,4451.025879,3064.0,2.0,35.0,,,,0.0,4.0,4.0,4.0,4.0,4.0,4.0,4.0,4.0,4.0,4.0,4.0,4.0,4.0,4.0,100.0,,,,,,,,,,,,,,,,,,,,,,,,,,,,,,,,,,,,,,,,,,,,,,,,,,,,,,,,,,,,,,,,,,,,,,,,,,,,,,,,,,,,,,,,,,,,,,,,,,,,,,,,,,,,,,,,,,,,,,,,,,,,,,,,,,,
1725618205.87781,1725618205.879052,220.0,0.0,4246.794922,4238.077148,4280.0,4283.846191,4218.589844,4228.717773,4237.436035,4238.846191,4231.666504,4214.230957,4540.641113,4534.230957,4384.358887,4454.102539,3406.0,2.0,35.0,,,,0.0,4.0,4.0,4.0,4.0,4.0,4.0,4.0,4.0,4.0,4.0,4.0,4.0,4.0,4.0,100.0,,,,,,,,,,,,,,,,,,,,,,,,,,,,,,,,,,,,,,,,,,,,,,,,,,,,,,,,,,,,,,,,,,,,,,,,,,,,,,,,,,,,,,,,,,,,,,,,,,,,,,,,,,,,,,,,,,,,,,,,,,,,,,,,,,,
1725618205.881714,1725618205.883056,221.0,0.0,4246.282227,4236.025879,4280.384766,4282.820313,4215.512695,4230.641113,4238.461426,4247.05127,4231.666504,4213.205078,4542.05127,4538.717773,4385.0,4455.641113,3876.0,2.0,35.0,,,,0.0,4.0,4.0,4.0,4.0,4.0,4.0,4.0,4.0,4.0,4.0,4.0,4.0,4.0,4.0,100.0,,,,,,,,,,,,,,,,,,,,,,,,,,,,,,,,,,,,,,,,,,,,,,,,,,,,,,,,,,,,,,,,,,,,,,,,,,,,,,,,,,,,,,,,,,,,,,,,,,,,,,,,,,,,,,,,,,,,,,,,,,,,,,,,,,,
1725618205.885618,1725618205.88696,222.0,0.0,4246.025879,4233.333496,4278.461426,4282.179688,4210.769043,4228.333496,4240.384766,4247.820313,4229.743652,4215.641113,4541.794922,4538.205078,4385.641113,4454.230957,2885.0,2.0,35.0,,,,0.0,4.0,4.0,4.0,4.0,4.0,4.0,4.0,4.0,4.0,4.0,4.0,4.0,4.0,4.0,100.0,,,,,,,,,,,,,,,,,,,,,,,,,,,,,,,,,,,,,,,,,,,,,,,,,,,,,,,,,,,,,,,,,,,,,,,,,,,,,,,,,,,,,,,,,,,,,,,,,,,,,,,,,,,,,,,,,,,,,,,,,,,,,,,,,,,
1725618205.889522,1725618205.890864,223.0,0.0,4246.282227,4232.179688,4274.230957,4281.922852,4206.282227,4222.820313,4242.307617,4236.153809,4225.256348,4219.487305,4537.179688,4530.256348,4385.0,4449.743652,3064.0,2.0,35.0,,,,0.0,4.0,4.0,4.0,4.0,4.0,4.0,4.0,4.0,4.0,4.0,4.0,4.0,4.0,4.0,100.0,,,,,,,,,,,,,,,,,,,,,,,,,,,,,,,,,,,,,,,,,,,,,,,,,,,,,,,,,,,,,,,,,,,,,,,,,,,,,,,,,,,,,,,,,,,,,,,,,,,,,,,,,,,,,,,,,,,,,,,,,,,,,,,,,,,
1725618205.893427,1725618205.894868,224.0,0.0,4246.922852,4232.94873,4268.846191,4280.769043,4204.487305,4216.922852,4243.077148,4215.897461,4219.487305,4221.025879,4529.102539,4517.436035,4382.436035,4443.846191,3406.0,2.0,35.0,,,,0.0,4.0,4.0,4.0,4.0,4.0,4.0,4.0,4.0,4.0,4.0,4.0,4.0,4.0,4.0,100.0,,,,,,,,,,,,,,,,,,,,,,,,,,,,,,,,,,,,,,,,,,,,,,,,,,,,,,,,,,,,,,,,,,,,,,,,,,,,,,,,,,,,,,,,,,,,,,,,,,,,,,,,,,,,,,,,,,,,,,,,,,,,,,,,,,,
1725618205.897331,1725618205.898773,225.0,0.0,4247.436035,4233.974121,4264.358887,4278.461426,4206.666504,4213.205078,4242.436035,4197.307617,4215.0,4218.589844,4521.666504,4506.153809,4379.487305,4439.615234,3876.0,2.0,35.0,,,,0.0,4.0,4.0,4.0,4.0,4.0,4.0,4.0,4.0,4.0,4.0,4.0,4.0,4.0,4.0,100.0,,,,,,,,,,,,,,,,,,,,,,,,,,,,,,,,,,,,,,,,,,,,,,,,,,,,,,,,,,,,,,,,,,,,,,,,,,,,,,,,,,,,,,,,,,,,,,,,,,,,,,,,,,,,,,,,,,,,,,,,,,,,,,,,,,,
1725618205.901235,1725618205.902677,226.0,0.0,4247.692383,4234.230957,4262.179688,4277.05127,4211.666504,4212.692383,4241.410156,4190.384766,4213.846191,4214.102539,4519.743652,4502.179688,4378.461426,4439.487305,2885.0,2.0,35.0,,,,0.0,4.0,4.0,4.0,4.0,4.0,4.0,4.0,4.0,4.0,4.0,4.0,4.0,4.0,4.0,100.0,,,,,,,,,,,,,,,,,1.0,0.0,0.0,,,,,,,,,,,,,,,,,,,,,,,,,,,,,,,,,,,,,0.0,0.0,1.0,0.0,1.0,0.0,5.848636,0.770688,1.532911,0.321514,0.087899,3.079403,0.961467,0.873292,0.335284,0.076819,4.71584,0.537725,1.23855,0.365826,0.125438,4.103509,0.889269,0.934396,0.201452,0.1219,1.711628,0.723816,0.280694,0.176581,0.090158,0.411632,0.295164,0.297089,0.12987,0.040582,1.958717,0.73237,0.271741,0.144501,0.068374,1.44502,2.222219,0.738364,0.453295,0.242664,1.728943,1.1392,1.169664,0.242587,0.113017,3.665008,1.02485,1.943913,0.417347,0.106217,5.259576,0.741759,2.358823,0.397503,0.321755,7.68653,1.381147,1.946099,0.813641,0.257863,5.044571,1.237064,2.052635,0.418625,0.10658,6.297696,1.20831,2.390653,0.509392,0.120686
1725618205.905139,1725618205.906581,227.0,0.0,4248.461426,4234.487305,4263.589844,4278.589844,4216.538574,4214.487305,4241.794922,4197.563965,4215.769043,4212.05127,4524.871582,4507.179688,4381.922852,4444.487305,3064.0,2.0,35.0,,,,0.0,4.0,4.0,4.0,4.0,4.0,4.0,4.0,4.0,4.0,4.0,4.0,4.0,4.0,4.0,100.0,,,,,,,,,,,,,,,,,,,,,,,,,,,,,,,,,,,,,,,,,,,,,,,,,,,,,,,,,,,,,,,,,,,,,,,,,,,,,,,,,,,,,,,,,,,,,,,,,,,,,,,,,,,,,,,,,,,,,,,,,,,,,,,,,,,
1725618205.909043,1725618205.910485,228.0,0.0,4250.512695,4237.179688,4268.333496,4283.589844,4218.717773,4216.538574,4244.358887,4212.563965,4218.974121,4215.769043,4534.358887,4517.94873,4389.487305,4452.94873,3406.0,2.0,35.0,,,,0.0,4.0,4.0,4.0,4.0,4.0,4.0,4.0,4.0,4.0,4.0,4.0,4.0,4.0,4.0,100.0,,,,,,,,,,,,,,,,,,,,,,,,,,,,,,,,,,,,,,,,,,,,,,,,,,,,,,,,,,,,,,,,,,,,,,,,,,,,,,,,,,,,,,,,,,,,,,,,,,,,,,,,,,,,,,,,,,,,,,,,,,,,,,,,,,,
1725618205.912947,1725618205.914289,229.0,0.0,4253.205078,4242.307617,4274.871582,4289.358887,4218.205078,4217.563965,4247.692383,4225.0,4221.025879,4223.589844,4543.205078,4528.333496,4398.333496,4460.897461,3876.0,2.0,35.0,,,,0.0,4.0,4.0,4.0,4.0,4.0,4.0,4.0,4.0,4.0,4.0,4.0,4.0,4.0,4.0,100.0,,,,,,,,,,,,,,,,,,,,,,,,,,,,,,,,,,,,,,,,,,,,,,,,,,,,,,,,,,,,,,,,,,,,,,,,,,,,,,,,,,,,,,,,,,,,,,,,,,,,,,,,,,,,,,,,,,,,,,,,,,,,,,,,,,,
1725618205.916851,1725618205.918193,230.0,0.0,4255.641113,4247.436035,4280.0,4292.307617,4216.538574,4217.179688,4250.256348,4226.666504,4220.641113,4230.512695,4547.05127,4532.820313,4404.230957,4464.871582,2885.0,2.0,35.0,,,,0.0,4.0,4.0,4.0,4.0,4.0,4.0,4.0,4.0,4.0,4.0,4.0,4.0,4.0,4.0,100.0,,,,,,,,,,,,,,,,,,,,,,,,,,,,,,,,,,,,,,,,,,,,,,,,,,,,,,,,,,,,,,,,,,,,,,,,,,,,,,,,,,,,,,,,,,,,,,,,,,,,,,,,,,,,,,,,,,,,,,,,,,,,,,,,,,,
1725618205.920755,1725618205.922097,231.0,0.0,4256.666504,4249.230957,4281.282227,4290.384766,4215.256348,4216.282227,4250.769043,4217.179688,4218.205078,4232.436035,4545.256348,4530.128418,4404.615234,4463.333496,3064.0,2.0,35.0,,,,0.0,4.0,4.0,4.0,4.0,4.0,4.0,4.0,4.0,4.0,4.0,4.0,4.0,4.0,4.0,100.0,,,,,,,,,,,,,,,,,,,,,,,,,,,,,,,,,,,,,,,,,,,,,,,,,,,,,,,,,,,,,,,,,,,,,,,,,,,,,,,,,,,,,,,,,,,,,,,,,,,,,,,,,,,,,,,,,,,,,,,,,,,,,,,,,,,
1725618205.924659,1725618205.926001,232.0,0.0,4255.128418,4246.666504,4278.077148,4284.743652,4215.128418,4215.641113,4249.102539,4203.589844,4215.256348,4228.717773,4540.641113,4522.94873,4400.384766,4457.563965,3406.0,2.0,35.0,,,,0.0,4.0,4.0,4.0,4.0,4.0,4.0,4.0,4.0,4.0,4.0,4.0,4.0,4.0,4.0,100.0,,,,,,,,,,,,,,,,,,,,,,,,,,,,,,,,,,,,,,,,,,,,,,,,,,,,,,,,,,,,,,,,,,,,,,,,,,,,,,,,,,,,,,,,,,,,,,,,,,,,,,,,,,,,,,,,,,,,,,,,,,,,,,,,,,,
1725618205.928563,1725618205.929806,233.0,0.0,4250.769043,4240.384766,4271.794922,4278.589844,4215.384766,4215.256348,4246.025879,4194.358887,4213.461426,4222.179688,4536.410156,4515.769043,4394.102539,4450.256348,3876.0,2.0,35.0,,,,0.0,4.0,4.0,4.0,4.0,4.0,4.0,4.0,4.0,4.0,4.0,4.0,4.0,4.0,4.0,100.0,,,,,,,,,,,,,,,,,,,,,,,,,,,,,,,,,,,,,,,,,,,,,,,,,,,,,,,,,,,,,,,,,,,,,,,,,,,,,,,,,,,,,,,,,,,,,,,,,,,,,,,,,,,,,,,,,,,,,,,,,,,,,,,,,,,
1725618205.932468,1725618205.93371,234.0,0.0,4244.102539,4233.205078,4264.615234,4274.743652,4214.871582,4214.871582,4242.820313,4193.461426,4213.333496,4216.153809,4534.102539,4510.769043,4388.461426,4443.461426,2885.0,2.0,35.0,,,,0.0,4.0,4.0,4.0,4.0,4.0,4.0,4.0,4.0,4.0,4.0,4.0,4.0,4.0,4.0,100.0,,,,,,,,,,,,,,,,,,,,,,,,,,,,,,,,,,,,,,,,,,,,,,,,,,,,,,,,0.0,0.0,1.0,0.0,1.0,0.0,,,,,,,,,,,,,,,,,,,,,,,,,,,,,,,,,,,,,,,,,,,,,,,,,,,,,,,,,,,,,,,,,,,,,,
1725618205.936372,1725618205.937614,235.0,0.0,4236.922852,4227.692383,4259.102539,4274.358887,4213.589844,4214.615234,4240.641113,4198.974121,4213.974121,4213.077148,4533.077148,4508.461426,4385.128418,4439.230957,3064.0,2.0,35.0,,,,0.0,4.0,4.0,4.0,4.0,4.0,4.0,4.0,4.0,4.0,4.0,4.0,4.0,4.0,4.0,100.0,,,,,,,,,,,,,,,,,,,,,,,,,,,,,,,,,,,,,,,,,,,,,,,,,,,,,,,,,,,,,,,,,,,,,,,,,,,,,,,,,,,,,,,,,,,,,,,,,,,,,,,,,,,,,,,,,,,,,,,,,,,,,,,,,,,
1725618205.940276,1725618205.941618,236.0,0.0,4232.307617,4226.410156,4257.692383,4276.794922,4213.077148,4215.128418,4241.025879,4206.538574,4214.487305,4213.717773,4532.94873,4509.743652,4384.743652,4439.102539,3406.0,2.0,35.0,,,,0.0,4.0,4.0,4.0,4.0,4.0,4.0,4.0,4.0,4.0,4.0,4.0,4.0,4.0,4.0,100.0,,,,,,,,,,,,,,,,,,,,,,,,,,,,,,,,,,,,,,,,,,,,,,,,,,,,,,,,,,,,,,,,,,,,,,,,,,,,,,,,,,,,,,,,,,,,,,,,,,,,,,,,,,,,,,,,,,,,,,,,,,,,,,,,,,,
1725618205.94418,1725618205.945522,237.0,0.0,4232.820313,4230.256348,4261.410156,4279.871582,4215.128418,4216.538574,4243.846191,4213.205078,4215.0,4217.307617,4534.358887,4515.384766,4387.436035,4443.077148,3876.0,2.0,35.0,,,,0.0,4.0,4.0,4.0,4.0,4.0,4.0,4.0,4.0,4.0,4.0,4.0,4.0,4.0,4.0,100.0,,,,,,,,,,,,,,,,,,,,,,,,,,,,,,,,,,,,,,,,,,,,,,,,,,,,,,,,,,,,,,,,,,,,,,,,,,,,,,,,,,,,,,,,,,,,,,,,,,,,,,,,,,,,,,,,,,,,,,,,,,,,,,,,,,,
1725618205.948084,1725618205.949426,238.0,0.0,4238.205078,4236.794922,4268.589844,4281.666504,4218.205078,4217.692383,4247.179688,4217.563965,4216.410156,4222.179688,4537.307617,4524.358887,4392.05127,4448.974121,2885.0,2.0,35.0,,,,0.0,4.0,4.0,4.0,4.0,4.0,4.0,4.0,4.0,4.0,4.0,4.0,4.0,4.0,4.0,100.0,,,,,,,,,,,,,,,,,,,,,,,,,,,,,,,,,,,,,,,,,,,,,,,,,,,,,,,,,,,,,,,,,,,,,,,,,,,,,,,,,,,,,,,,,,,,,,,,,,,,,,,,,,,,,,,,,,,,,,,,,,,,,,,,,,,
1725618205.951988,1725618205.95333,239.0,0.0,4245.0,4242.307617,4274.871582,4280.897461,4219.102539,4217.563965,4248.589844,4219.358887,4218.974121,4225.897461,4540.512695,4533.077148,4395.769043,4453.717773,3064.0,2.0,35.0,,,,0.0,4.0,4.0,4.0,4.0,4.0,4.0,4.0,4.0,4.0,4.0,4.0,4.0,4.0,4.0,100.0,,,,,,,,,,,,,,,,,,,,,,,,,,,,,,,,,,,,,,,,,,,,,,,,,,,,,,,,,,,,,,,,,,,,,,,,,,,,,,,,,,,,,,,,,,,,,,,,,,,,,,,,,,,,,,,,,,,,,,,,,,,,,,,,,,,
1725618205.955892,1725618205.957334,240.0,0.0,4248.589844,4244.487305,4277.05127,4278.846191,4216.794922,4216.666504,4247.179688,4218.589844,4222.563965,4227.307617,4541.794922,4537.307617,4396.794922,4455.769043,3406.0,2.0,35.0,,,,0.0,4.0,4.0,4.0,4.0,4.0,4.0,4.0,4.0,4.0,4.0,4.0,4.0,4.0,4.0,100.0,,,,,,,,,,,,,,,,,,,,,,,,,,,,,,,,,,,,,,,,,,,,,,,,,,,,,,,,,,,,,,,,,,,,,,,,,,,,,,,,,,,,,,,,,,,,,,,,,,,,,,,,,,,,,,,,,,,,,,,,,,,,,,,,,,,
1725618205.959796,1725618205.961238,241.0,0.0,4247.820313,4244.487305,4275.384766,4277.94873,4213.717773,4217.05127,4245.128418,4216.666504,4225.897461,4227.436035,4540.897461,4536.666504,4395.384766,4455.641113,3876.0,2.0,35.0,,,,0.0,4.0,4.0,4.0,4.0,4.0,4.0,4.0,4.0,4.0,4.0,4.0,4.0,4.0,4.0,100.0,,,,,,,,,,,,,,,,,,,,,,,,,,,,,,,,,,,,,,,,,,,,,,,,,,,,,,,,,,,,,,,,,,,,,,,,,,,,,,,,,,,,,,,,,,,,,,,,,,,,,,,,,,,,,,,,,,,,,,,,,,,,,,,,,,,
1725618205.9637,1725618205.965142,242.0,0.0,4245.256348,4245.256348,4273.846191,4280.384766,4214.102539,4220.256348,4245.384766,4216.282227,4228.461426,4228.846191,4540.128418,4534.615234,4393.461426,4455.512695,2885.0,2.0,35.0,,,,0.0,4.0,4.0,4.0,4.0,4.0,4.0,4.0,4.0,4.0,4.0,4.0,4.0,4.0,4.0,100.0,,,,,,,,,,,,,,,,,,,,,,,,,,,,,,,,,,,,,,,,,,,,,,,,,,,,,,,,0.0,0.0,1.0,0.0,1.0,0.0,,,,,,,,,,,,,,,,,,,,,,,,,,,,,,,,,,,,,,,,,,,,,,,,,,,,,,,,,,,,,,,,,,,,,,
1725618205.967605,1725618205.969046,243.0,0.0,4244.871582,4249.230957,4275.769043,4286.666504,4219.487305,4226.282227,4249.358887,4220.256348,4230.512695,4233.205078,4543.717773,4536.922852,4393.333496,4457.94873,3064.0,2.0,35.0,,,,0.0,4.0,4.0,4.0,4.0,4.0,4.0,4.0,4.0,4.0,4.0,4.0,4.0,4.0,4.0,100.0,,,,,,,,,,,,,,,,,,,,,,,,,,,,,,,,,,,,,,,,,,,,,,,,,,,,,,,,,,,,,,,,,,,,,,,,,,,,,,,,,,,,,,,,,,,,,,,,,,,,,,,,,,,,,,,,,,,,,,,,,,,,,,,,,,,
1725618205.971509,1725618205.97305,244.0,0.0,4248.717773,4256.282227,4282.05127,4295.0,4227.179688,4232.563965,4255.256348,4229.871582,4233.333496,4239.871582,4554.230957,4546.282227,4396.538574,4464.230957,3406.0,2.0,35.0,,,,0.0,4.0,4.0,4.0,4.0,4.0,4.0,4.0,4.0,4.0,4.0,4.0,4.0,4.0,4.0,100.0,,,,,,,,,,,,,,,,,,,,,,,,,,,,,,,,,,,,,,,,,,,,,,,,,,,,,,,,,,,,,,,,,,,,,,,,,,,,,,,,,,,,,,,,,,,,,,,,,,,,,,,,,,,,,,,,,,,,,,,,,,,,,,,,,,,
1725618205.975413,1725618205.976955,245.0,0.0,4255.512695,4263.974121,4290.0,4302.05127,4232.563965,4235.769043,4260.0,4242.820313,4236.922852,4246.666504,4568.846191,4559.743652,4402.179688,4472.94873,3876.0,2.0,35.0,,,,0.0,4.0,4.0,4.0,4.0,4.0,4.0,4.0,4.0,4.0,4.0,4.0,4.0,4.0,4.0,100.0,,,,,,,,,,,,,,,,,,,,,,,,,,,,,,,,,,,,,,,,,,,,,,,,,,,,,,,,,,,,,,,,,,,,,,,,,,,,,,,,,,,,,,,,,,,,,,,,,,,,,,,,,,,,,,,,,,,,,,,,,,,,,,,,,,,
1725618205.979317,1725618205.980859,246.0,0.0,4261.153809,4268.974121,4295.0,4304.487305,4232.05127,4234.102539,4260.384766,4253.717773,4239.743652,4249.871582,4580.128418,4570.0,4405.512695,4480.384766,2885.0,2.0,35.0,,,,0.0,4.0,4.0,4.0,4.0,4.0,4.0,4.0,4.0,4.0,4.0,4.0,4.0,4.0,4.0,100.0,,,,,,,,,,,,,,,,,,,,,,,,,,,,,,,,,,,,,,,,,,,,,,,,,,,,,,,,,,,,,,,,,,,,,,,,,,,,,,,,,,,,,,,,,,,,,,,,,,,,,,,,,,,,,,,,,,,,,,,,,,,,,,,,,,,
1725618205.983221,1725618205.984763,247.0,0.0,4261.410156,4268.846191,4293.974121,4300.384766,4225.512695,4228.461426,4256.025879,4256.410156,4238.717773,4246.282227,4580.897461,4570.384766,4402.05127,4482.179688,3064.0,2.0,35.0,,,,0.0,4.0,4.0,4.0,4.0,4.0,4.0,4.0,4.0,4.0,4.0,4.0,4.0,4.0,4.0,100.0,,,,,,,,,,,,,,,,,,,,,,,,,,,,,,,,,,,,,,,,,,,,,,,,,,,,,,,,,,,,,,,,,,,,,,,,,,,,,,,,,,,,,,,,,,,,,,,,,,,,,,,,,,,,,,,,,,,,,,,,,,,,,,,,,,,
1725618205.987125,1725618205.988567,248.0,0.0,4255.641113,4263.974121,4287.179688,4291.922852,4216.538574,4222.05127,4248.846191,4248.333496,4232.692383,4235.512695,4570.256348,4559.230957,4390.256348,4476.538574,3406.0,2.0,35.0,,,,0.0,4.0,4.0,4.0,4.0,4.0,4.0,4.0,4.0,4.0,4.0,4.0,4.0,4.0,4.0,100.0,,,,,,,,,,,,,,,,,,,,,,,,,,,,,,,,,,,,,,,,,,,,,,,,,,,,,,,,,,,,,,,,,,,,,,,,,,,,,,,,,,,,,,,,,,,,,,,,,,,,,,,,,,,,,,,,,,,,,,,,,,,,,,,,,,,
1725618205.991029,1725618205.992471,249.0,0.0,4247.820313,4257.436035,4278.205078,4283.974121,4210.0,4217.820313,4242.94873,4232.563965,4223.589844,4221.794922,4554.230957,4541.922852,4373.974121,4466.025879,3876.0,2.0,35.0,,,,0.0,4.0,4.0,4.0,4.0,4.0,4.0,4.0,4.0,4.0,4.0,4.0,4.0,4.0,4.0,100.0,,,,,,,,,,,,,,,,,,,,,,,,,,,,,,,,,,,,,,,,,,,,,,,,,,,,,,,,,,,,,,,,,,,,,,,,,,,,,,,,,,,,,,,,,,,,,,,,,,,,,,,,,,,,,,,,,,,,,,,,,,,,,,,,,,,
1725618205.994933,1725618205.996375,250.0,0.0,4243.077148,4253.974121,4272.436035,4281.282227,4209.102539,4217.05127,4241.025879,4216.538574,4216.025879,4212.436035,4542.179688,4528.333496,4360.769043,4457.05127,2885.0,2.0,35.0,,,,0.0,4.0,4.0,4.0,4.0,4.0,4.0,4.0,4.0,4.0,4.0,4.0,4.0,4.0,4.0,100.0,,,,,,,,,,,,,,,,,,,,,,,,,,,,,,,,,,,,,,,,,,,,,,,,,,,,,,,,0.0,0.0,1.0,0.0,1.0,0.0,,,,,,,,,,,,,,,,,,,,,,,,,,,,,,,,,,,,,,,,,,,,,,,,,,,,,,,,,,,,,,,,,,,,,,
1725618205.998837,1725618206.000379,251.0,0.0,4243.461426,4255.769043,4272.692383,4284.743652,4212.820313,4218.205078,4243.589844,4207.94873,4213.589844,4212.05127,4540.512695,4525.512695,4355.897461,4454.615234,3064.0,2.0,35.0,,,,0.0,4.0,4.0,4.0,4.0,4.0,4.0,4.0,4.0,4.0,4.0,4.0,4.0,4.0,4.0,100.0,,,,,,,,,,,,,,,,,,,,,,,,,,,,,,,,,,,,,,,,,,,,,,,,,,,,,,,,,,,,,,,,,,,,,,,,,,,,,,,,,,,,,,,,,,,,,,,,,,,,,,,,,,,,,,,,,,,,,,,,,,,,,,,,,,,
1725618206.002741,1725618206.004283,252.0,0.0,4247.179688,4260.769043,4277.563965,4291.153809,4217.563965,4219.358887,4248.205078,4208.974121,4216.153809,4219.358887,4547.820313,4532.563965,4358.974121,4459.358887,3406.0,2.0,35.0,,,,0.0,4.0,4.0,4.0,4.0,4.0,4.0,4.0,4.0,4.0,4.0,4.0,4.0,4.0,4.0,100.0,,,,,,,,,,,,,,,,,,,,,,,,,,,,,,,,,,,,,,,,,,,,,,,,,,,,,,,,,,,,,,,,,,,,,,,,,,,,,,,,,,,,,,,,,,,,,,,,,,,,,,,,,,,,,,,,,,,,,,,,,,,,,,,,,,,
1725618206.006646,1725618206.008187,253.0,0.0,4250.512695,4264.743652,4282.563965,4295.769043,4219.743652,4218.974121,4251.666504,4215.384766,4220.256348,4227.563965,4556.922852,4541.410156,4363.846191,4467.05127,3876.0,2.0,35.0,,,,0.0,4.0,4.0,4.0,4.0,4.0,4.0,4.0,4.0,4.0,4.0,4.0,4.0,4.0,4.0,100.0,,,,,,,,,,,,,,,,,,,,,,,,,,,,,,,,,,,,,,,,,,,,,,,,,,,,,,,,,,,,,,,,,,,,,,,,,,,,,,,,,,,,,,,,,,,,,,,,,,,,,,,,,,,,,,,,,,,,,,,,,,,,,,,,,,,
1725618206.01055,1725618206.012091,254.0,0.0,4251.153809,4265.384766,4284.102539,4296.282227,4219.102539,4217.563965,4252.563965,4220.0,4221.794922,4229.871582,4560.897461,4543.589844,4364.358887,4472.820313,2885.0,2.0,35.0,,,,0.0,4.0,4.0,4.0,4.0,4.0,4.0,4.0,4.0,4.0,4.0,4.0,4.0,4.0,4.0,100.0,,,,,,,,,,,,,,,,,,,,,,,,,,,,,,,,,,,,,,,,,,,,,,,,,,,,,,,,,,,,,,,,,,,,,,,,,,,,,,,,,,,,,,,,,,,,,,,,,,,,,,,,,,,,,,,,,,,,,,,,,,,,,,,,,,,
1725618206.014454,1725618206.016095,255.0,0.0,4250.128418,4263.846191,4281.922852,4294.102539,4217.820313,4217.05127,4251.794922,4219.102539,4219.743652,4225.384766,4558.589844,4537.820313,4359.230957,4474.743652,35.0,2.0,35.0,,,,0.0,4.0,4.0,4.0,4.0,4.0,4.0,4.0,4.0,4.0,4.0,4.0,4.0,4.0,4.0,100.0,,,,,,,,,,,,,,,,,,,,,,,,,,,,,,,,,,,,,,,,,,,,,,,,,,,,,,,,,,,,,,,,,,,,,,,,,,,,,,,,,,,,,,,,,,,,,,,,,,,,,,,,,,,,,,,,,,,,,,,,,,,,,,,,,,,
1725618206.018358,1725618206.02,0.0,0.0,4249.615234,4263.205078,4279.358887,4292.307617,4218.461426,4218.077148,4251.282227,4214.615234,4216.538574,4218.333496,4554.743652,4529.743652,4352.563965,4474.230957,2626.0,2.0,35.0,,,,0.0,4.0,4.0,4.0,4.0,4.0,4.0,4.0,4.0,4.0,4.0,4.0,4.0,4.0,4.0,100.0,,,,,,,,,,,,,,,,,,,,,,,,,,,,,,,,,,,,,,,,,,,,,,,,,,,,,,,,,,,,,,,,,,,,,,,,,,,,,,,,,,,,,,,,,,,,,,,,,,,,,,,,,,,,,,,,,,,,,,,,,,,,,,,,,,,
1725618206.022262,1725618206.023904,1.0,0.0,4250.769043,4264.358887,4278.846191,4292.692383,4221.922852,4220.256348,4251.922852,4211.794922,4215.128418,4213.589844,4554.615234,4525.897461,4349.102539,4473.461426,2575.0,2.0,35.0,,,,0.0,4.0,4.0,4.0,4.0,4.0,4.0,4.0,4.0,4.0,4.0,4.0,4.0,4.0,4.0,100.0,,,,,,,,,,,,,,,,,,,,,,,,,,,,,,,,,,,,,,,,,,,,,,,,,,,,,,,,,,,,,,,,,,,,,,,,,,,,,,,,,,,,,,,,,,,,,,,,,,,,,,,,,,,,,,,,,,,,,,,,,,,,,,,,,,,
1725618206.026166,1725618206.027808,2.0,0.0,4252.436035,4265.897461,4280.256348,4293.846191,4226.282227,4221.666504,4252.94873,4213.846191,4215.769043,4213.077148,4558.846191,4528.205078,4349.487305,4473.717773,2458.0,2.0,35.0,,,,0.0,4.0,4.0,4.0,4.0,4.0,4.0,4.0,4.0,4.0,4.0,4.0,4.0,4.0,4.0,100.0,,,,,,,,,,,,,,,,,1.0,0.0,0.0,,,,,,,,,,,,,,,,,,,,,,,,,,,,,,,,,,,,,0.0,0.0,1.0,0.0,1.0,0.0,5.332181,0.813491,1.392147,0.316472,0.093627,2.720481,0.90217,0.815721,0.341852,0.074784,4.228339,0.576062,1.101094,0.324461,0.11282,3.641613,0.856733,0.858096,0.200592,0.123792,1.622382,0.611475,0.250272,0.171561,0.08313,0.386042,0.280749,0.328124,0.144611,0.048444,1.653779,0.528508,0.256559,0.14276,0.063925,1.34478,2.043537,0.850221,0.408,0.266424,1.654828,1.079495,1.12835,0.230142,0.11401,3.55346,0.898633,1.794049,0.429711,0.109138,4.908559,0.786123,2.073807,0.383368,0.343012,7.02662,1.186313,1.720437,0.731033,0.244916,4.716109,1.171118,1.766301,0.366882,0.10415,5.843245,1.2278,1.99701,0.464733,0.116303
1725618206.03007,1725618206.031712,3.0,0.0,4252.436035,4265.769043,4281.410156,4293.846191,4229.358887,4221.538574,4252.94873,4219.230957,4216.922852,4214.487305,4563.846191,4533.717773,4349.871582,4474.743652,2463.0,2.0,35.0,,,,0.0,4.0,4.0,4.0,4.0,4.0,4.0,4.0,4.0,4.0,4.0,4.0,4.0,4.0,4.0,100.0,,,,,,,,,,,,,,,,,,,,,,,,,,,,,,,,,,,,,,,,,,,,,,,,,,,,,,,,,,,,,,,,,,,,,,,,,,,,,,,,,,,,,,,,,,,,,,,,,,,,,,,,,,,,,,,,,,,,,,,,,,,,,,,,,,,
1725618206.033974,1725618206.035516,4.0,0.0,4250.384766,4263.974121,4281.153809,4292.307617,4230.256348,4219.743652,4251.666504,4224.102539,4216.922852,4215.128418,4565.641113,4538.333496,4346.410156,4476.025879,2423.0,2.0,35.0,,,,0.0,4.0,4.0,4.0,4.0,4.0,4.0,4.0,4.0,4.0,4.0,4.0,4.0,4.0,4.0,100.0,,,,,,,,,,,,,,,,,,,,,,,,,,,,,,,,,,,,,,,,,,,,,,,,,,,,,,,,,,,,,,,,,,,,,,,,,,,,,,,,,,,,,,,,,,,,,,,,,,,,,,,,,,,,,,,,,,,,,,,,,,,,,,,,,,,
1725618206.037878,1725618206.03942,5.0,0.0,4248.589844,4262.563965,4280.512695,4290.641113,4230.128418,4217.692383,4250.256348,4224.615234,4216.410156,4213.333496,4563.333496,4540.384766,4338.974121,4476.794922,2396.0,2.0,35.0,,,,0.0,4.0,4.0,4.0,4.0,4.0,4.0,4.0,4.0,4.0,4.0,4.0,4.0,4.0,4.0,100.0,,,,,,,,,,,,,,,,,,,,,,,,,,,,,,,,,,,,,,,,,,,,,,,,,,,,,,,,,,,,,,,,,,,,,,,,,,,,,,,,,,,,,,,,,,,,,,,,,,,,,,,,,,,,,,,,,,,,,,,,,,,,,,,,,,,
1725618206.041783,1725618206.043324,6.0,0.0,4249.358887,4263.205078,4280.641113,4290.384766,4230.512695,4216.538574,4249.615234,4221.282227,4216.282227,4210.256348,4559.358887,4539.743652,4331.153809,4476.538574,2184.0,2.0,35.0,,,,0.0,4.0,4.0,4.0,4.0,4.0,4.0,4.0,4.0,4.0,4.0,4.0,4.0,4.0,4.0,100.0,,,,,,,,,,,,,,,,,,,,,,,,,,,,,,,,,,,,,,,,,,,,,,,,,,,,,,,,,,,,,,,,,,,,,,,,,,,,,,,,,,,,,,,,,,,,,,,,,,,,,,,,,,,,,,,,,,,,,,,,,,,,,,,,,,,
1725618206.045687,1725618206.047328,7.0,0.0,4252.307617,4265.384766,4281.410156,4291.410156,4231.538574,4216.794922,4249.871582,4217.307617,4216.666504,4207.05127,4556.794922,4537.307617,4326.538574,4474.487305,2491.0,2.0,35.0,,,,0.0,4.0,4.0,4.0,4.0,4.0,4.0,4.0,4.0,4.0,4.0,4.0,4.0,4.0,4.0,100.0,,,,,,,,,,,,,,,,,,,,,,,,,,,,,,,,,,,,,,,,,,,,,,,,,,,,,,,,,,,,,,,,,,,,,,,,,,,,,,,,,,,,,,,,,,,,,,,,,,,,,,,,,,,,,,,,,,,,,,,,,,,,,,,,,,,
1725618206.049591,1725618206.051232,8.0,0.0,4254.230957,4266.922852,4281.025879,4291.922852,4232.05127,4217.692383,4250.769043,4215.512695,4216.025879,4204.871582,4555.897461,4533.333496,4325.384766,4470.769043,2481.0,2.0,35.0,,,,0.0,4.0,4.0,4.0,4.0,4.0,4.0,4.0,4.0,4.0,4.0,4.0,4.0,4.0,4.0,100.0,,,,,,,,,,,,,,,,,,,,,,,,,,,,,,,,,,,,,,,,,,,,,,,,,,,,,,,,,,,,,,,,,,,,,,,,,,,,,,,,,,,,,,,,,,,,,,,,,,,,,,,,,,,,,,,,,,,,,,,,,,,,,,,,,,,
1725618206.053495,1725618206.055136,9.0,0.0,4251.794922,4265.512695,4277.94873,4290.256348,4230.512695,4218.461426,4251.666504,4215.641113,4213.077148,4203.077148,4554.358887,4527.563965,4324.743652,4465.897461,2561.0,2.0,35.0,,,,0.0,4.0,4.0,4.0,4.0,4.0,4.0,4.0,4.0,4.0,4.0,4.0,4.0,4.0,4.0,100.0,,,,,,,,,,,,,,,,,,,,,,,,,,,,,,,,,,,,,,,,,,,,,,,,,,,,,,,,,,,,,,,,,,,,,,,,,,,,,,,,,,,,,,,,,,,,,,,,,,,,,,,,,,,,,,,,,,,,,,,,,,,,,,,,,,,
1725618206.057399,1725618206.059041,10.0,0.0,4244.615234,4260.128418,4272.436035,4286.282227,4226.282227,4218.333496,4252.05127,4213.974121,4207.692383,4201.153809,4549.743652,4519.615234,4321.538574,4461.153809,2900.0,2.0,35.0,,,,0.0,4.0,4.0,4.0,4.0,4.0,4.0,4.0,4.0,4.0,4.0,4.0,4.0,4.0,4.0,100.0,,,,,,,,,,,,,,,,,,,,,,,,,,,,,,,,,,,,,,,,,,,,,,,,,,,,,,,,0.0,0.0,1.0,0.0,1.0,0.0,,,,,,,,,,,,,,,,,,,,,,,,,,,,,,,,,,,,,,,,,,,,,,,,,,,,,,,,,,,,,,,,,,,,,,
1725618206.061303,1725618206.063045,11.0,0.0,4235.769043,4252.563965,4266.282227,4281.025879,4220.897461,4216.922852,4251.153809,4207.563965,4201.922852,4199.102539,4542.94873,4510.769043,4315.256348,4456.666504,3069.0,2.0,35.0,,,,0.0,4.0,4.0,4.0,4.0,4.0,4.0,4.0,4.0,4.0,4.0,4.0,4.0,4.0,4.0,100.0,,,,,,,,,,,,,,,,,,,,,,,,,,,,,,,,,,,,,,,,,,,,,,,,,,,,,,,,,,,,,,,,,,,,,,,,,,,,,,,,,,,,,,,,,,,,,,,,,,,,,,,,,,,,,,,,,,,,,,,,,,,,,,,,,,,
1725618206.065207,1725618206.066949,12.0,0.0,4230.0,4246.794922,4261.282227,4276.794922,4217.820313,4214.487305,4249.615234,4196.666504,4198.205078,4197.94873,4536.922852,4503.717773,4308.846191,4452.436035,3423.0,2.0,35.0,,,,0.0,4.0,4.0,4.0,4.0,4.0,4.0,4.0,4.0,4.0,4.0,4.0,4.0,4.0,4.0,100.0,,,,,,,,,,,,,,,,,,,,,,,,,,,,,,,,,,,,,,,,,,,,,,,,,,,,,,,,,,,,,,,,,,,,,,,,,,,,,,,,,,,,,,,,,,,,,,,,,,,,,,,,,,,,,,,,,,,,,,,,,,,,,,,,,,,
1725618206.069111,1725618206.070853,13.0,0.0,4230.769043,4246.538574,4259.487305,4275.384766,4219.615234,4212.05127,4248.974121,4185.641113,4197.436035,4198.717773,4534.743652,4500.512695,4305.256348,4448.717773,3891.0,2.0,35.0,,,,0.0,4.0,4.0,4.0,4.0,4.0,4.0,4.0,4.0,4.0,4.0,4.0,4.0,4.0,4.0,100.0,,,,,,,,,,,,,,,,,,,,,,,,,,,,,,,,,,,,,,,,,,,,,,,,,,,,,,,,,,,,,,,,,,,,,,,,,,,,,,,,,,,,,,,,,,,,,,,,,,,,,,,,,,,,,,,,,,,,,,,,,,,,,,,,,,,
1725618206.073015,1725618206.074757,14.0,0.0,4237.692383,4252.179688,4261.282227,4277.307617,4225.641113,4210.897461,4250.512695,4179.743652,4198.717773,4200.256348,4536.410156,4501.153809,4305.128418,4446.025879,2900.0,2.0,35.0,,,,0.0,4.0,4.0,4.0,4.0,4.0,4.0,4.0,4.0,4.0,4.0,4.0,4.0,4.0,4.0,100.0,,,,,,,,,,,,,,,,,,,,,,,,,,,,,,,,,,,,,,,,,,,,,,,,,,,,,,,,,,,,,,,,,,,,,,,,,,,,,,,,,,,,,,,,,,,,,,,,,,,,,,,,,,,,,,,,,,,,,,,,,,,,,,,,,,,
1725618206.076919,1725618206.078561,15.0,0.0,4246.538574,4260.256348,4265.0,4281.538574,4231.410156,4211.794922,4252.820313,4181.666504,4199.743652,4199.743652,4539.487305,4503.461426,4307.05127,4444.743652,3069.0,2.0,35.0,,,,0.0,4.0,4.0,4.0,4.0,4.0,4.0,4.0,4.0,4.0,4.0,4.0,4.0,4.0,4.0,100.0,,,,,,,,,,,,,,,,,,,,,,,,,,,,,,,,,,,,,,,,,,,,,,,,,,,,,,,,,,,,,,,,,,,,,,,,,,,,,,,,,,,,,,,,,,,,,,,,,,,,,,,,,,,,,,,,,,,,,,,,,,,,,,,,,,,
1725618206.080824,1725618206.082465,16.0,0.0,4252.05127,4266.025879,4268.589844,4285.897461,4232.692383,4214.230957,4253.589844,4189.358887,4199.230957,4196.410156,4541.153809,4505.0,4308.333496,4445.384766,3423.0,2.0,35.0,,,,0.0,4.0,4.0,4.0,4.0,4.0,4.0,4.0,4.0,4.0,4.0,4.0,4.0,4.0,4.0,100.0,,,,,,,,,,,,,,,,,,,,,,,,,,,,,,,,,,,,,,,,,,,,,,,,,,,,,,,,,,,,,,,,,,,,,,,,,,,,,,,,,,,,,,,,,,,,,,,,,,,,,,,,,,,,,,,,,,,,,,,,,,,,,,,,,,,
1725618206.084728,1725618206.086369,17.0,0.0,4252.307617,4267.05127,4270.384766,4287.94873,4228.717773,4216.666504,4251.922852,4197.94873,4197.563965,4191.922852,4540.256348,4505.897461,4307.820313,4448.333496,3891.0,2.0,35.0,,,,0.0,4.0,4.0,4.0,4.0,4.0,4.0,4.0,4.0,4.0,4.0,4.0,4.0,4.0,4.0,100.0,,,,,,,,,,,,,,,,,,,,,,,,,,,,,,,,,,,,,,,,,,,,,,,,,,,,,,,,,,,,,,,,,,,,,,,,,,,,,,,,,,,,,,,,,,,,,,,,,,,,,,,,,,,,,,,,,,,,,,,,,,,,,,,,,,,
1725618206.088632,1725618206.090273,18.0,0.0,4249.230957,4264.230957,4271.153809,4286.794922,4222.820313,4217.94873,4249.743652,4202.05127,4196.794922,4189.487305,4538.846191,4508.077148,4306.410156,4453.077148,2900.0,2.0,35.0,,,,0.0,4.0,4.0,4.0,4.0,4.0,4.0,4.0,4.0,4.0,4.0,4.0,4.0,4.0,4.0,100.0,,,,,,,,,,,,,,,,,,,,,,,,,,,,,,,,,,,,,,,,,,,,,,,,,,,,,,,,0.0,0.0,1.0,0.0,1.0,0.0,,,,,,,,,,,,,,,,,,,,,,,,,,,,,,,,,,,,,,,,,,,,,,,,,,,,,,,,,,,,,,,,,,,,,,
1725618206.092536,1725618206.094078,19.0,0.0,4246.282227,4261.025879,4271.922852,4284.230957,4219.487305,4217.692383,4249.615234,4200.512695,4198.589844,4191.025879,4539.230957,4512.307617,4306.282227,4457.820313,3069.0,2.0,35.0,,,,0.0,4.0,4.0,4.0,4.0,4.0,4.0,4.0,4.0,4.0,4.0,4.0,4.0,4.0,4.0,100.0,,,,,,,,,,,,,,,,,,,,,,,,,,,,,,,,,,,,,,,,,,,,,,,,,,,,,,,,,,,,,,,,,,,,,,,,,,,,,,,,,,,,,,,,,,,,,,,,,,,,,,,,,,,,,,,,,,,,,,,,,,,,,,,,,,,
1725618206.09644,1725618206.097982,20.0,0.0,4245.897461,4260.256348,4273.717773,4283.205078,4221.538574,4216.666504,4252.307617,4196.153809,4201.794922,4195.256348,4542.692383,4517.307617,4308.846191,4461.153809,3423.0,2.0,35.0,,,,0.0,4.0,4.0,4.0,4.0,4.0,4.0,4.0,4.0,4.0,4.0,4.0,4.0,4.0,4.0,100.0,,,,,,,,,,,,,,,,,,,,,,,,,,,,,,,,,,,,,,,,,,,,,,,,,,,,,,,,,,,,,,,,,,,,,,,,,,,,,,,,,,,,,,,,,,,,,,,,,,,,,,,,,,,,,,,,,,,,,,,,,,,,,,,,,,,
1725618206.100344,1725618206.101886,21.0,0.0,4247.820313,4262.436035,4276.666504,4285.769043,4228.205078,4216.282227,4256.538574,4193.974121,4204.358887,4199.743652,4547.692383,4521.794922,4313.461426,4462.179688,3891.0,2.0,35.0,,,,0.0,4.0,4.0,4.0,4.0,4.0,4.0,4.0,4.0,4.0,4.0,4.0,4.0,4.0,4.0,100.0,,,,,,,,,,,,,,,,,,,,,,,,,,,,,,,,,,,,,,,,,,,,,,,,,,,,,,,,,,,,,,,,,,,,,,,,,,,,,,,,,,,,,,,,,,,,,,,,,,,,,,,,,,,,,,,,,,,,,,,,,,,,,,,,,,,
1725618206.104248,1725618206.10589,22.0,0.0,4250.0,4265.641113,4279.615234,4290.769043,4235.512695,4216.794922,4259.230957,4197.307617,4204.487305,4203.205078,4552.307617,4525.128418,4317.692383,4461.922852,2900.0,2.0,35.0,,,,0.0,4.0,4.0,4.0,4.0,4.0,4.0,4.0,4.0,4.0,4.0,4.0,4.0,4.0,4.0,100.0,,,,,,,,,,,,,,,,,,,,,,,,,,,,,,,,,,,,,,,,,,,,,,,,,,,,,,,,,,,,,,,,,,,,,,,,,,,,,,,,,,,,,,,,,,,,,,,,,,,,,,,,,,,,,,,,,,,,,,,,,,,,,,,,,,,
1725618206.108152,1725618206.109794,23.0,0.0,4250.384766,4267.179688,4280.641113,4295.0,4238.589844,4217.94873,4258.333496,4205.0,4203.333496,4205.512695,4555.128418,4527.563965,4319.871582,4462.179688,3069.0,2.0,35.0,,,,0.0,4.0,4.0,4.0,4.0,4.0,4.0,4.0,4.0,4.0,4.0,4.0,4.0,4.0,4.0,100.0,,,,,,,,,,,,,,,,,,,,,,,,,,,,,,,,,,,,,,,,,,,,,,,,,,,,,,,,,,,,,,,,,,,,,,,,,,,,,,,,,,,,,,,,,,,,,,,,,,,,,,,,,,,,,,,,,,,,,,,,,,,,,,,,,,,
1725618206.112056,1725618206.113698,24.0,0.0,4249.230957,4265.641113,4279.487305,4295.256348,4235.0,4218.589844,4254.102539,4212.692383,4202.94873,4207.05127,4555.897461,4528.717773,4319.487305,4463.077148,3423.0,2.0,35.0,,,,0.0,4.0,4.0,4.0,4.0,4.0,4.0,4.0,4.0,4.0,4.0,4.0,4.0,4.0,4.0,100.0,,,,,,,,,,,,,,,,,,,,,,,,,,,,,,,,,,,,,,,,,,,,,,,,,,,,,,,,,,,,,,,,,,,,,,,,,,,,,,,,,,,,,,,,,,,,,,,,,,,,,,,,,,,,,,,,,,,,,,,,,,,,,,,,,,,
1725618206.11596,1725618206.117702,25.0,0.0,4247.820313,4261.025879,4277.05127,4290.897461,4227.179688,4218.077148,4249.358887,4216.410156,4204.743652,4207.563965,4555.384766,4528.846191,4317.563965,4463.846191,3891.0,2.0,35.0,,,,0.0,4.0,4.0,4.0,4.0,4.0,4.0,4.0,4.0,4.0,4.0,4.0,4.0,4.0,4.0,100.0,,,,,,,,,,,,,,,,,,,,,,,,,,,,,,,,,,,,,,,,,,,,,,,,,,,,,,,,,,,,,,,,,,,,,,,,,,,,,,,,,,,,,,,,,,,,,,,,,,,,,,,,,,,,,,,,,,,,,,,,,,,,,,,,,,,
1725618206.119865,1725618206.121606,26.0,0.0,4247.436035,4255.897461,4275.512695,4284.487305,4220.128418,4216.794922,4246.794922,4215.897461,4208.205078,4206.922852,4554.871582,4528.333496,4315.641113,4463.974121,2900.0,2.0,35.0,,,,0.0,4.0,4.0,4.0,4.0,4.0,4.0,4.0,4.0,4.0,4.0,4.0,4.0,4.0,4.0,100.0,,,,,,,,,,,,,,,,,,,,,,,,,,,,,,,,,,,,,,,,,,,,,,,,,,,,,,,,0.0,0.0,1.0,0.0,1.0,0.0,,,,,,,,,,,,,,,,,,,,,,,,,,,,,,,,,,,,,,,,,,,,,,,,,,,,,,,,,,,,,,,,,,,,,,
1725618206.123769,1725618206.12551,27.0,0.0,4247.94873,4252.563965,4275.897461,4280.641113,4218.205078,4216.153809,4247.692383,4215.0,4212.820313,4205.512695,4555.769043,4528.589844,4315.256348,4463.333496,3069.0,2.0,35.0,,,,0.0,4.0,4.0,4.0,4.0,4.0,4.0,4.0,4.0,4.0,4.0,4.0,4.0,4.0,4.0,100.0,,,,,,,,,,,,,,,,,,,,,,,,,,,,,,,,,,,,,,,,,,,,,,,,,,,,,,,,,,,,,,,,,,,,,,,,,,,,,,,,,,,,,,,,,,,,,,,,,,,,,,,,,,,,,,,,,,,,,,,,,,,,,,,,,,,
1725618206.127673,1725618206.129414,28.0,0.0,4248.205078,4251.666504,4277.820313,4282.05127,4221.794922,4217.179688,4250.641113,4216.922852,4217.436035,4204.358887,4558.333496,4529.871582,4317.307617,4463.205078,3423.0,2.0,35.0,,,,0.0,4.0,4.0,4.0,4.0,4.0,4.0,4.0,4.0,4.0,4.0,4.0,4.0,4.0,4.0,100.0,,,,,,,,,,,,,,,,,,,,,,,,,,,,,,,,,,,,,,,,,,,,,,,,,,,,,,,,,,,,,,,,,,,,,,,,,,,,,,,,,,,,,,,,,,,,,,,,,,,,,,,,,,,,,,,,,,,,,,,,,,,,,,,,,,,
1725618206.131577,1725618206.133318,29.0,0.0,4247.436035,4252.05127,4279.615234,4287.179688,4228.077148,4219.743652,4253.077148,4220.641113,4221.153809,4203.846191,4560.641113,4531.538574,4320.897461,4464.102539,3891.0,2.0,35.0,,,,0.0,4.0,4.0,4.0,4.0,4.0,4.0,4.0,4.0,4.0,4.0,4.0,4.0,4.0,4.0,100.0,,,,,,,,,,,,,,,,,,,,,,,,,,,,,,,,,,,,,,,,,,,,,,,,,,,,,,,,,,,,,,,,,,,,,,,,,,,,,,,,,,,,,,,,,,,,,,,,,,,,,,,,,,,,,,,,,,,,,,,,,,,,,,,,,,,
1725618206.135481,1725618206.137223,30.0,0.0,4244.743652,4251.410156,4279.230957,4290.641113,4232.436035,4222.179688,4253.333496,4222.05127,4222.307617,4203.333496,4559.615234,4530.769043,4323.077148,4464.358887,2900.0,2.0,35.0,,,,0.0,4.0,4.0,4.0,4.0,4.0,4.0,4.0,4.0,4.0,4.0,4.0,4.0,4.0,4.0,100.0,,,,,,,,,,,,,,,,,,,,,,,,,,,,,,,,,,,,,,,,,,,,,,,,,,,,,,,,,,,,,,,,,,,,,,,,,,,,,,,,,,,,,,,,,,,,,,,,,,,,,,,,,,,,,,,,,,,,,,,,,,,,,,,,,,,
1725618206.139385,1725618206.141027,31.0,0.0,4240.0,4248.461426,4275.256348,4287.820313,4231.922852,4222.179688,4251.282227,4217.820313,4219.743652,4201.025879,4552.563965,4525.769043,4319.871582,4461.410156,3069.0,2.0,35.0,,,,0.0,4.0,4.0,4.0,4.0,4.0,4.0,4.0,4.0,4.0,4.0,4.0,4.0,4.0,4.0,100.0,,,,,,,,,,,,,,,,,,,,,,,,,,,,,,,,,,,,,,,,,,,,,,,,,,,,,,,,,,,,,,,,,,,,,,,,,,,,,,,,,,,,,,,,,,,,,,,,,,,,,,,,,,,,,,,,,,,,,,,,,,,,,,,,,,,
1725618206.143289,1725618206.144931,32.0,0.0,4233.205078,4243.461426,4268.077148,4278.846191,4226.666504,4218.333496,4248.717773,4208.974121,4213.846191,4195.769043,4540.512695,4516.538574,4309.743652,4453.846191,0.0,2.0,35.0,,,,0.0,4.0,4.0,4.0,4.0,4.0,4.0,4.0,4.0,4.0,4.0,4.0,4.0,4.0,4.0,100.0,,,,,,,,,,,,,,,,,,,,,,,,,,,,,,,,,,,,,,,,,,,,,,,,,,,,,,,,,,,,,,,,,,,,,,,,,,,,,,,,,,,,,,,,,,,,,,,,,,,,,,,,,,,,,,,,,,,,,,,,,,,,,,,,,,,
1725618206.147193,1725618206.148835,33.0,0.0,4226.153809,4237.94873,4260.384766,4268.461426,4219.487305,4211.922852,4247.05127,4200.0,4206.794922,4188.461426,4528.205078,4505.769043,4295.897461,4443.974121,0.0,2.0,35.0,,,,0.0,4.0,4.0,4.0,4.0,4.0,4.0,4.0,4.0,4.0,4.0,4.0,4.0,4.0,4.0,100.0,,,,,,,,,,,,,,,,,,,,,,,,,,,,,,,,,,,,,,,,,,,,,,,,,,,,,,,,,,,,,,,,,,,,,,,,,,,,,,,,,,,,,,,,,,,,,,,,,,,,,,,,,,,,,,,,,,,,,,,,,,,,,,,,,,,
1725618206.151097,1725618206.152839,34.0,0.0,4220.641113,4232.820313,4254.615234,4262.05127,4214.358887,4205.512695,4246.794922,4195.128418,4202.05127,4182.436035,4520.769043,4497.179688,4284.358887,4435.897461,0.0,2.0,35.0,,,,0.0,4.0,4.0,4.0,4.0,4.0,4.0,4.0,4.0,4.0,4.0,4.0,4.0,4.0,4.0,100.0,,,,,,,,,,,,,,,,,1.0,0.0,0.0,,,,,,,,,,,,,,,,,,,,,,,,,,,,,,,,,,,,,0.0,0.0,1.0,0.0,1.0,0.0,4.453434,0.908672,1.164955,0.30979,0.097739,2.163384,0.86466,0.709771,0.332059,0.069247,3.455952,0.671474,0.909297,0.271506,0.103306,2.874352,0.884536,0.738893,0.198327,0.129455,1.392655,0.552854,0.216707,0.158967,0.074864,0.336861,0.264963,0.337446,0.15283,0.05725,1.251008,0.405342,0.22721,0.13269,0.057598,1.228986,1.839647,0.935627,0.374787,0.306799,1.467523,1.02151,1.004854,0.217025,0.115881,3.193952,0.810779,1.48291,0.422486,0.111233,4.215669,0.969552,1.681009,0.384723,0.362041,5.863148,1.114216,1.435803,0.626514,0.232616,4.12138,1.154011,1.360506,0.314006,0.100527,5.066839,1.287639,1.473144,0.413397,0.108947
1725618206.155002,1725618206.156743,35.0,0.0,4217.820313,4228.333496,4251.794922,4261.025879,4213.077148,4201.282227,4246.922852,4195.512695,4201.410156,4180.769043,4519.871582,4492.94873,4279.230957,4432.05127,0.0,2.0,35.0,,,,0.0,4.0,4.0,4.0,4.0,4.0,4.0,4.0,4.0,4.0,4.0,4.0,4.0,4.0,4.0,100.0,,,,,,,,,,,,,,,,,,,,,,,,,,,,,,,,,,,,,,,,,,,,,,,,,,,,,,,,,,,,,,,,,,,,,,,,,,,,,,,,,,,,,,,,,,,,,,,,,,,,,,,,,,,,,,,,,,,,,,,,,,,,,,,,,,,
1725618206.158906,1725618206.160647,36.0,0.0,4216.794922,4223.974121,4250.769043,4262.692383,4215.128418,4200.0,4246.538574,4198.589844,4203.461426,4183.205078,4522.179688,4492.436035,4279.871582,4431.153809,0.0,2.0,35.0,,,,0.0,4.0,4.0,4.0,4.0,4.0,4.0,4.0,4.0,4.0,4.0,4.0,4.0,4.0,4.0,100.0,,,,,,,,,,,,,,,,,,,,,,,,,,,,,,,,,,,,,,,,,,,,,,,,,,,,,,,,,,,,,,,,,,,,,,,,,,,,,,,,,,,,,,,,,,,,,,,,,,,,,,,,,,,,,,,,,,,,,,,,,,,,,,,,,,,
1725618206.16281,1725618206.164551,37.0,0.0,4216.025879,4219.871582,4249.230957,4263.205078,4217.436035,4200.641113,4245.769043,4200.641113,4204.615234,4186.025879,4522.563965,4492.307617,4281.282227,4429.743652,0.0,2.0,35.0,,,,0.0,4.0,4.0,4.0,4.0,4.0,4.0,4.0,4.0,4.0,4.0,4.0,4.0,4.0,4.0,100.0,,,,,,,,,,,,,,,,,,,,,,,,,,,,,,,,,,,,,,,,,,,,,,,,,,,,,,,,,,,,,,,,,,,,,,,,,,,,,,,,,,,,,,,,,,,,,,,,,,,,,,,,,,,,,,,,,,,,,,,,,,,,,,,,,,,
1725618206.166714,1725618206.168356,38.0,0.0,4214.487305,4216.410156,4246.410156,4261.153809,4217.94873,4202.05127,4245.512695,4200.0,4202.563965,4185.769043,4518.461426,4490.128418,4279.743652,4425.641113,0.0,2.0,35.0,,,,0.0,4.0,4.0,4.0,4.0,4.0,4.0,4.0,4.0,4.0,4.0,4.0,4.0,4.0,4.0,100.0,,,,,,,,,,,,,,,,,,,,,,,,,,,,,,,,,,,,,,,,,,,,,,,,,,,,,,,,,,,,,,,,,,,,,,,,,,,,,,,,,,,,,,,,,,,,,,,,,,,,,,,,,,,,,,,,,,,,,,,,,,,,,,,,,,,
1725618206.170618,1725618206.17226,39.0,0.0,4212.820313,4214.615234,4243.846191,4258.333496,4216.666504,4203.461426,4245.769043,4198.077148,4198.974121,4182.692383,4512.307617,4486.538574,4275.897461,4420.256348,0.0,2.0,35.0,,,,0.0,4.0,4.0,4.0,4.0,4.0,4.0,4.0,4.0,4.0,4.0,4.0,4.0,4.0,4.0,100.0,,,,,,,,,,,,,,,,,,,,,,,,,,,,,,,,,,,,,,,,,,,,,,,,,,,,,,,,,,,,,,,,,,,,,,,,,,,,,,,,,,,,,,,,,,,,,,,,,,,,,,,,,,,,,,,,,,,,,,,,,,,,,,,,,,,
1725618206.174522,1725618206.176164,40.0,0.0,4212.179688,4214.615234,4243.717773,4257.563965,4215.256348,4205.384766,4246.666504,4197.692383,4197.94873,4180.128418,4509.102539,4485.384766,4274.358887,4417.436035,0.0,2.0,35.0,,,,0.0,4.0,4.0,4.0,4.0,4.0,4.0,4.0,4.0,4.0,4.0,4.0,4.0,4.0,4.0,100.0,,,,,,,,,,,,,,,,,,,,,,,,,,,,,,,,,,,,,,,,,,,,,,,,,,,,,,,,,,,,,,,,,,,,,,,,,,,,,,,,,,,,,,,,,,,,,,,,,,,,,,,,,,,,,,,,,,,,,,,,,,,,,,,,,,,
1725618206.178426,1725618206.180068,41.0,0.0,4213.077148,4215.769043,4246.538574,4259.743652,4215.512695,4207.436035,4247.692383,4199.871582,4201.666504,4181.410156,4512.05127,4488.461426,4277.692383,4420.256348,0.0,2.0,35.0,,,,0.0,4.0,4.0,4.0,4.0,4.0,4.0,4.0,4.0,4.0,4.0,4.0,4.0,4.0,4.0,100.0,,,,,,,,,,,,,,,,,,,,,,,,,,,,,,,,,,,,,,,,,,,,,,,,,,,,,,,,,,,,,,,,,,,,,,,,,,,,,,,,,,,,,,,,,,,,,,,,,,,,,,,,,,,,,,,,,,,,,,,,,,,,,,,,,,,
1725618206.18233,1725618206.183872,42.0,0.0,4214.615234,4216.794922,4250.256348,4263.333496,4216.794922,4208.333496,4248.589844,4202.563965,4208.077148,4186.025879,4519.230957,4493.589844,4284.358887,4426.794922,0.0,2.0,35.0,,,,0.0,4.0,4.0,4.0,4.0,4.0,4.0,4.0,4.0,4.0,4.0,4.0,4.0,4.0,4.0,100.0,,,,,,,,,,,,,,,,,,,,,,,,,,,,,,,,,,,,,,,,,,,,,,,,,,,,,,,,0.0,0.0,1.0,0.0,1.0,0.0,,,,,,,,,,,,,,,,,,,,,,,,,,,,,,,,,,,,,,,,,,,,,,,,,,,,,,,,,,,,,,,,,,,,,,
1725618206.186234,1725618206.187776,43.0,0.0,4215.0,4216.794922,4251.410156,4265.897461,4218.077148,4206.410156,4248.461426,4202.820313,4211.410156,4190.0,4525.256348,4496.666504,4290.128418,4431.538574,0.0,2.0,35.0,,,,0.0,4.0,4.0,4.0,4.0,4.0,4.0,4.0,4.0,4.0,4.0,4.0,4.0,4.0,4.0,100.0,,,,,,,,,,,,,,,,,,,,,,,,,,,,,,,,,,,,,,,,,,,,,,,,,,,,,,,,,,,,,,,,,,,,,,,,,,,,,,,,,,,,,,,,,,,,,,,,,,,,,,,,,,,,,,,,,,,,,,,,,,,,,,,,,,,
1725618206.190138,1725618206.19168,44.0,0.0,4213.974121,4215.897461,4249.358887,4266.153809,4218.333496,4202.05127,4247.05127,4200.512695,4208.589844,4189.487305,4526.282227,4495.769043,4291.410156,4431.282227,0.0,2.0,35.0,,,,0.0,4.0,4.0,4.0,4.0,4.0,4.0,4.0,4.0,4.0,4.0,4.0,4.0,4.0,4.0,100.0,,,,,,,,,,,,,,,,,,,,,,,,,,,,,,,,,,,,,,,,,,,,,,,,,,,,,,,,,,,,,,,,,,,,,,,,,,,,,,,,,,,,,,,,,,,,,,,,,,,,,,,,,,,,,,,,,,,,,,,,,,,,,,,,,,,
1725618206.194043,1725618206.195584,45.0,0.0,4212.563965,4214.871582,4246.666504,4264.102539,4217.692383,4198.589844,4245.256348,4197.820313,4201.794922,4185.0,4522.563965,4493.333496,4288.461426,4427.179688,0.0,2.0,35.0,,,,0.0,4.0,4.0,4.0,4.0,4.0,4.0,4.0,4.0,4.0,4.0,4.0,4.0,4.0,4.0,100.0,,,,,,,,,,,,,,,,,,,,,,,,,,,,,,,,,,,,,,,,,,,,,,,,,,,,,,,,,,,,,,,,,,,,,,,,,,,,,,,,,,,,,,,,,,,,,,,,,,,,,,,,,,,,,,,,,,,,,,,,,,,,,,,,,,,
1725618206.197947,1725618206.199389,46.0,0.0,4212.179688,4214.743652,4247.436035,4261.410156,4217.179688,4199.358887,4244.615234,4197.820313,4197.563965,4181.153809,4518.589844,4493.589844,4285.256348,4424.358887,0.0,2.0,35.0,,,,0.0,4.0,4.0,4.0,4.0,4.0,4.0,4.0,4.0,4.0,4.0,4.0,4.0,4.0,4.0,100.0,,,,,,,,,,,,,,,,,,,,,,,,,,,,,,,,,,,,,,,,,,,,,,,,,,,,,,,,,,,,,,,,,,,,,,,,,,,,,,,,,,,,,,,,,,,,,,,,,,,,,,,,,,,,,,,,,,,,,,,,,,,,,,,,,,,
1725618206.201851,1725618206.203293,47.0,0.0,4213.974121,4216.153809,4252.94873,4261.025879,4217.436035,4205.256348,4246.025879,4201.282227,4200.128418,4181.794922,4518.589844,4498.461426,4285.512695,4426.666504,0.0,2.0,35.0,,,,0.0,4.0,4.0,4.0,4.0,4.0,4.0,4.0,4.0,4.0,4.0,4.0,4.0,4.0,4.0,100.0,,,,,,,,,,,,,,,,,,,,,,,,,,,,,,,,,,,,,,,,,,,,,,,,,,,,,,,,,,,,,,,,,,,,,,,,,,,,,,,,,,,,,,,,,,,,,,,,,,,,,,,,,,,,,,,,,,,,,,,,,,,,,,,,,,,
1725618206.205755,1725618206.207197,48.0,0.0,4217.563965,4218.589844,4260.641113,4263.717773,4218.333496,4212.820313,4248.717773,4205.897461,4208.205078,4186.153809,4522.820313,4506.538574,4290.256348,4433.461426,0.0,2.0,35.0,,,,0.0,4.0,4.0,4.0,4.0,4.0,4.0,4.0,4.0,4.0,4.0,4.0,4.0,4.0,4.0,100.0,,,,,,,,,,,,,,,,,,,,,,,,,,,,,,,,,,,,,,,,,,,,,,,,,,,,,,,,,,,,,,,,,,,,,,,,,,,,,,,,,,,,,,,,,,,,,,,,,,,,,,,,,,,,,,,,,,,,,,,,,,,,,,,,,,,
1725618206.209659,1725618206.211201,49.0,0.0,4220.641113,4220.897461,4265.897461,4267.692383,4219.487305,4216.666504,4250.384766,4208.589844,4215.128418,4189.871582,4528.461426,4513.589844,4296.025879,4440.128418,0.0,2.0,35.0,,,,0.0,4.0,4.0,4.0,4.0,4.0,4.0,4.0,4.0,4.0,4.0,4.0,4.0,4.0,4.0,100.0,,,,,,,,,,,,,,,,,,,,,,,,,,,,,,,,,,,,,,,,,,,,,,,,,,,,,,,,,,,,,,,,,,,,,,,,,,,,,,,,,,,,,,,,,,,,,,,,,,,,,,,,,,,,,,,,,,,,,,,,,,,,,,,,,,,
1725618206.213563,1725618206.215105,50.0,0.0,4221.153809,4221.410156,4264.743652,4268.846191,4219.871582,4213.717773,4249.743652,4207.94873,4215.0,4188.717773,4530.897461,4515.0,4298.589844,4441.538574,0.0,2.0,35.0,,,,0.0,4.0,4.0,4.0,4.0,4.0,4.0,4.0,4.0,4.0,4.0,4.0,4.0,4.0,4.0,100.0,,,,,,,,,,,,,,,,,,,,,,,,,,,,,,,,,,,,,,,,,,,,,,,,,,,,,,,,0.0,0.0,1.0,0.0,1.0,0.0,,,,,,,,,,,,,,,,,,,,,,,,,,,,,,,,,,,,,,,,,,,,,,,,,,,,,,,,,,,,,,,,,,,,,,
1725618206.217467,1725618206.219009,51.0,0.0,4218.846191,4218.974121,4257.436035,4265.128418,4218.717773,4205.897461,4246.794922,4204.615234,4207.563965,4182.563965,4527.692383,4510.0,4296.025879,4436.538574,0.0,2.0,35.0,,,,0.0,4.0,4.0,4.0,4.0,4.0,4.0,4.0,4.0,4.0,4.0,4.0,4.0,4.0,4.0,100.0,,,,,,,,,,,,,,,,,,,,,,,,,,,,,,,,,,,,,,,,,,,,,,,,,,,,,,,,,,,,,,,,,,,,,,,,,,,,,,,,,,,,,,,,,,,,,,,,,,,,,,,,,,,,,,,,,,,,,,,,,,,,,,,,,,,
1725618206.221371,1725618206.222913,52.0,0.0,4215.641113,4213.717773,4248.333496,4258.077148,4216.410156,4198.461426,4243.717773,4201.025879,4198.333496,4175.641113,4520.512695,4502.692383,4291.282227,4429.358887,0.0,2.0,35.0,,,,0.0,4.0,4.0,4.0,4.0,4.0,4.0,4.0,4.0,4.0,4.0,4.0,4.0,4.0,4.0,100.0,,,,,,,,,,,,,,,,,,,,,,,,,,,,,,,,,,,,,,,,,,,,,,,,,,,,,,,,,,,,,,,,,,,,,,,,,,,,,,,,,,,,,,,,,,,,,,,,,,,,,,,,,,,,,,,,,,,,,,,,,,,,,,,,,,,
1725618206.225275,1725618206.226917,53.0,0.0,4214.487305,4207.94873,4243.205078,4251.922852,4214.615234,4196.538574,4242.307617,4199.358887,4194.230957,4172.820313,4514.615234,4499.358887,4289.102539,4425.512695,0.0,2.0,35.0,,,,0.0,4.0,4.0,4.0,4.0,4.0,4.0,4.0,4.0,4.0,4.0,4.0,4.0,4.0,4.0,100.0,,,,,,,,,,,,,,,,,,,,,,,,,,,,,,,,,,,,,,,,,,,,,,,,,,,,,,,,,,,,,,,,,,,,,,,,,,,,,,,,,,,,,,,,,,,,,,,,,,,,,,,,,,,,,,,,,,,,,,,,,,,,,,,,,,,
1725618206.22918,1725618206.230821,54.0,0.0,4216.410156,4203.974121,4244.743652,4250.256348,4214.487305,4200.769043,4243.077148,4200.384766,4197.563965,4176.282227,4514.487305,4502.94873,4291.410156,4427.307617,0.0,2.0,35.0,,,,0.0,4.0,4.0,4.0,4.0,4.0,4.0,4.0,4.0,4.0,4.0,4.0,4.0,4.0,4.0,100.0,,,,,,,,,,,,,,,,,,,,,,,,,,,,,,,,,,,,,,,,,,,,,,,,,,,,,,,,,,,,,,,,,,,,,,,,,,,,,,,,,,,,,,,,,,,,,,,,,,,,,,,,,,,,,,,,,,,,,,,,,,,,,,,,,,,
1725618206.233084,1725618206.234725,55.0,0.0,4219.615234,4203.077148,4250.384766,4253.461426,4215.641113,4207.307617,4244.358887,4203.205078,4204.358887,4183.205078,4520.128418,4509.871582,4296.153809,4431.922852,0.0,2.0,35.0,,,,0.0,4.0,4.0,4.0,4.0,4.0,4.0,4.0,4.0,4.0,4.0,4.0,4.0,4.0,4.0,100.0,,,,,,,,,,,,,,,,,,,,,,,,,,,,,,,,,,,,,,,,,,,,,,,,,,,,,,,,,,,,,,,,,,,,,,,,,,,,,,,,,,,,,,,,,,,,,,,,,,,,,,,,,,,,,,,,,,,,,,,,,,,,,,,,,,,
1725618206.236988,1725618206.238629,56.0,0.0,4221.410156,4205.128418,4254.615234,4258.589844,4215.769043,4210.897461,4243.589844,4205.512695,4208.077148,4188.846191,4526.538574,4512.692383,4299.102539,4435.0,0.0,2.0,35.0,,,,0.0,4.0,4.0,4.0,4.0,4.0,4.0,4.0,4.0,4.0,4.0,4.0,4.0,4.0,4.0,100.0,,,,,,,,,,,,,,,,,,,,,,,,,,,,,,,,,,,,,,,,,,,,,,,,,,,,,,,,,,,,,,,,,,,,,,,,,,,,,,,,,,,,,,,,,,,,,,,,,,,,,,,,,,,,,,,,,,,,,,,,,,,,,,,,,,,
1725618206.240892,1725618206.242533,57.0,0.0,4220.512695,4208.974121,4254.230957,4261.922852,4213.205078,4209.230957,4239.871582,4205.256348,4205.641113,4190.0,4527.692383,4507.436035,4298.333496,4433.717773,0.0,2.0,35.0,,,,0.0,4.0,4.0,4.0,4.0,4.0,4.0,4.0,4.0,4.0,4.0,4.0,4.0,4.0,4.0,100.0,,,,,,,,,,,,,,,,,,,,,,,,,,,,,,,,,,,,,,,,,,,,,,,,,,,,,,,,,,,,,,,,,,,,,,,,,,,,,,,,,,,,,,,,,,,,,,,,,,,,,,,,,,,,,,,,,,,,,,,,,,,,,,,,,,,
1725618206.244796,1725618206.246338,58.0,0.0,4217.820313,4212.820313,4250.512695,4262.05127,4208.846191,4204.487305,4235.256348,4202.307617,4200.384766,4186.922852,4521.410156,4497.179688,4295.256348,4429.743652,0.0,2.0,35.0,,,,0.0,4.0,4.0,4.0,4.0,4.0,4.0,4.0,4.0,4.0,4.0,4.0,4.0,4.0,4.0,100.0,,,,,,,,,,,,,,,,,,,,,,,,,,,,,,,,,,,,,,,,,,,,,,,,,,,,,,,,0.0,0.0,1.0,0.0,1.0,0.0,,,,,,,,,,,,,,,,,,,,,,,,,,,,,,,,,,,,,,,,,,,,,,,,,,,,,,,,,,,,,,,,,,,,,,
1725618206.2487,1725618206.250242,59.0,0.0,4215.897461,4215.384766,4248.205078,4260.0,4205.256348,4201.153809,4232.820313,4198.461426,4198.077148,4183.077148,4511.282227,4489.871582,4293.205078,4427.05127,0.0,2.0,35.0,,,,0.0,4.0,4.0,4.0,4.0,4.0,4.0,4.0,4.0,4.0,4.0,4.0,4.0,4.0,4.0,100.0,,,,,,,,,,,,,,,,,,,,,,,,,,,,,,,,,,,,,,,,,,,,,,,,,,,,,,,,,,,,,,,,,,,,,,,,,,,,,,,,,,,,,,,,,,,,,,,,,,,,,,,,,,,,,,,,,,,,,,,,,,,,,,,,,,,
1725618206.252604,1725618206.254246,60.0,0.0,4217.692383,4215.641113,4250.128418,4258.077148,4204.615234,4202.307617,4234.487305,4196.282227,4201.410156,4181.410156,4504.230957,4491.025879,4294.615234,4427.820313,0.0,2.0,35.0,,,,0.0,4.0,4.0,4.0,4.0,4.0,4.0,4.0,4.0,4.0,4.0,4.0,4.0,4.0,4.0,100.0,,,,,,,,,,,,,,,,,,,,,,,,,,,,,,,,,,,,,,,,,,,,,,,,,,,,,,,,,,,,,,,,,,,,,,,,,,,,,,,,,,,,,,,,,,,,,,,,,,,,,,,,,,,,,,,,,,,,,,,,,,,,,,,,,,,
1725618206.256508,1725618206.25815,61.0,0.0,4223.077148,4213.589844,4255.256348,4257.94873,4207.436035,4207.820313,4239.102539,4196.538574,4208.461426,4182.563965,4505.128418,4499.487305,4298.717773,4431.282227,0.0,2.0,35.0,,,,0.0,4.0,4.0,4.0,4.0,4.0,4.0,4.0,4.0,4.0,4.0,4.0,4.0,4.0,4.0,100.0,,,,,,,,,,,,,,,,,,,,,,,,,,,,,,,,,,,,,,,,,,,,,,,,,,,,,,,,,,,,,,,,,,,,,,,,,,,,,,,,,,,,,,,,,,,,,,,,,,,,,,,,,,,,,,,,,,,,,,,,,,,,,,,,,,,
1725618206.260412,1725618206.262054,62.0,0.0,4229.743652,4210.128418,4259.871582,4259.358887,4211.538574,4214.358887,4243.205078,4198.461426,4215.0,4185.256348,4513.461426,4508.333496,4303.461426,4434.358887,0.0,2.0,35.0,,,,0.0,4.0,4.0,4.0,4.0,4.0,4.0,4.0,4.0,4.0,4.0,4.0,4.0,4.0,4.0,100.0,,,,,,,,,,,,,,,,,,,,,,,,,,,,,,,,,,,,,,,,,,,,,,,,,,,,,,,,,,,,,,,,,,,,,,,,,,,,,,,,,,,,,,,,,,,,,,,,,,,,,,,,,,,,,,,,,,,,,,,,,,,,,,,,,,,
1725618206.264316,1725618206.265958,63.0,0.0,4234.102539,4206.282227,4260.384766,4260.897461,4214.358887,4218.205078,4243.974121,4200.897461,4218.461426,4187.563965,4523.846191,4511.282227,4307.05127,4434.487305,0.0,2.0,35.0,,,,0.0,4.0,4.0,4.0,4.0,4.0,4.0,4.0,4.0,4.0,4.0,4.0,4.0,4.0,4.0,100.0,,,,,,,,,,,,,,,,,,,,,,,,,,,,,,,,,,,,,,,,,,,,,,,,,,,,,,,,,,,,,,,,,,,,,,,,,,,,,,,,,,,,,,,,,,,,,,,,,,,,,,,,,,,,,,,,,,,,,,,,,,,,,,,,,,,
1725618206.268221,1725618206.269862,64.0,0.0,4233.846191,4203.461426,4256.538574,4261.410156,4214.871582,4217.820313,4241.025879,4202.692383,4218.717773,4188.717773,4530.0,4506.410156,4309.230957,4432.05127,0.0,2.0,35.0,,,,0.0,4.0,4.0,4.0,4.0,4.0,4.0,4.0,4.0,4.0,4.0,4.0,4.0,4.0,4.0,100.0,,,,,,,,,,,,,,,,,,,,,,,,,,,,,,,,,,,,,,,,,,,,,,,,,,,,,,,,,,,,,,,,,,,,,,,,,,,,,,,,,,,,,,,,,,,,,,,,,,,,,,,,,,,,,,,,,,,,,,,,,,,,,,,,,,,
1725618206.272125,1725618206.273666,65.0,0.0,4229.230957,4202.820313,4250.897461,4260.769043,4213.846191,4213.846191,4236.282227,4203.077148,4216.922852,4188.717773,4528.717773,4496.794922,4310.128418,4429.230957,0.0,2.0,35.0,,,,0.0,4.0,4.0,4.0,4.0,4.0,4.0,4.0,4.0,4.0,4.0,4.0,4.0,4.0,4.0,100.0,,,,,,,,,,,,,,,,,,,,,,,,,,,,,,,,,,,,,,,,,,,,,,,,,,,,,,,,,,,,,,,,,,,,,,,,,,,,,,,,,,,,,,,,,,,,,,,,,,,,,,,,,,,,,,,,,,,,,,,,,,,,,,,,,,,
1725618206.276029,1725618206.277571,66.0,0.0,4222.94873,4204.743652,4246.794922,4260.128418,4212.94873,4208.589844,4232.563965,4202.563965,4213.717773,4188.461426,4522.820313,4488.461426,4310.256348,4427.563965,0.0,2.0,35.0,,,,0.0,4.0,4.0,4.0,4.0,4.0,4.0,4.0,4.0,4.0,4.0,4.0,4.0,4.0,4.0,100.0,1.0,100.0,4.0,4.0,4.0,4.0,4.0,4.0,4.0,4.0,4.0,4.0,4.0,4.0,4.0,4.0,1.0,0.0,0.0,,,,,,,,,,,,,,,,,,,,,,,,,,,,,,,,,,,,,0.0,0.0,1.0,0.0,1.0,0.0,3.533981,1.072803,0.945046,0.318577,0.100611,1.595678,0.927839,0.615605,0.330087,0.063081,2.634549,0.815607,0.731149,0.242283,0.102792,2.048447,1.013251,0.623793,0.215253,0.140509,1.108191,0.534215,0.187693,0.153142,0.07091,0.282443,0.252728,0.326113,0.155296,0.066468,0.887003,0.355617,0.194621,0.121574,0.052369,1.133009,1.782058,1.022776,0.379411,0.370719,1.225863,1.041501,0.858601,0.219616,0.121794,2.752221,0.827078,1.117365,0.415027,0.114394,3.436928,1.341286,1.354702,0.439025,0.381484,4.631525,1.223844,1.220085,0.572953,0.233329,3.71145,1.283393,0.997463,0.30465,0.099236,4.29321,1.458908,0.993545,0.406403,0.105387
1725618206.279933,1725618206.281475,67.0,0.0,4218.205078,4208.333496,4245.641113,4260.641113,4212.820313,4203.974121,4231.794922,4202.179688,4209.615234,4187.94873,4517.436035,4486.025879,4309.871582,4427.820313,0.0,2.0,35.0,,,,0.0,4.0,4.0,4.0,4.0,4.0,4.0,4.0,4.0,4.0,4.0,4.0,4.0,4.0,4.0,100.0,,,,,,,,,,,,,,,,,,,,,,,,,,,,,,,,,,,,,,,,,,,,,,,,,,,,,,,,,,,,,,,,,,,,,,,,,,,,,,,,,,,,,,,,,,,,,,,,,,,,,,,,,,,,,,,,,,,,,,,,,,,,,,,,,,,
1725618206.283837,1725618206.285379,68.0,0.0,4216.794922,4211.794922,4246.794922,4261.922852,4212.307617,4201.538574,4234.230957,4202.820313,4205.897461,4186.794922,4516.538574,4490.128418,4309.230957,4429.487305,0.0,2.0,35.0,,,,0.0,4.0,4.0,4.0,4.0,4.0,4.0,4.0,4.0,4.0,4.0,4.0,4.0,4.0,4.0,100.0,,,,,,,,,,,,,,,,,,,,,,,,,,,,,,,,,,,,,,,,,,,,,,,,,,,,,,,,,,,,,,,,,,,,,,,,,,,,,,,,,,,,,,,,,,,,,,,,,,,,,,,,,,,,,,,,,,,,,,,,,,,,,,,,,,,
1725618206.287741,1725618206.289183,69.0,0.0,4217.820313,4213.717773,4248.333496,4262.563965,4210.256348,4201.153809,4237.94873,4203.974121,4203.461426,4185.0,4519.615234,4496.538574,4308.717773,4431.282227,0.0,2.0,35.0,,,,0.0,4.0,4.0,4.0,4.0,4.0,4.0,4.0,4.0,4.0,4.0,4.0,4.0,4.0,4.0,100.0,,,,,,,,,,,,,,,,,,,,,,,,,,,,,,,,,,,,,,,,,,,,,,,,,,,,,,,,,,,,,,,,,,,,,,,,,,,,,,,,,,,,,,,,,,,,,,,,,,,,,,,,,,,,,,,,,,,,,,,,,,,,,,,,,,,
1725618206.291645,1725618206.293087,70.0,0.0,4219.358887,4213.974121,4248.974121,4262.05127,4206.794922,4202.179688,4240.769043,4204.358887,4202.563965,4183.205078,4522.307617,4500.384766,4308.589844,4431.922852,0.0,2.0,35.0,,,,0.0,4.0,4.0,4.0,4.0,4.0,4.0,4.0,4.0,4.0,4.0,4.0,4.0,4.0,4.0,100.0,,,,,,,,,,,,,,,,,,,,,,,,,,,,,,,,,,,,,,,,,,,,,,,,,,,,,,,,,,,,,,,,,,,,,,,,,,,,,,,,,,,,,,,,,,,,,,,,,,,,,,,,,,,,,,,,,,,,,,,,,,,,,,,,,,,
1725618206.29555,1725618206.296991,71.0,0.0,4220.256348,4213.589844,4248.461426,4261.282227,4204.230957,4203.333496,4241.410156,4203.461426,4202.692383,4182.307617,4521.410156,4499.871582,4309.102539,4431.153809,0.0,2.0,35.0,,,,0.0,4.0,4.0,4.0,4.0,4.0,4.0,4.0,4.0,4.0,4.0,4.0,4.0,4.0,4.0,100.0,,,,,,,,,,,,,,,,,,,,,,,,,,,,,,,,,,,,,,,,,,,,,,,,,,,,,,,,,,,,,,,,,,,,,,,,,,,,,,,,,,,,,,,,,,,,,,,,,,,,,,,,,,,,,,,,,,,,,,,,,,,,,,,,,,,
1725618206.299454,1725618206.300895,72.0,0.0,4220.641113,4213.846191,4247.436035,4261.410156,4205.128418,4203.846191,4240.256348,4202.563965,4203.461426,4182.820313,4516.922852,4496.666504,4309.743652,4430.0,0.0,2.0,35.0,,,,0.0,4.0,4.0,4.0,4.0,4.0,4.0,4.0,4.0,4.0,4.0,4.0,4.0,4.0,4.0,100.0,,,,,,,,,,,,,,,,,,,,,,,,,,,,,,,,,,,,,,,,,,,,,,,,,,,,,,,,,,,,,,,,,,,,,,,,,,,,,,,,,,,,,,,,,,,,,,,,,,,,,,,,,,,,,,,,,,,,,,,,,,,,,,,,,,,
1725618206.303358,1725618206.304699,73.0,0.0,4221.153809,4214.102539,4247.05127,4262.436035,4209.102539,4203.333496,4238.077148,4202.563965,4203.974121,4183.974121,4511.922852,4493.461426,4310.384766,4429.487305,0.0,2.0,35.0,,,,0.0,4.0,4.0,4.0,4.0,4.0,4.0,4.0,4.0,4.0,4.0,4.0,4.0,4.0,4.0,100.0,,,,,,,,,,,,,,,,,,,,,,,,,,,,,,,,,,,,,,,,,,,,,,,,,,,,,,,,,,,,,,,,,,,,,,,,,,,,,,,,,,,,,,,,,,,,,,,,,,,,,,,,,,,,,,,,,,,,,,,,,,,,,,,,,,,
1725618206.307262,1725618206.308604,74.0,0.0,4221.153809,4212.820313,4247.436035,4263.205078,4213.461426,4202.307617,4235.769043,4202.820313,4203.461426,4185.384766,4509.487305,4491.410156,4310.512695,4429.615234,0.0,2.0,35.0,,,,0.0,4.0,4.0,4.0,4.0,4.0,4.0,4.0,4.0,4.0,4.0,4.0,4.0,4.0,4.0,100.0,,,,,,,,,,,,,,,,,,,,,,,,,,,,,,,,,,,,,,,,,,,,,,,,,,,,,,,,0.0,0.0,1.0,0.0,1.0,0.0,,,,,,,,,,,,,,,,,,,,,,,,,,,,,,,,,,,,,,,,,,,,,,,,,,,,,,,,,,,,,,,,,,,,,,
1725618206.311166,1725618206.312508,75.0,0.0,4220.384766,4209.358887,4247.820313,4262.563965,4214.871582,4201.153809,4234.230957,4201.794922,4202.436035,4186.410156,4510.128418,4490.256348,4310.641113,4429.743652,0.0,2.0,35.0,,,,0.0,4.0,4.0,4.0,4.0,4.0,4.0,4.0,4.0,4.0,4.0,4.0,4.0,4.0,4.0,100.0,,,,,,,,,,,,,,,,,,,,,,,,,,,,,,,,,,,,,,,,,,,,,,,,,,,,,,,,,,,,,,,,,,,,,,,,,,,,,,,,,,,,,,,,,,,,,,,,,,,,,,,,,,,,,,,,,,,,,,,,,,,,,,,,,,,
1725618206.31507,1725618206.316512,76.0,0.0,4219.230957,4205.384766,4248.077148,4260.641113,4212.179688,4200.641113,4233.589844,4198.333496,4201.922852,4186.666504,4511.538574,4490.128418,4311.025879,4429.487305,0.0,2.0,35.0,,,,0.0,4.0,4.0,4.0,4.0,4.0,4.0,4.0,4.0,4.0,4.0,4.0,4.0,4.0,4.0,100.0,,,,,,,,,,,,,,,,,,,,,,,,,,,,,,,,,,,,,,,,,,,,,,,,,,,,,,,,,,,,,,,,,,,,,,,,,,,,,,,,,,,,,,,,,,,,,,,,,,,,,,,,,,,,,,,,,,,,,,,,,,,,,,,,,,,
1725618206.318974,1725618206.320416,77.0,0.0,4218.846191,4202.94873,4248.077148,4258.589844,4207.307617,4200.769043,4233.589844,4193.333496,4202.563965,4186.025879,4511.025879,4490.769043,4311.666504,4429.102539,0.0,2.0,35.0,,,,0.0,4.0,4.0,4.0,4.0,4.0,4.0,4.0,4.0,4.0,4.0,4.0,4.0,4.0,4.0,100.0,,,,,,,,,,,,,,,,,,,,,,,,,,,,,,,,,,,,,,,,,,,,,,,,,,,,,,,,,,,,,,,,,,,,,,,,,,,,,,,,,,,,,,,,,,,,,,,,,,,,,,,,,,,,,,,,,,,,,,,,,,,,,,,,,,,
1725618206.322878,1725618206.32432,78.0,0.0,4220.128418,4203.589844,4247.820313,4257.563965,4202.820313,4201.538574,4233.589844,4188.205078,4203.205078,4185.0,4508.461426,4491.025879,4311.666504,4428.333496,0.0,2.0,35.0,,,,0.0,4.0,4.0,4.0,4.0,4.0,4.0,4.0,4.0,4.0,4.0,4.0,4.0,4.0,4.0,100.0,,,,,,,,,,,,,,,,,,,,,,,,,,,,,,,,,,,,,,,,,,,,,,,,,,,,,,,,,,,,,,,,,,,,,,,,,,,,,,,,,,,,,,,,,,,,,,,,,,,,,,,,,,,,,,,,,,,,,,,,,,,,,,,,,,,
1725618206.326782,1725618206.328324,79.0,0.0,4223.205078,4207.05127,4247.05127,4257.94873,4201.153809,4201.922852,4233.205078,4184.230957,4202.94873,4184.102539,4505.641113,4489.743652,4311.025879,4427.05127,0.0,2.0,35.0,,,,0.0,4.0,4.0,4.0,4.0,4.0,4.0,4.0,4.0,4.0,4.0,4.0,4.0,4.0,4.0,100.0,,,,,,,,,,,,,,,,,,,,,,,,,,,,,,,,,,,,,,,,,,,,,,,,,,,,,,,,,,,,,,,,,,,,,,,,,,,,,,,,,,,,,,,,,,,,,,,,,,,,,,,,,,,,,,,,,,,,,,,,,,,,,,,,,,,
1725618206.330686,1725618206.332228,80.0,0.0,4227.179688,4212.307617,4246.025879,4259.102539,4202.436035,4201.666504,4232.563965,4181.666504,4201.794922,4183.974121,4504.871582,4487.05127,4311.025879,4425.769043,0.0,2.0,35.0,,,,0.0,4.0,4.0,4.0,4.0,4.0,4.0,4.0,4.0,4.0,4.0,4.0,4.0,4.0,4.0,100.0,,,,,,,,,,,,,,,,,,,,,,,,,,,,,,,,,,,,,,,,,,,,,,,,,,,,,,,,,,,,,,,,,,,,,,,,,,,,,,,,,,,,,,,,,,,,,,,,,,,,,,,,,,,,,,,,,,,,,,,,,,,,,,,,,,,
1725618206.334591,1725618206.336132,81.0,0.0,4230.769043,4217.179688,4245.769043,4260.256348,4204.871582,4201.025879,4232.563965,4180.512695,4201.666504,4185.128418,4507.05127,4485.641113,4312.94873,4425.641113,0.0,2.0,35.0,,,,0.0,4.0,4.0,4.0,4.0,4.0,4.0,4.0,4.0,4.0,4.0,4.0,4.0,4.0,4.0,100.0,,,,,,,,,,,,,,,,,,,,,,,,,,,,,,,,,,,,,,,,,,,,,,,,,,,,,,,,,,,,,,,,,,,,,,,,,,,,,,,,,,,,,,,,,,,,,,,,,,,,,,,,,,,,,,,,,,,,,,,,,,,,,,,,,,,
1725618206.338495,1725618206.340036,82.0,0.0,4232.692383,4218.846191,4247.307617,4261.025879,4206.538574,4200.769043,4233.461426,4181.410156,4203.333496,4187.563965,4510.641113,4488.205078,4316.922852,4428.077148,0.0,2.0,35.0,,,,0.0,4.0,4.0,4.0,4.0,4.0,4.0,4.0,4.0,4.0,4.0,4.0,4.0,4.0,4.0,100.0,,,,,,,,,,,,,,,,,,,,,,,,,,,,,,,,,,,,,,,,,,,,,,,,,,,,,,,,0.0,0.0,1.0,0.0,1.0,0.0,,,,,,,,,,,,,,,,,,,,,,,,,,,,,,,,,,,,,,,,,,,,,,,,,,,,,,,,,,,,,,,,,,,,,,
1725618206.342399,1725618206.34394,83.0,0.0,4232.94873,4215.641113,4250.512695,4261.153809,4206.410156,4201.282227,4235.384766,4184.743652,4206.025879,4190.0,4513.846191,4495.128418,4321.666504,4432.94873,0.0,2.0,35.0,,,,0.0,4.0,4.0,4.0,4.0,4.0,4.0,4.0,4.0,4.0,4.0,4.0,4.0,4.0,4.0,100.0,,,,,,,,,,,,,,,,,,,,,,,,,,,,,,,,,,,,,,,,,,,,,,,,,,,,,,,,,,,,,,,,,,,,,,,,,,,,,,,,,,,,,,,,,,,,,,,,,,,,,,,,,,,,,,,,,,,,,,,,,,,,,,,,,,,
1725618206.346303,1725618206.347844,84.0,0.0,4232.179688,4208.717773,4254.102539,4260.641113,4205.256348,4202.436035,4237.179688,4189.615234,4207.563965,4191.025879,4515.769043,4503.205078,4325.897461,4438.461426,0.0,2.0,35.0,,,,0.0,4.0,4.0,4.0,4.0,4.0,4.0,4.0,4.0,4.0,4.0,4.0,4.0,4.0,4.0,100.0,,,,,,,,,,,,,,,,,,,,,,,,,,,,,,,,,,,,,,,,,,,,,,,,,,,,,,,,,,,,,,,,,,,,,,,,,,,,,,,,,,,,,,,,,,,,,,,,,,,,,,,,,,,,,,,,,,,,,,,,,,,,,,,,,,,
1725618206.350207,1725618206.351649,85.0,0.0,4231.410156,4202.436035,4256.538574,4259.871582,4204.487305,4203.205078,4237.563965,4194.487305,4207.05127,4189.743652,4516.666504,4507.94873,4328.589844,4442.307617,0.0,2.0,35.0,,,,0.0,4.0,4.0,4.0,4.0,4.0,4.0,4.0,4.0,4.0,4.0,4.0,4.0,4.0,4.0,100.0,,,,,,,,,,,,,,,,,,,,,,,,,,,,,,,,,,,,,,,,,,,,,,,,,,,,,,,,,,,,,,,,,,,,,,,,,,,,,,,,,,,,,,,,,,,,,,,,,,,,,,,,,,,,,,,,,,,,,,,,,,,,,,,,,,,
1725618206.354111,1725618206.355553,86.0,0.0,4231.153809,4200.769043,4257.307617,4259.230957,4205.128418,4203.205078,4236.410156,4198.333496,4205.512695,4187.436035,4517.692383,4507.820313,4330.0,4443.205078,0.0,2.0,35.0,,,,0.0,4.0,4.0,4.0,4.0,4.0,4.0,4.0,4.0,4.0,4.0,4.0,4.0,4.0,4.0,100.0,,,,,,,,,,,,,,,,,,,,,,,,,,,,,,,,,,,,,,,,,,,,,,,,,,,,,,,,,,,,,,,,,,,,,,,,,,,,,,,,,,,,,,,,,,,,,,,,,,,,,,,,,,,,,,,,,,,,,,,,,,,,,,,,,,,
1725618206.358015,1725618206.359557,87.0,0.0,4231.666504,4204.871582,4257.436035,4259.615234,4207.436035,4202.563965,4234.743652,4201.025879,4205.0,4186.153809,4519.487305,4505.128418,4331.153809,4442.563965,0.0,2.0,35.0,,,,0.0,4.0,4.0,4.0,4.0,4.0,4.0,4.0,4.0,4.0,4.0,4.0,4.0,4.0,4.0,100.0,,,,,,,,,,,,,,,,,,,,,,,,,,,,,,,,,,,,,,,,,,,,,,,,,,,,,,,,,,,,,,,,,,,,,,,,,,,,,,,,,,,,,,,,,,,,,,,,,,,,,,,,,,,,,,,,,,,,,,,,,,,,,,,,,,,
1725618206.361919,1725618206.363461,88.0,0.0,4232.307617,4211.282227,4258.077148,4260.769043,4210.769043,4202.179688,4233.717773,4203.589844,4207.05127,4187.692383,4521.794922,4503.461426,4332.94873,4442.179688,0.0,2.0,35.0,,,,0.0,4.0,4.0,4.0,4.0,4.0,4.0,4.0,4.0,4.0,4.0,4.0,4.0,4.0,4.0,100.0,,,,,,,,,,,,,,,,,,,,,,,,,,,,,,,,,,,,,,,,,,,,,,,,,,,,,,,,,,,,,,,,,,,,,,,,,,,,,,,,,,,,,,,,,,,,,,,,,,,,,,,,,,,,,,,,,,,,,,,,,,,,,,,,,,,
1725618206.365823,1725618206.367365,89.0,0.0,4233.077148,4215.0,4259.743652,4262.563965,4213.461426,4203.077148,4233.333496,4205.897461,4211.025879,4192.307617,4523.974121,4504.743652,4335.128418,4443.077148,0.0,2.0,35.0,,,,0.0,4.0,4.0,4.0,4.0,4.0,4.0,4.0,4.0,4.0,4.0,4.0,4.0,4.0,4.0,100.0,,,,,,,,,,,,,,,,,,,,,,,,,,,,,,,,,,,,,,,,,,,,,,,,,,,,,,,,,,,,,,,,,,,,,,,,,,,,,,,,,,,,,,,,,,,,,,,,,,,,,,,,,,,,,,,,,,,,,,,,,,,,,,,,,,,
1725618206.369727,1725618206.371269,90.0,0.0,4233.846191,4213.205078,4261.666504,4263.717773,4214.102539,4205.512695,4233.333496,4206.153809,4214.871582,4197.692383,4525.0,4507.692383,4336.666504,4444.230957,0.0,2.0,35.0,,,,0.0,4.0,4.0,4.0,4.0,4.0,4.0,4.0,4.0,4.0,4.0,4.0,4.0,4.0,4.0,100.0,,,,,,,,,,,,,,,,,,,,,,,,,,,,,,,,,,,,,,,,,,,,,,,,,,,,,,,,0.0,0.0,1.0,0.0,1.0,0.0,,,,,,,,,,,,,,,,,,,,,,,,,,,,,,,,,,,,,,,,,,,,,,,,,,,,,,,,,,,,,,,,,,,,,,
1725618206.373632,1725618206.375173,91.0,0.0,4233.974121,4207.563965,4262.563965,4263.205078,4212.179688,4207.563965,4233.333496,4203.333496,4216.538574,4200.641113,4524.358887,4509.230957,4336.538574,4443.846191,0.0,2.0,35.0,,,,0.0,4.0,4.0,4.0,4.0,4.0,4.0,4.0,4.0,4.0,4.0,4.0,4.0,4.0,4.0,100.0,,,,,,,,,,,,,,,,,,,,,,,,,,,,,,,,,,,,,,,,,,,,,,,,,,,,,,,,,,,,,,,,,,,,,,,,,,,,,,,,,,,,,,,,,,,,,,,,,,,,,,,,,,,,,,,,,,,,,,,,,,,,,,,,,,,
1725618206.377536,1725618206.378977,92.0,0.0,4233.717773,4202.692383,4262.307617,4261.410156,4208.846191,4207.563965,4233.461426,4199.102539,4215.769043,4200.256348,4522.563965,4507.94873,4335.769043,4441.794922,0.0,2.0,35.0,,,,0.0,4.0,4.0,4.0,4.0,4.0,4.0,4.0,4.0,4.0,4.0,4.0,4.0,4.0,4.0,100.0,,,,,,,,,,,,,,,,,,,,,,,,,,,,,,,,,,,,,,,,,,,,,,,,,,,,,,,,,,,,,,,,,,,,,,,,,,,,,,,,,,,,,,,,,,,,,,,,,,,,,,,,,,,,,,,,,,,,,,,,,,,,,,,,,,,
1725618206.38144,1725618206.382881,93.0,0.0,4233.333496,4202.563965,4261.922852,4259.871582,4205.384766,4205.641113,4233.717773,4197.94873,4214.743652,4198.205078,4521.666504,4505.512695,4336.282227,4440.128418,0.0,2.0,35.0,,,,0.0,4.0,4.0,4.0,4.0,4.0,4.0,4.0,4.0,4.0,4.0,4.0,4.0,4.0,4.0,100.0,,,,,,,,,,,,,,,,,,,,,,,,,,,,,,,,,,,,,,,,,,,,,,,,,,,,,,,,,,,,,,,,,,,,,,,,,,,,,,,,,,,,,,,,,,,,,,,,,,,,,,,,,,,,,,,,,,,,,,,,,,,,,,,,,,,
1725618206.385344,1725618206.386786,94.0,0.0,4233.717773,4206.794922,4261.794922,4260.128418,4203.205078,4203.717773,4233.589844,4203.461426,4215.512695,4197.307617,4523.077148,4505.641113,4338.717773,4440.769043,0.0,2.0,35.0,,,,0.0,4.0,4.0,4.0,4.0,4.0,4.0,4.0,4.0,4.0,4.0,4.0,4.0,4.0,4.0,100.0,,,,,,,,,,,,,,,,,,,,,,,,,,,,,,,,,,,,,,,,,,,,,,,,,,,,,,,,,,,,,,,,,,,,,,,,,,,,,,,,,,,,,,,,,,,,,,,,,,,,,,,,,,,,,,,,,,,,,,,,,,,,,,,,,,,
1725618206.389248,1725618206.39069,95.0,0.0,4234.743652,4211.922852,4261.538574,4261.922852,4202.820313,4203.974121,4232.563965,4213.846191,4218.333496,4198.717773,4526.282227,4509.230957,4341.922852,4443.333496,0.0,2.0,35.0,,,,0.0,4.0,4.0,4.0,4.0,4.0,4.0,4.0,4.0,4.0,4.0,4.0,4.0,4.0,4.0,100.0,,,,,,,,,,,,,,,,,,,,,,,,,,,,,,,,,,,,,,,,,,,,,,,,,,,,,,,,,,,,,,,,,,,,,,,,,,,,,,,,,,,,,,,,,,,,,,,,,,,,,,,,,,,,,,,,,,,,,,,,,,,,,,,,,,,
1725618206.393152,1725618206.394494,96.0,0.0,4235.128418,4213.461426,4259.743652,4263.205078,4202.94873,4206.922852,4230.128418,4221.282227,4220.769043,4200.641113,4527.94873,4512.307617,4343.077148,4445.0,0.0,2.0,35.0,,,,0.0,4.0,4.0,4.0,4.0,4.0,4.0,4.0,4.0,4.0,4.0,4.0,4.0,4.0,4.0,100.0,,,,,,,,,,,,,,,,,,,,,,,,,,,,,,,,,,,,,,,,,,,,,,,,,,,,,,,,,,,,,,,,,,,,,,,,,,,,,,,,,,,,,,,,,,,,,,,,,,,,,,,,,,,,,,,,,,,,,,,,,,,,,,,,,,,
1725618206.397056,1725618206.398398,97.0,0.0,4233.205078,4209.743652,4255.512695,4261.922852,4202.563965,4210.384766,4226.410156,4217.94873,4219.487305,4200.256348,4524.102539,4509.615234,4340.512695,4442.820313,0.0,2.0,35.0,,,,0.0,4.0,4.0,4.0,4.0,4.0,4.0,4.0,4.0,4.0,4.0,4.0,4.0,4.0,4.0,100.0,,,,,,,,,,,,,,,,,,,,,,,,,,,,,,,,,,,,,,,,,,,,,,,,,,,,,,,,,,,,,,,,,,,,,,,,,,,,,,,,,,,,,,,,,,,,,,,,,,,,,,,,,,,,,,,,,,,,,,,,,,,,,,,,,,,
1725618206.40096,1725618206.402302,98.0,0.0,4228.589844,4203.205078,4249.358887,4257.820313,4201.153809,4211.666504,4222.820313,4202.05127,4213.589844,4196.282227,4514.487305,4498.974121,4334.487305,4436.153809,0.0,2.0,35.0,,,,0.0,4.0,4.0,4.0,4.0,4.0,4.0,4.0,4.0,4.0,4.0,4.0,4.0,4.0,4.0,100.0,,,,,,,,,,,,,,,,,1.0,0.0,0.0,,,,,,,,,,,,,,,,,,,,,,,,,,,,,,,,,,,,,0.0,0.0,64.0,0.029477,1.0,0.0,2.810004,1.308146,0.802992,0.355524,0.104302,1.153301,1.146122,0.580556,0.357223,0.061057,1.934372,0.994722,0.625695,0.261706,0.11425,1.363731,1.248562,0.556965,0.263423,0.157257,0.854673,0.53183,0.17328,0.166515,0.077663,0.239192,0.24695,0.300312,0.154526,0.075635,0.64335,0.351084,0.171456,0.117421,0.051251,1.105962,1.993933,1.157129,0.433935,0.459352,1.003534,1.184673,0.755354,0.245493,0.132591,2.376866,0.994933,0.818137,0.424596,0.122514,2.770561,1.90407,1.235228,0.563911,0.403447,3.690258,1.578948,1.189923,0.617877,0.257312,3.75408,1.613891,0.810875,0.365888,0.104973,3.718993,1.795814,0.695375,0.476971,0.111994
1725618206.404864,1725618206.406206,99.0,0.0,4222.820313,4198.461426,4243.589844,4252.820313,4199.615234,4209.358887,4220.256348,4180.641113,4205.769043,4190.256348,4502.692383,4485.0,4327.820313,4427.94873,0.0,2.0,35.0,,,,0.0,4.0,4.0,4.0,4.0,4.0,4.0,4.0,4.0,4.0,4.0,4.0,4.0,4.0,4.0,100.0,,,,,,,,,,,,,,,,,,,,,,,,,,,,,,,,,,,,,,,,,,,,,,,,,,,,,,,,,,,,,,,,,,,,,,,,,,,,,,,,,,,,,,,,,,,,,,,,,,,,,,,,,,,,,,,,,,,,,,,,,,,,,,,,,,,
1725618206.408769,1725618206.41001,100.0,0.0,4218.333496,4197.692383,4241.153809,4249.358887,4199.102539,4204.615234,4219.230957,4164.487305,4200.384766,4185.769043,4494.102539,4475.384766,4323.461426,4422.436035,0.0,2.0,35.0,,,,0.0,4.0,4.0,4.0,4.0,4.0,4.0,4.0,4.0,4.0,4.0,4.0,4.0,4.0,4.0,100.0,,,,,,,,,,,,,,,,,,,,,,,,,,,,,,,,,,,,,,,,,,,,,,,,,,,,,,,,,,,,,,,,,,,,,,,,,,,,,,,,,,,,,,,,,,,,,,,,,,,,,,,,,,,,,,,,,,,,,,,,,,,,,,,,,,,
1725618206.412673,1725618206.413914,101.0,0.0,4216.538574,4199.743652,4242.563965,4248.461426,4200.0,4200.897461,4219.102539,4161.666504,4199.230957,4184.487305,4492.436035,4475.256348,4323.077148,4421.794922,0.0,2.0,35.0,,,,0.0,4.0,4.0,4.0,4.0,4.0,4.0,4.0,4.0,4.0,4.0,4.0,4.0,4.0,4.0,100.0,,,,,,,,,,,,,,,,,,,,,,,,,,,,,,,,,,,,,,,,,,,,,,,,,,,,,,,,,,,,,,,,,,,,,,,,,,,,,,,,,,,,,,,,,,,,,,,,,,,,,,,,,,,,,,,,,,,,,,,,,,,,,,,,,,,
1725618206.416577,1725618206.417819,102.0,0.0,4217.05127,4202.179688,4245.897461,4249.871582,4200.769043,4200.256348,4218.974121,4171.282227,4201.025879,4185.769043,4497.563965,4482.692383,4326.025879,4424.743652,0.0,2.0,35.0,,,,0.0,4.0,4.0,4.0,4.0,4.0,4.0,4.0,4.0,4.0,4.0,4.0,4.0,4.0,4.0,100.0,,,,,,,,,,,,,,,,,,,,,,,,,,,,,,,,,,,,,,,,,,,,,,,,,,,,,,,,,,,,,,,,,,,,,,,,,,,,,,,,,,,,,,,,,,,,,,,,,,,,,,,,,,,,,,,,,,,,,,,,,,,,,,,,,,,
1725618206.420481,1725618206.421823,103.0,0.0,4218.333496,4203.205078,4248.589844,4251.410156,4199.487305,4202.179688,4218.205078,4185.384766,4202.94873,4187.307617,4505.512695,4491.153809,4329.743652,4427.94873,0.0,2.0,35.0,,,,0.0,4.0,4.0,4.0,4.0,4.0,4.0,4.0,4.0,4.0,4.0,4.0,4.0,4.0,4.0,100.0,,,,,,,,,,,,,,,,,,,,,,,,,,,,,,,,,,,,,,,,,,,,,,,,,,,,,,,,,,,,,,,,,,,,,,,,,,,,,,,,,,,,,,,,,,,,,,,,,,,,,,,,,,,,,,,,,,,,,,,,,,,,,,,,,,,
1725618206.424385,1725618206.425727,104.0,0.0,4218.589844,4202.820313,4249.358887,4251.282227,4195.128418,4203.846191,4217.307617,4195.512695,4203.205078,4187.563965,4510.512695,4494.743652,4332.179688,4428.589844,0.0,2.0,35.0,,,,0.0,4.0,4.0,4.0,4.0,4.0,4.0,4.0,4.0,4.0,4.0,4.0,4.0,4.0,4.0,100.0,,,,,,,,,,,,,,,,,,,,,,,,,,,,,,,,,,,,,,,,,,,,,,,,,,,,,,,,,,,,,,,,,,,,,,,,,,,,,,,,,,,,,,,,,,,,,,,,,,,,,,,,,,,,,,,,,,,,,,,,,,,,,,,,,,,
1725618206.428289,1725618206.429631,105.0,0.0,4218.205078,4201.282227,4248.717773,4250.0,4188.974121,4203.205078,4216.666504,4198.846191,4202.563965,4187.307617,4509.358887,4493.077148,4333.461426,4426.794922,0.0,2.0,35.0,,,,0.0,4.0,4.0,4.0,4.0,4.0,4.0,4.0,4.0,4.0,4.0,4.0,4.0,4.0,4.0,100.0,,,,,,,,,,,,,,,,,,,,,,,,,,,,,,,,,,,,,,,,,,,,,,,,,,,,,,,,,,,,,,,,,,,,,,,,,,,,,,,,,,,,,,,,,,,,,,,,,,,,,,,,,,,,,,,,,,,,,,,,,,,,,,,,,,,
1725618206.432193,1725618206.433535,106.0,0.0,4218.974121,4198.974121,4247.692383,4248.974121,4184.102539,4200.384766,4216.922852,4197.820313,4202.820313,4188.461426,4504.358887,4490.256348,4335.256348,4425.384766,0.0,2.0,35.0,,,,0.0,4.0,4.0,4.0,4.0,4.0,4.0,4.0,4.0,4.0,4.0,4.0,4.0,4.0,4.0,100.0,,,,,,,,,,,,,,,,,,,,,,,,,,,,,,,,,,,,,,,,,,,,,,,,,,,,,,,,0.0,0.0,64.0,0.029477,1.0,0.0,,,,,,,,,,,,,,,,,,,,,,,,,,,,,,,,,,,,,,,,,,,,,,,,,,,,,,,,,,,,,,,,,,,,,,
1725618206.436097,1725618206.437539,107.0,0.0,4222.05127,4195.897461,4247.436035,4249.487305,4183.333496,4197.94873,4217.820313,4197.563965,4205.256348,4192.179688,4501.410156,4491.282227,4339.102539,4426.538574,0.0,2.0,35.0,,,,0.0,4.0,4.0,4.0,4.0,4.0,4.0,4.0,4.0,4.0,4.0,4.0,4.0,4.0,4.0,100.0,,,,,,,,,,,,,,,,,,,,,,,,,,,,,,,,,,,,,,,,,,,,,,,,,,,,,,,,,,,,,,,,,,,,,,,,,,,,,,,,,,,,,,,,,,,,,,,,,,,,,,,,,,,,,,,,,,,,,,,,,,,,,,,,,,,
1725618206.440001,1725618206.441443,108.0,0.0,4226.922852,4193.205078,4248.205078,4250.641113,4186.794922,4198.333496,4218.461426,4199.871582,4209.615234,4197.692383,4505.128418,4496.922852,4344.358887,4430.0,0.0,2.0,35.0,,,,0.0,4.0,4.0,4.0,4.0,4.0,4.0,4.0,4.0,4.0,4.0,4.0,4.0,4.0,4.0,100.0,,,,,,,,,,,,,,,,,,,,,,,,,,,,,,,,,,,,,,,,,,,,,,,,,,,,,,,,,,,,,,,,,,,,,,,,,,,,,,,,,,,,,,,,,,,,,,,,,,,,,,,,,,,,,,,,,,,,,,,,,,,,,,,,,,,
1725618206.443905,1725618206.445347,109.0,0.0,4230.512695,4192.179688,4249.358887,4251.153809,4192.436035,4201.153809,4218.589844,4203.205078,4213.846191,4202.820313,4514.230957,4504.102539,4348.461426,4433.205078,0.0,2.0,35.0,,,,0.0,4.0,4.0,4.0,4.0,4.0,4.0,4.0,4.0,4.0,4.0,4.0,4.0,4.0,4.0,100.0,,,,,,,,,,,,,,,,,,,,,,,,,,,,,,,,,,,,,,,,,,,,,,,,,,,,,,,,,,,,,,,,,,,,,,,,,,,,,,,,,,,,,,,,,,,,,,,,,,,,,,,,,,,,,,,,,,,,,,,,,,,,,,,,,,,
1725618206.44781,1725618206.449251,110.0,0.0,4231.025879,4193.589844,4250.0,4250.384766,4196.666504,4204.358887,4218.205078,4204.615234,4216.410156,4205.641113,4522.692383,4508.205078,4349.487305,4433.974121,0.0,2.0,35.0,,,,0.0,4.0,4.0,4.0,4.0,4.0,4.0,4.0,4.0,4.0,4.0,4.0,4.0,4.0,4.0,100.0,,,,,,,,,,,,,,,,,,,,,,,,,,,,,,,,,,,,,,,,,,,,,,,,,,,,,,,,,,,,,,,,,,,,,,,,,,,,,,,,,,,,,,,,,,,,,,,,,,,,,,,,,,,,,,,,,,,,,,,,,,,,,,,,,,,
1725618206.451714,1725618206.453155,111.0,0.0,4228.717773,4196.410156,4250.256348,4249.743652,4198.077148,4205.769043,4217.820313,4203.461426,4216.410156,4205.769043,4525.128418,4507.05127,4347.820313,4432.307617,0.0,2.0,35.0,,,,0.0,4.0,4.0,4.0,4.0,4.0,4.0,4.0,4.0,4.0,4.0,4.0,4.0,4.0,4.0,100.0,,,,,,,,,,,,,,,,,,,,,,,,,,,,,,,,,,,,,,,,,,,,,,,,,,,,,,,,,,,,,,,,,,,,,,,,,,,,,,,,,,,,,,,,,,,,,,,,,,,,,,,,,,,,,,,,,,,,,,,,,,,,,,,,,,,
1725618206.455618,1725618206.45696,112.0,0.0,4226.153809,4198.717773,4250.256348,4251.025879,4197.05127,4205.128418,4218.205078,4201.794922,4215.256348,4204.871582,4520.256348,4503.333496,4345.897461,4430.0,0.0,2.0,35.0,,,,0.0,4.0,4.0,4.0,4.0,4.0,4.0,4.0,4.0,4.0,4.0,4.0,4.0,4.0,4.0,100.0,,,,,,,,,,,,,,,,,,,,,,,,,,,,,,,,,,,,,,,,,,,,,,,,,,,,,,,,,,,,,,,,,,,,,,,,,,,,,,,,,,,,,,,,,,,,,,,,,,,,,,,,,,,,,,,,,,,,,,,,,,,,,,,,,,,
1725618206.459522,1725618206.460864,113.0,0.0,4226.025879,4199.615234,4250.384766,4255.0,4195.512695,4204.487305,4218.974121,4201.666504,4214.615234,4204.230957,4511.922852,4502.179688,4345.0,4428.974121,0.0,2.0,35.0,,,,0.0,4.0,4.0,4.0,4.0,4.0,4.0,4.0,4.0,4.0,4.0,4.0,4.0,4.0,4.0,100.0,,,,,,,,,,,,,,,,,,,,,,,,,,,,,,,,,,,,,,,,,,,,,,,,,,,,,,,,,,,,,,,,,,,,,,,,,,,,,,,,,,,,,,,,,,,,,,,,,,,,,,,,,,,,,,,,,,,,,,,,,,,,,,,,,,,
1725618206.463426,1725618206.464868,114.0,0.0,4228.717773,4199.358887,4250.769043,4259.743652,4195.384766,4205.512695,4219.743652,4203.077148,4215.0,4204.358887,4504.743652,4505.641113,4344.358887,4429.358887,0.0,2.0,35.0,,,,0.0,4.0,4.0,4.0,4.0,4.0,4.0,4.0,4.0,4.0,4.0,4.0,4.0,4.0,4.0,100.0,,,,,,,,,,,,,,,,,,,,,,,,,,,,,,,,,,,,,,,,,,,,,,,,,,,,,,,,0.0,0.0,64.0,0.029477,1.0,0.0,,,,,,,,,,,,,,,,,,,,,,,,,,,,,,,,,,,,,,,,,,,,,,,,,,,,,,,,,,,,,,,,,,,,,,
1725618206.46733,1725618206.468772,115.0,0.0,4231.922852,4199.230957,4251.153809,4262.179688,4197.05127,4208.461426,4219.871582,4203.974121,4215.128418,4203.974121,4501.794922,4510.512695,4342.179688,4430.0,0.0,2.0,35.0,,,,0.0,4.0,4.0,4.0,4.0,4.0,4.0,4.0,4.0,4.0,4.0,4.0,4.0,4.0,4.0,100.0,,,,,,,,,,,,,,,,,,,,,,,,,,,,,,,,,,,,,,,,,,,,,,,,,,,,,,,,,,,,,,,,,,,,,,,,,,,,,,,,,,,,,,,,,,,,,,,,,,,,,,,,,,,,,,,,,,,,,,,,,,,,,,,,,,,
1725618206.471234,1725618206.472676,116.0,0.0,4233.205078,4199.102539,4251.025879,4260.0,4199.102539,4211.794922,4219.743652,4203.333496,4214.230957,4202.307617,4502.436035,4511.794922,4337.563965,4429.615234,0.0,2.0,35.0,,,,0.0,4.0,4.0,4.0,4.0,4.0,4.0,4.0,4.0,4.0,4.0,4.0,4.0,4.0,4.0,100.0,,,,,,,,,,,,,,,,,,,,,,,,,,,,,,,,,,,,,,,,,,,,,,,,,,,,,,,,,,,,,,,,,,,,,,,,,,,,,,,,,,,,,,,,,,,,,,,,,,,,,,,,,,,,,,,,,,,,,,,,,,,,,,,,,,,
1725618206.475138,1725618206.47658,117.0,0.0,4231.922852,4198.333496,4250.384766,4254.358887,4200.256348,4214.358887,4219.487305,4201.410156,4212.307617,4199.615234,4504.487305,4507.179688,4332.820313,4428.077148,0.0,2.0,35.0,,,,0.0,4.0,4.0,4.0,4.0,4.0,4.0,4.0,4.0,4.0,4.0,4.0,4.0,4.0,4.0,100.0,,,,,,,,,,,,,,,,,,,,,,,,,,,,,,,,,,,,,,,,,,,,,,,,,,,,,,,,,,,,,,,,,,,,,,,,,,,,,,,,,,,,,,,,,,,,,,,,,,,,,,,,,,,,,,,,,,,,,,,,,,,,,,,,,,,
1725618206.479042,1725618206.480484,118.0,0.0,4229.487305,4195.769043,4249.487305,4248.717773,4200.0,4215.256348,4219.487305,4199.358887,4211.025879,4197.179688,4506.025879,4499.358887,4330.897461,4426.410156,0.0,2.0,35.0,,,,0.0,4.0,4.0,4.0,4.0,4.0,4.0,4.0,4.0,4.0,4.0,4.0,4.0,4.0,4.0,100.0,,,,,,,,,,,,,,,,,,,,,,,,,,,,,,,,,,,,,,,,,,,,,,,,,,,,,,,,,,,,,,,,,,,,,,,,,,,,,,,,,,,,,,,,,,,,,,,,,,,,,,,,,,,,,,,,,,,,,,,,,,,,,,,,,,,
1725618206.482947,1725618206.484288,119.0,0.0,4228.205078,4191.794922,4249.358887,4246.922852,4199.102539,4215.0,4219.487305,4197.94873,4211.538574,4196.282227,4506.410156,4493.333496,4333.974121,4425.769043,0.0,2.0,35.0,,,,0.0,4.0,4.0,4.0,4.0,4.0,4.0,4.0,4.0,4.0,4.0,4.0,4.0,4.0,4.0,100.0,,,,,,,,,,,,,,,,,,,,,,,,,,,,,,,,,,,,,,,,,,,,,,,,,,,,,,,,,,,,,,,,,,,,,,,,,,,,,,,,,,,,,,,,,,,,,,,,,,,,,,,,,,,,,,,,,,,,,,,,,,,,,,,,,,,
1725618206.486851,1725618206.488192,120.0,0.0,4228.846191,4188.077148,4250.256348,4250.384766,4198.589844,4214.487305,4219.615234,4197.307617,4213.717773,4197.307617,4506.410156,4493.077148,4341.282227,4426.922852,0.0,2.0,35.0,,,,0.0,4.0,4.0,4.0,4.0,4.0,4.0,4.0,4.0,4.0,4.0,4.0,4.0,4.0,4.0,100.0,,,,,,,,,,,,,,,,,,,,,,,,,,,,,,,,,,,,,,,,,,,,,,,,,,,,,,,,,,,,,,,,,,,,,,,,,,,,,,,,,,,,,,,,,,,,,,,,,,,,,,,,,,,,,,,,,,,,,,,,,,,,,,,,,,,
1725618206.490755,1725618206.492096,121.0,0.0,4230.641113,4186.025879,4251.282227,4256.922852,4198.589844,4214.487305,4219.743652,4198.205078,4216.282227,4199.487305,4506.922852,4498.461426,4349.230957,4429.102539,0.0,2.0,35.0,,,,0.0,4.0,4.0,4.0,4.0,4.0,4.0,4.0,4.0,4.0,4.0,4.0,4.0,4.0,4.0,100.0,,,,,,,,,,,,,,,,,,,,,,,,,,,,,,,,,,,,,,,,,,,,,,,,,,,,,,,,,,,,,,,,,,,,,,,,,,,,,,,,,,,,,,,,,,,,,,,,,,,,,,,,,,,,,,,,,,,,,,,,,,,,,,,,,,,
1725618206.494659,1725618206.496001,122.0,0.0,4231.922852,4186.410156,4251.794922,4262.820313,4198.974121,4215.128418,4219.615234,4200.897461,4217.436035,4201.153809,4508.077148,4506.025879,4353.717773,4430.769043,0.0,2.0,35.0,,,,0.0,4.0,4.0,4.0,4.0,4.0,4.0,4.0,4.0,4.0,4.0,4.0,4.0,4.0,4.0,100.0,,,,,,,,,,,,,,,,,,,,,,,,,,,,,,,,,,,,,,,,,,,,,,,,,,,,,,,,0.0,0.0,64.0,0.029477,1.0,0.0,,,,,,,,,,,,,,,,,,,,,,,,,,,,,,,,,,,,,,,,,,,,,,,,,,,,,,,,,,,,,,,,,,,,,,
1725618206.498563,1725618206.499805,123.0,0.0,4231.794922,4187.94873,4251.410156,4264.230957,4199.102539,4215.512695,4219.230957,4204.358887,4216.666504,4201.538574,4508.974121,4511.153809,4353.205078,4430.769043,0.0,2.0,35.0,,,,0.0,4.0,4.0,4.0,4.0,4.0,4.0,4.0,4.0,4.0,4.0,4.0,4.0,4.0,4.0,100.0,,,,,,,,,,,,,,,,,,,,,,,,,,,,,,,,,,,,,,,,,,,,,,,,,,,,,,,,,,,,,,,,,,,,,,,,,,,,,,,,,,,,,,,,,,,,,,,,,,,,,,,,,,,,,,,,,,,,,,,,,,,,,,,,,,,
1725618206.502467,1725618206.503709,124.0,0.0,4230.641113,4189.102539,4251.025879,4260.128418,4198.974121,4215.256348,4218.589844,4206.538574,4214.871582,4200.384766,4508.077148,4511.794922,4349.230957,4429.358887,0.0,2.0,35.0,,,,0.0,4.0,4.0,4.0,4.0,4.0,4.0,4.0,4.0,4.0,4.0,4.0,4.0,4.0,4.0,100.0,,,,,,,,,,,,,,,,,,,,,,,,,,,,,,,,,,,,,,,,,,,,,,,,,,,,,,,,,,,,,,,,,,,,,,,,,,,,,,,,,,,,,,,,,,,,,,,,,,,,,,,,,,,,,,,,,,,,,,,,,,,,,,,,,,,
1725618206.506371,1725618206.507613,125.0,0.0,4229.615234,4188.846191,4251.410156,4253.077148,4198.846191,4214.743652,4217.692383,4206.538574,4213.589844,4198.461426,4505.641113,4509.102539,4344.871582,4427.563965,0.0,2.0,35.0,,,,0.0,4.0,4.0,4.0,4.0,4.0,4.0,4.0,4.0,4.0,4.0,4.0,4.0,4.0,4.0,100.0,,,,,,,,,,,,,,,,,,,,,,,,,,,,,,,,,,,,,,,,,,,,,,,,,,,,,,,,,,,,,,,,,,,,,,,,,,,,,,,,,,,,,,,,,,,,,,,,,,,,,,,,,,,,,,,,,,,,,,,,,,,,,,,,,,,
1725618206.510275,1725618206.511617,126.0,0.0,4229.871582,4187.307617,4253.205078,4247.179688,4198.846191,4215.0,4217.179688,4204.743652,4213.589844,4197.05127,4503.077148,4506.025879,4342.436035,4426.666504,0.0,2.0,35.0,,,,0.0,4.0,4.0,4.0,4.0,4.0,4.0,4.0,4.0,4.0,4.0,4.0,4.0,4.0,4.0,100.0,,,,,,,,,,,,,,,,,,,,,,,,,,,,,,,,,,,,,,,,,,,,,,,,,,,,,,,,,,,,,,,,,,,,,,,,,,,,,,,,,,,,,,,,,,,,,,,,,,,,,,,,,,,,,,,,,,,,,,,,,,,,,,,,,,,
1725618206.514179,1725618206.515521,127.0,0.0,4230.769043,4185.384766,4256.025879,4245.512695,4198.846191,4216.025879,4217.179688,4202.820313,4214.871582,4196.922852,4502.436035,4504.871582,4342.179688,4427.179688,0.0,2.0,35.0,,,,0.0,4.0,4.0,4.0,4.0,4.0,4.0,4.0,4.0,4.0,4.0,4.0,4.0,4.0,4.0,100.0,,,,,,,,,,,,,,,,,,,,,,,,,,,,,,,,,,,,,,,,,,,,,,,,,,,,,,,,,,,,,,,,,,,,,,,,,,,,,,,,,,,,,,,,,,,,,,,,,,,,,,,,,,,,,,,,,,,,,,,,,,,,,,,,,,,
1725618206.518083,1725618206.519425,128.0,0.0,4231.538574,4183.974121,4258.589844,4248.461426,4198.846191,4216.922852,4217.692383,4201.922852,4216.538574,4198.333496,4503.846191,4506.282227,4343.333496,4428.974121,2616.0,2.0,35.0,,,,0.0,4.0,4.0,4.0,4.0,4.0,4.0,4.0,4.0,4.0,4.0,4.0,4.0,4.0,4.0,100.0,,,,,,,,,,,,,,,,,,,,,,,,,,,,,,,,,,,,,,,,,,,,,,,,,,,,,,,,,,,,,,,,,,,,,,,,,,,,,,,,,,,,,,,,,,,,,,,,,,,,,,,,,,,,,,,,,,,,,,,,,,,,,,,,,,,
1725618206.521988,1725618206.523329,129.0,0.0,4231.666504,4184.102539,4260.512695,4254.102539,4198.846191,4216.410156,4218.205078,4202.436035,4217.307617,4200.0,4505.897461,4509.102539,4345.512695,4431.410156,2568.0,2.0,35.0,,,,0.0,4.0,4.0,4.0,4.0,4.0,4.0,4.0,4.0,4.0,4.0,4.0,4.0,4.0,4.0,100.0,,,,,,,,,,,,,,,,,,,,,,,,,,,,,,,,,,,,,,,,,,,,,,,,,,,,,,,,,,,,,,,,,,,,,,,,,,,,,,,,,,,,,,,,,,,,,,,,,,,,,,,,,,,,,,,,,,,,,,,,,,,,,,,,,,,
1725618206.525892,1725618206.527333,130.0,0.0,4231.922852,4186.538574,4261.538574,4259.102539,4198.717773,4214.743652,4218.077148,4203.333496,4217.05127,4201.153809,4507.179688,4511.538574,4348.974121,4433.205078,2458.0,2.0,35.0,,,,0.0,4.0,4.0,4.0,4.0,4.0,4.0,4.0,4.0,4.0,4.0,4.0,4.0,4.0,4.0,100.0,,,,,,,,,,,,,,,,,1.0,0.0,0.0,,,,,,,,,,,,,,,,,,,,,,,,,,,,,,,,,,,,,0.0,0.0,1.0,0.0,1024.0,0.206396,2.385161,1.582332,0.759621,0.418542,0.11088,0.920141,1.501781,0.615586,0.418821,0.067185,1.452384,1.189817,0.624123,0.332833,0.136169,0.929225,1.542375,0.561333,0.338351,0.177842,0.685225,0.530164,0.181724,0.20182,0.098816,0.220978,0.245784,0.272765,0.154387,0.085302,0.5323,0.36508,0.166301,0.124471,0.05587,1.188022,2.479262,1.390028,0.530993,0.562526,0.863481,1.426322,0.741804,0.291914,0.146615,2.179672,1.291455,0.667913,0.455793,0.138706,2.317878,2.589396,1.372759,0.744258,0.427179,3.240845,2.182745,1.406966,0.760885,0.305874,4.374255,2.105871,0.855698,0.491259,0.120867,3.395624,2.289604,0.636592,0.618781,0.130655
1725618206.529796,1725618206.531237,131.0,0.0,4232.820313,4191.153809,4262.307617,4261.410156,4198.717773,4212.94873,4217.05127,4203.461426,4216.410156,4201.538574,4507.05127,4512.05127,4353.333496,4433.333496,2463.0,2.0,35.0,,,,0.0,4.0,4.0,4.0,4.0,4.0,4.0,4.0,4.0,4.0,4.0,4.0,4.0,4.0,4.0,100.0,,,,,,,,,,,,,,,,,,,,,,,,,,,,,,,,,,,,,,,,,,,,,,,,,,,,,,,,,,,,,,,,,,,,,,,,,,,,,,,,,,,,,,,,,,,,,,,,,,,,,,,,,,,,,,,,,,,,,,,,,,,,,,,,,,,
1725618206.5337,1725618206.535142,132.0,0.0,4233.974121,4196.410156,4262.94873,4260.512695,4198.589844,4211.794922,4215.897461,4201.922852,4216.410156,4201.538574,4506.282227,4510.384766,4357.563965,4432.179688,2428.0,2.0,35.0,,,,0.0,4.0,4.0,4.0,4.0,4.0,4.0,4.0,4.0,4.0,4.0,4.0,4.0,4.0,4.0,100.0,,,,,,,,,,,,,,,,,,,,,,,,,,,,,,,,,,,,,,,,,,,,,,,,,,,,,,,,,,,,,,,,,,,,,,,,,,,,,,,,,,,,,,,,,,,,,,,,,,,,,,,,,,,,,,,,,,,,,,,,,,,,,,,,,,,
1725618206.537604,1725618206.539146,133.0,0.0,4234.358887,4200.0,4263.461426,4258.333496,4198.589844,4211.666504,4215.769043,4199.487305,4216.922852,4201.410156,4505.769043,4507.692383,4359.743652,4430.769043,2393.0,2.0,35.0,,,,0.0,4.0,4.0,4.0,4.0,4.0,4.0,4.0,4.0,4.0,4.0,4.0,4.0,4.0,4.0,100.0,,,,,,,,,,,,,,,,,,,,,,,,,,,,,,,,,,,,,,,,,,,,,,,,,,,,,,,,,,,,,,,,,,,,,,,,,,,,,,,,,,,,,,,,,,,,,,,,,,,,,,,,,,,,,,,,,,,,,,,,,,,,,,,,,,,
1725618206.541508,1725618206.54305,134.0,0.0,4233.974121,4200.641113,4263.333496,4257.436035,4198.717773,4212.307617,4216.794922,4197.05127,4217.05127,4201.410156,4505.641113,4505.641113,4359.358887,4430.897461,2187.0,2.0,35.0,,,,0.0,4.0,4.0,4.0,4.0,4.0,4.0,4.0,4.0,4.0,4.0,4.0,4.0,4.0,4.0,100.0,,,,,,,,,,,,,,,,,,,,,,,,,,,,,,,,,,,,,,,,,,,,,,,,,,,,,,,,,,,,,,,,,,,,,,,,,,,,,,,,,,,,,,,,,,,,,,,,,,,,,,,,,,,,,,,,,,,,,,,,,,,,,,,,,,,
1725618206.545412,1725618206.546954,135.0,0.0,4233.461426,4198.589844,4262.563965,4258.974121,4198.846191,4213.461426,4218.333496,4195.769043,4215.512695,4201.153809,4505.384766,4506.282227,4357.307617,4433.205078,2494.0,2.0,35.0,,,,0.0,4.0,4.0,4.0,4.0,4.0,4.0,4.0,4.0,4.0,4.0,4.0,4.0,4.0,4.0,100.0,,,,,,,,,,,,,,,,,,,,,,,,,,,,,,,,,,,,,,,,,,,,,,,,,,,,,,,,,,,,,,,,,,,,,,,,,,,,,,,,,,,,,,,,,,,,,,,,,,,,,,,,,,,,,,,,,,,,,,,,,,,,,,,,,,,
1725618206.549316,1725618206.550858,136.0,0.0,4234.102539,4196.025879,4261.282227,4261.538574,4198.717773,4214.358887,4219.102539,4195.769043,4212.820313,4201.153809,4504.487305,4510.256348,4355.256348,4437.05127,2481.0,2.0,35.0,,,,0.0,4.0,4.0,4.0,4.0,4.0,4.0,4.0,4.0,4.0,4.0,4.0,4.0,4.0,4.0,100.0,,,,,,,,,,,,,,,,,,,,,,,,,,,,,,,,,,,,,,,,,,,,,,,,,,,,,,,,,,,,,,,,,,,,,,,,,,,,,,,,,,,,,,,,,,,,,,,,,,,,,,,,,,,,,,,,,,,,,,,,,,,,,,,,,,,
1725618206.55322,1725618206.554762,137.0,0.0,4236.922852,4194.871582,4260.641113,4263.333496,4198.461426,4214.743652,4218.589844,4196.666504,4210.769043,4201.794922,4503.717773,4517.05127,4355.0,4440.769043,2560.0,2.0,35.0,,,,0.0,4.0,4.0,4.0,4.0,4.0,4.0,4.0,4.0,4.0,4.0,4.0,4.0,4.0,4.0,100.0,,,,,,,,,,,,,,,,,,,,,,,,,,,,,,,,,,,,,,,,,,,,,,,,,,,,,,,,,,,,,,,,,,,,,,,,,,,,,,,,,,,,,,,,,,,,,,,,,,,,,,,,,,,,,,,,,,,,,,,,,,,,,,,,,,,
1725618206.557125,1725618206.558566,138.0,0.0,4241.538574,4195.897461,4261.538574,4263.846191,4198.205078,4214.487305,4217.05127,4197.94873,4210.641113,4202.94873,4503.974121,4523.846191,4357.179688,4443.205078,2900.0,2.0,35.0,,,,0.0,4.0,4.0,4.0,4.0,4.0,4.0,4.0,4.0,4.0,4.0,4.0,4.0,4.0,4.0,100.0,,,,,,,,,,,,,,,,,,,,,,,,,,,,,,,,,,,,,,,,,,,,,,,,,,,,,,,,0.0,0.0,1.0,0.0,1024.0,0.206396,,,,,,,,,,,,,,,,,,,,,,,,,,,,,,,,,,,,,,,,,,,,,,,,,,,,,,,,,,,,,,,,,,,,,,
1725618206.561029,1725618206.56247,139.0,0.0,4246.794922,4198.589844,4263.846191,4264.102539,4198.589844,4213.974121,4215.512695,4198.974121,4212.563965,4204.487305,4506.538574,4527.307617,4361.538574,4444.102539,3071.0,2.0,35.0,,,,0.0,4.0,4.0,4.0,4.0,4.0,4.0,4.0,4.0,4.0,4.0,4.0,4.0,4.0,4.0,100.0,,,,,,,,,,,,,,,,,,,,,,,,,,,,,,,,,,,,,,,,,,,,,,,,,,,,,,,,,,,,,,,,,,,,,,,,,,,,,,,,,,,,,,,,,,,,,,,,,,,,,,,,,,,,,,,,,,,,,,,,,,,,,,,,,,,
1725618206.564933,1725618206.566374,140.0,0.0,4250.512695,4201.410156,4266.538574,4265.384766,4199.615234,4213.589844,4215.256348,4199.871582,4214.358887,4205.384766,4510.897461,4526.410156,4366.282227,4444.102539,3441.0,2.0,35.0,,,,0.0,4.0,4.0,4.0,4.0,4.0,4.0,4.0,4.0,4.0,4.0,4.0,4.0,4.0,4.0,100.0,,,,,,,,,,,,,,,,,,,,,,,,,,,,,,,,,,,,,,,,,,,,,,,,,,,,,,,,,,,,,,,,,,,,,,,,,,,,,,,,,,,,,,,,,,,,,,,,,,,,,,,,,,,,,,,,,,,,,,,,,,,,,,,,,,,
1725618206.568837,1725618206.570378,141.0,0.0,4251.794922,4202.692383,4268.333496,4268.205078,4201.025879,4213.717773,4216.282227,4200.512695,4213.846191,4204.871582,4514.743652,4522.820313,4369.102539,4444.102539,3882.0,2.0,35.0,,,,0.0,4.0,4.0,4.0,4.0,4.0,4.0,4.0,4.0,4.0,4.0,4.0,4.0,4.0,4.0,100.0,,,,,,,,,,,,,,,,,,,,,,,,,,,,,,,,,,,,,,,,,,,,,,,,,,,,,,,,,,,,,,,,,,,,,,,,,,,,,,,,,,,,,,,,,,,,,,,,,,,,,,,,,,,,,,,,,,,,,,,,,,,,,,,,,,,
1725618206.572741,1725618206.574282,142.0,0.0,4250.641113,4201.794922,4268.461426,4271.666504,4202.179688,4214.230957,4218.205078,4200.128418,4209.871582,4202.692383,4514.871582,4519.743652,4368.333496,4444.102539,2900.0,2.0,35.0,,,,0.0,4.0,4.0,4.0,4.0,4.0,4.0,4.0,4.0,4.0,4.0,4.0,4.0,4.0,4.0,100.0,,,,,,,,,,,,,,,,,,,,,,,,,,,,,,,,,,,,,,,,,,,,,,,,,,,,,,,,,,,,,,,,,,,,,,,,,,,,,,,,,,,,,,,,,,,,,,,,,,,,,,,,,,,,,,,,,,,,,,,,,,,,,,,,,,,
1725618206.576645,1725618206.578187,143.0,0.0,4248.589844,4200.256348,4267.307617,4274.102539,4202.94873,4215.256348,4219.487305,4198.461426,4204.230957,4199.871582,4510.769043,4519.102539,4364.743652,4443.846191,3071.0,2.0,35.0,,,,0.0,4.0,4.0,4.0,4.0,4.0,4.0,4.0,4.0,4.0,4.0,4.0,4.0,4.0,4.0,100.0,,,,,,,,,,,,,,,,,,,,,,,,,,,,,,,,,,,,,,,,,,,,,,,,,,,,,,,,,,,,,,,,,,,,,,,,,,,,,,,,,,,,,,,,,,,,,,,,,,,,,,,,,,,,,,,,,,,,,,,,,,,,,,,,,,,
1725618206.580549,1725618206.582091,144.0,0.0,4247.179688,4200.256348,4266.666504,4275.641113,4203.077148,4216.025879,4219.743652,4196.282227,4199.743652,4197.820313,4505.128418,4520.641113,4361.410156,4443.461426,3441.0,2.0,35.0,,,,0.0,4.0,4.0,4.0,4.0,4.0,4.0,4.0,4.0,4.0,4.0,4.0,4.0,4.0,4.0,100.0,,,,,,,,,,,,,,,,,,,,,,,,,,,,,,,,,,,,,,,,,,,,,,,,,,,,,,,,,,,,,,,,,,,,,,,,,,,,,,,,,,,,,,,,,,,,,,,,,,,,,,,,,,,,,,,,,,,,,,,,,,,,,,,,,,,
1725618206.584453,1725618206.585995,145.0,0.0,4247.307617,4202.820313,4268.333496,4276.922852,4203.205078,4216.410156,4219.358887,4196.153809,4198.974121,4197.94873,4502.94873,4523.077148,4361.153809,4443.589844,3882.0,2.0,35.0,,,,0.0,4.0,4.0,4.0,4.0,4.0,4.0,4.0,4.0,4.0,4.0,4.0,4.0,4.0,4.0,100.0,,,,,,,,,,,,,,,,,,,,,,,,,,,,,,,,,,,,,,,,,,,,,,,,,,,,,,,,,,,,,,,,,,,,,,,,,,,,,,,,,,,,,,,,,,,,,,,,,,,,,,,,,,,,,,,,,,,,,,,,,,,,,,,,,,,
1725618206.588357,1725618206.589799,146.0,0.0,4248.974121,4206.922852,4272.94873,4278.974121,4203.974121,4216.538574,4218.461426,4200.0,4202.436035,4200.0,4506.922852,4525.128418,4364.615234,4445.128418,2900.0,2.0,35.0,,,,0.0,4.0,4.0,4.0,4.0,4.0,4.0,4.0,4.0,4.0,4.0,4.0,4.0,4.0,4.0,100.0,,,,,,,,,,,,,,,,,,,,,,,,,,,,,,,,,,,,,,,,,,,,,,,,,,,,,,,,0.0,0.0,1.0,0.0,1024.0,0.206396,,,,,,,,,,,,,,,,,,,,,,,,,,,,,,,,,,,,,,,,,,,,,,,,,,,,,,,,,,,,,,,,,,,,,,
1725618206.592261,1725618206.593703,147.0,0.0,4251.410156,4210.128418,4278.589844,4281.282227,4205.128418,4216.794922,4217.563965,4207.436035,4208.461426,4202.563965,4515.256348,4526.410156,4369.358887,4448.205078,3071.0,2.0,35.0,,,,0.0,4.0,4.0,4.0,4.0,4.0,4.0,4.0,4.0,4.0,4.0,4.0,4.0,4.0,4.0,100.0,,,,,,,,,,,,,,,,,,,,,,,,,,,,,,,,,,,,,,,,,,,,,,,,,,,,,,,,,,,,,,,,,,,,,,,,,,,,,,,,,,,,,,,,,,,,,,,,,,,,,,,,,,,,,,,,,,,,,,,,,,,,,,,,,,,
1725618206.596166,1725618206.597607,148.0,0.0,4253.333496,4210.512695,4281.794922,4281.666504,4206.282227,4217.820313,4217.05127,4214.871582,4214.230957,4204.102539,4522.94873,4527.179688,4372.436035,4451.410156,3441.0,2.0,35.0,,,,0.0,4.0,4.0,4.0,4.0,4.0,4.0,4.0,4.0,4.0,4.0,4.0,4.0,4.0,4.0,100.0,,,,,,,,,,,,,,,,,,,,,,,,,,,,,,,,,,,,,,,,,,,,,,,,,,,,,,,,,,,,,,,,,,,,,,,,,,,,,,,,,,,,,,,,,,,,,,,,,,,,,,,,,,,,,,,,,,,,,,,,,,,,,,,,,,,
1725618206.60007,1725618206.601511,149.0,0.0,4253.461426,4208.205078,4280.256348,4278.461426,4206.666504,4219.358887,4217.179688,4218.205078,4217.436035,4204.102539,4525.256348,4527.692383,4371.922852,4452.307617,3882.0,2.0,35.0,,,,0.0,4.0,4.0,4.0,4.0,4.0,4.0,4.0,4.0,4.0,4.0,4.0,4.0,4.0,4.0,100.0,,,,,,,,,,,,,,,,,,,,,,,,,,,,,,,,,,,,,,,,,,,,,,,,,,,,,,,,,,,,,,,,,,,,,,,,,,,,,,,,,,,,,,,,,,,,,,,,,,,,,,,,,,,,,,,,,,,,,,,,,,,,,,,,,,,
1725618206.603974,1725618206.605315,150.0,0.0,4251.282227,4204.230957,4274.487305,4272.179688,4205.769043,4220.256348,4217.820313,4215.512695,4216.666504,4202.94873,4520.897461,4527.179688,4368.717773,4449.230957,2900.0,2.0,35.0,,,,0.0,4.0,4.0,4.0,4.0,4.0,4.0,4.0,4.0,4.0,4.0,4.0,4.0,4.0,4.0,100.0,,,,,,,,,,,,,,,,,,,,,,,,,,,,,,,,,,,,,,,,,,,,,,,,,,,,,,,,,,,,,,,,,,,,,,,,,,,,,,,,,,,,,,,,,,,,,,,,,,,,,,,,,,,,,,,,,,,,,,,,,,,,,,,,,,,
1725618206.607878,1725618206.60922,151.0,0.0,4247.05127,4200.128418,4267.307617,4265.641113,4203.461426,4219.358887,4218.589844,4208.205078,4212.05127,4201.538574,4512.94873,4525.128418,4365.512695,4443.205078,3071.0,2.0,35.0,,,,0.0,4.0,4.0,4.0,4.0,4.0,4.0,4.0,4.0,4.0,4.0,4.0,4.0,4.0,4.0,100.0,,,,,,,,,,,,,,,,,,,,,,,,,,,,,,,,,,,,,,,,,,,,,,,,,,,,,,,,,,,,,,,,,,,,,,,,,,,,,,,,,,,,,,,,,,,,,,,,,,,,,,,,,,,,,,,,,,,,,,,,,,,,,,,,,,,
1725618206.611782,1725618206.613124,152.0,0.0,4241.794922,4197.05127,4262.307617,4261.410156,4201.025879,4216.538574,4218.461426,4200.512695,4205.641113,4200.641113,4505.641113,4521.922852,4364.487305,4436.794922,3441.0,2.0,35.0,,,,0.0,4.0,4.0,4.0,4.0,4.0,4.0,4.0,4.0,4.0,4.0,4.0,4.0,4.0,4.0,100.0,,,,,,,,,,,,,,,,,,,,,,,,,,,,,,,,,,,,,,,,,,,,,,,,,,,,,,,,,,,,,,,,,,,,,,,,,,,,,,,,,,,,,,,,,,,,,,,,,,,,,,,,,,,,,,,,,,,,,,,,,,,,,,,,,,,
1725618206.615686,1725618206.617128,153.0,0.0,4236.538574,4195.0,4261.410156,4260.769043,4200.128418,4213.589844,4216.538574,4196.410156,4200.769043,4200.384766,4502.94873,4519.487305,4365.512695,4432.94873,3882.0,2.0,35.0,,,,0.0,4.0,4.0,4.0,4.0,4.0,4.0,4.0,4.0,4.0,4.0,4.0,4.0,4.0,4.0,100.0,,,,,,,,,,,,,,,,,,,,,,,,,,,,,,,,,,,,,,,,,,,,,,,,,,,,,,,,,,,,,,,,,,,,,,,,,,,,,,,,,,,,,,,,,,,,,,,,,,,,,,,,,,,,,,,,,,,,,,,,,,,,,,,,,,,
1725618206.61959,1725618206.621032,154.0,0.0,4232.692383,4193.333496,4263.589844,4262.436035,4200.769043,4212.820313,4212.563965,4197.307617,4200.512695,4200.641113,4505.0,4519.230957,4367.436035,4432.179688,2900.0,2.0,35.0,,,,0.0,4.0,4.0,4.0,4.0,4.0,4.0,4.0,4.0,4.0,4.0,4.0,4.0,4.0,4.0,100.0,,,,,,,,,,,,,,,,,,,,,,,,,,,,,,,,,,,,,,,,,,,,,,,,,,,,,,,,0.0,0.0,1.0,0.0,1024.0,0.206396,,,,,,,,,,,,,,,,,,,,,,,,,,,,,,,,,,,,,,,,,,,,,,,,,,,,,,,,,,,,,,,,,,,,,,
1725618206.623494,1725618206.624936,155.0,0.0,4230.641113,4191.153809,4266.153809,4264.358887,4201.666504,4214.615234,4207.307617,4201.538574,4205.0,4201.153809,4508.846191,4521.025879,4368.717773,4433.461426,3071.0,2.0,35.0,,,,0.0,4.0,4.0,4.0,4.0,4.0,4.0,4.0,4.0,4.0,4.0,4.0,4.0,4.0,4.0,100.0,,,,,,,,,,,,,,,,,,,,,,,,,,,,,,,,,,,,,,,,,,,,,,,,,,,,,,,,,,,,,,,,,,,,,,,,,,,,,,,,,,,,,,,,,,,,,,,,,,,,,,,,,,,,,,,,,,,,,,,,,,,,,,,,,,,
1725618206.627398,1725618206.62884,156.0,0.0,4230.384766,4188.333496,4266.922852,4264.615234,4200.512695,4217.307617,4202.820313,4205.512695,4211.282227,4201.282227,4510.0,4522.94873,4368.846191,4434.487305,3441.0,2.0,35.0,,,,0.0,4.0,4.0,4.0,4.0,4.0,4.0,4.0,4.0,4.0,4.0,4.0,4.0,4.0,4.0,100.0,,,,,,,,,,,,,,,,,,,,,,,,,,,,,,,,,,,,,,,,,,,,,,,,,,,,,,,,,,,,,,,,,,,,,,,,,,,,,,,,,,,,,,,,,,,,,,,,,,,,,,,,,,,,,,,,,,,,,,,,,,,,,,,,,,,
