Timestamp,OriginalTimestamp,EEG.Counter,EEG.Interpolated,EEG.AF3,EEG.F7,EEG.F3,EEG.FC5,EEG.T7,EEG.P7,EEG.O1,EEG.O2,EEG.P8,EEG.T8,EEG.FC6,EEG.F4,EEG.F8,EEG.AF4,EEG.RawCq,EEG.Battery,EEG.BatteryPercent,MarkerIndex,MarkerType,MarkerValueInt,EEG.MarkerHardware,CQ.AF3,CQ.F7,CQ.F3,CQ.FC5,CQ.T7,CQ.P7,CQ.O1,CQ.O2,CQ.P8,CQ.T8,CQ.FC6,CQ.F4,CQ.F8,CQ.AF4,CQ.Overall,EQ.SampleRateQuality,EQ.OVERALL,EQ.AF3,EQ.F7,EQ.F3,EQ.FC5,EQ.T7,EQ.P7,EQ.O1,EQ.O2,EQ.P8,EQ.T8,EQ.FC6,EQ.F4,EQ.F8,EQ.AF4,MC.Action,MC.ActionPower,MC.IsActive,PM.Attention.IsActive,PM.Attention.Scaled,PM.Attention.Raw,PM.Attention.Min,PM.Attention.Max,PM.Engagement.IsActive,PM.Engagement.Scaled,PM.Engagement.Raw,PM.Engagement.Min,PM.Engagement.Max,PM.Excitement.IsActive,PM.Excitement.Scaled,PM.Excitement.Raw,PM.Excitement.Min,PM.Excitement.Max,PM.LongTermExcitement,PM.Stress.IsActive,PM.Stress.Scaled,PM.Stress.Raw,PM.Stress.Min,PM.Stress.Max,PM.Relaxation.IsActive,PM.Relaxation.Scaled,PM.Relaxation.Raw,PM.Relaxation.Min,PM.Relaxation.Max,PM.Interest.IsActive,PM.Interest.Scaled,PM.Interest.Raw,PM.Interest.Min,PM.Interest.Max,PM.Focus.IsActive,PM.Focus.Scaled,PM.Focus.Raw,PM.Focus.Min,PM.Focus.Max,FE.BlinkWink,FE.HorizontalEyesDirection,FE.UpperFaceAction,FE.UpperFaceActionPower,FE.LowerFaceAction,FE.LowerFaceActionPower,POW.AF3.Theta,POW.AF3.Alpha,POW.AF3.BetaL,POW.AF3.BetaH,POW.AF3.Gamma,POW.F7.Theta,POW.F7.Alpha,POW.F7.BetaL,POW.F7.BetaH,POW.F7.Gamma,POW.F3.Theta,POW.F3.Alpha,POW.F3.BetaL,POW.F3.BetaH,POW.F3.Gamma,POW.FC5.Theta,POW.FC5.Alpha,POW.FC5.BetaL,POW.FC5.BetaH,POW.FC5.Gamma,POW.T7.Theta,POW.T7.Alpha,POW.T7.BetaL,POW.T7.BetaH,POW.T7.Gamma,POW.P7.Theta,POW.P7.Alpha,POW.P7.BetaL,POW.P7.BetaH,POW.P7.Gamma,POW.O1.Theta,POW.O1.Alpha,POW.O1.BetaL,POW.O1.BetaH,POW.O1.Gamma,POW.O2.Theta,POW.O2.Alpha,POW.O2.BetaL,POW.O2.BetaH,POW.O2.Gamma,POW.P8.Theta,POW.P8.Alpha,POW.P8.BetaL,POW.P8.BetaH,POW.P8.Gamma,POW.T8.Theta,POW.T8.Alpha,POW.T8.BetaL,POW.T8.BetaH,POW.T8.Gamma,POW.FC6.Theta,POW.FC6.Alpha,POW.FC6.BetaL,POW.FC6.BetaH,POW.FC6.Gamma,POW.F4.Theta,POW.F4.Alpha,POW.F4.BetaL,POW.F4.BetaH,POW.F4.Gamma,POW.F8.Theta,POW.F8.Alpha,POW.F8.BetaL,POW.F8.BetaH,POW.F8.Gamma,POW.AF4.Theta,POW.AF4.Alpha,POW.AF4.BetaL,POW.AF4.BetaH,POW.AF4.Gamma
1725618226.253342,1725618226.255371,63.0,0.0,4236.153809,4233.846191,4277.179688,4265.256348,4212.436035,4212.307617,4216.282227,4218.846191,4197.692383,4200.128418,4526.794922,4521.410156,4371.922852,4439.871582,0.0,2.0,35.0,9.0,1.0,1.0,0.0,4.0,4.0,4.0,4.0,4.0,4.0,4.0,4.0,4.0,4.0,4.0,4.0,4.0,4.0,100.0,,,,,,,,,,,,,,,,,,,,,,,,,,,,,,,,,,,,,,,,,,,,,,,,,,,,,,,,,,,,,,,,,,,,,,,,,,,,,,,,,,,,,,,,,,,,,,,,,,,,,,,,,,,,,,,,,,,,,,,,,,,,,,,,,,,
1725618226.257246,1725618226.259275,64.0,0.0,4233.461426,4233.333496,4272.563965,4267.179688,4215.128418,4211.666504,4215.641113,4219.358887,4202.436035,4201.410156,4521.282227,4523.333496,4370.512695,4435.384766,0.0,2.0,35.0,,,,0.0,4.0,4.0,4.0,4.0,4.0,4.0,4.0,4.0,4.0,4.0,4.0,4.0,4.0,4.0,100.0,,,,,,,,,,,,,,,,,,,,,,,,,,,,,,,,,,,,,,,,,,,,,,,,,,,,,,,,,,,,,,,,,,,,,,,,,,,,,,,,,,,,,,,,,,,,,,,,,,,,,,,,,,,,,,,,,,,,,,,,,,,,,,,,,,,
1725618226.26115,1725618226.26318,65.0,0.0,4231.538574,4233.077148,4268.077148,4267.692383,4216.153809,4211.282227,4215.641113,4218.205078,4204.230957,4201.538574,4522.436035,4525.256348,4370.512695,4432.307617,0.0,2.0,35.0,,,,0.0,4.0,4.0,4.0,4.0,4.0,4.0,4.0,4.0,4.0,4.0,4.0,4.0,4.0,4.0,100.0,,,,,,,,,,,,,,,,,,,,,,,,,,,,,,,,,,,,,,,,,,,,,,,,,,,,,,,,,,,,,,,,,,,,,,,,,,,,,,,,,,,,,,,,,,,,,,,,,,,,,,,,,,,,,,,,,,,,,,,,,,,,,,,,,,,
1725618226.265054,1725618226.267084,66.0,0.0,4231.025879,4233.589844,4266.794922,4266.666504,4215.256348,4211.794922,4216.282227,4217.820313,4203.717773,4201.538574,4529.358887,4526.282227,4373.077148,4432.436035,0.0,2.0,35.0,,,,0.0,4.0,4.0,4.0,4.0,4.0,4.0,4.0,4.0,4.0,4.0,4.0,4.0,4.0,4.0,100.0,1.0,100.0,4.0,4.0,4.0,4.0,4.0,4.0,4.0,4.0,4.0,4.0,4.0,4.0,4.0,4.0,1.0,0.0,0.0,,,,,,,,,,,,,,,,,,,,,,,,,,,,,,,,,,,,,0.0,0.0,1.0,0.0,1.0,0.0,2.626632,1.816498,1.219715,0.337428,0.110688,1.550524,1.285571,0.647051,0.321236,0.08483,2.290593,1.091545,0.869432,0.298746,0.101243,1.541183,1.311613,0.744912,0.281106,0.054107,1.058873,0.58063,0.156435,0.177854,0.077754,0.336779,0.231163,0.194873,0.06018,0.060797,0.638797,0.301753,0.144325,0.11528,0.083646,1.61895,1.788269,1.002638,0.378498,0.208043,1.855606,1.647058,1.359125,0.273518,0.087197,1.676229,1.693542,1.134862,0.370183,0.069572,3.514277,2.836398,2.108983,0.881037,0.168774,2.60736,2.003593,2.184973,0.624687,0.147685,4.486866,2.763418,1.846166,0.498267,0.046296,3.182382,2.22748,1.636222,0.497711,0.086192
1725618226.268958,1725618226.270888,67.0,0.0,4232.05127,4234.487305,4269.487305,4265.384766,4213.717773,4212.820313,4216.666504,4218.461426,4202.179688,4201.794922,4537.563965,4526.025879,4377.436035,4435.769043,0.0,2.0,35.0,,,,0.0,4.0,4.0,4.0,4.0,4.0,4.0,4.0,4.0,4.0,4.0,4.0,4.0,4.0,4.0,100.0,,,,,,,,,,,,,,,,,,,,,,,,,,,,,,,,,,,,,,,,,,,,,,,,,,,,,,,,,,,,,,,,,,,,,,,,,,,,,,,,,,,,,,,,,,,,,,,,,,,,,,,,,,,,,,,,,,,,,,,,,,,,,,,,,,,
1725618226.272862,1725618226.274792,68.0,0.0,4234.743652,4235.0,4274.743652,4265.384766,4213.077148,4213.846191,4216.538574,4219.615234,4201.153809,4202.307617,4542.179688,4525.256348,4381.282227,4440.641113,0.0,2.0,35.0,,,,0.0,4.0,4.0,4.0,4.0,4.0,4.0,4.0,4.0,4.0,4.0,4.0,4.0,4.0,4.0,100.0,,,,,,,,,,,,,,,,,,,,,,,,,,,,,,,,,,,,,,,,,,,,,,,,,,,,,,,,,,,,,,,,,,,,,,,,,,,,,,,,,,,,,,,,,,,,,,,,,,,,,,,,,,,,,,,,,,,,,,,,,,,,,,,,,,,
1725618226.276766,1725618226.278696,69.0,0.0,4238.589844,4234.871582,4279.358887,4267.179688,4213.846191,4214.358887,4216.538574,4220.128418,4201.025879,4202.307617,4541.922852,4525.0,4382.94873,4444.358887,0.0,2.0,35.0,,,,0.0,4.0,4.0,4.0,4.0,4.0,4.0,4.0,4.0,4.0,4.0,4.0,4.0,4.0,4.0,100.0,,,,,,,,,,,,,,,,,,,,,,,,,,,,,,,,,,,,,,,,,,,,,,,,,,,,,,,,,,,,,,,,,,,,,,,,,,,,,,,,,,,,,,,,,,,,,,,,,,,,,,,,,,,,,,,,,,,,,,,,,,,,,,,,,,,
1725618226.280671,1725618226.2827,70.0,0.0,4242.179688,4234.230957,4281.153809,4270.641113,4215.128418,4214.487305,4217.436035,4219.743652,4201.538574,4201.666504,4539.102539,4525.256348,4382.94873,4445.769043,0.0,2.0,35.0,,,,0.0,4.0,4.0,4.0,4.0,4.0,4.0,4.0,4.0,4.0,4.0,4.0,4.0,4.0,4.0,100.0,,,,,,,,,,,,,,,,,,,,,,,,,,,,,,,,,,,,,,,,,,,,,,,,,,,,,,,,,,,,,,,,,,,,,,,,,,,,,,,,,,,,,,,,,,,,,,,,,,,,,,,,,,,,,,,,,,,,,,,,,,,,,,,,,,,
1725618226.284575,1725618226.286604,71.0,0.0,4244.615234,4233.589844,4280.128418,4274.615234,4215.897461,4215.0,4218.974121,4218.461426,4201.538574,4200.512695,4537.05127,4525.769043,4382.820313,4445.0,0.0,2.0,35.0,,,,0.0,4.0,4.0,4.0,4.0,4.0,4.0,4.0,4.0,4.0,4.0,4.0,4.0,4.0,4.0,100.0,,,,,,,,,,,,,,,,,,,,,,,,,,,,,,,,,,,,,,,,,,,,,,,,,,,,,,,,,,,,,,,,,,,,,,,,,,,,,,,,,,,,,,,,,,,,,,,,,,,,,,,,,,,,,,,,,,,,,,,,,,,,,,,,,,,
1725618226.288479,1725618226.290508,72.0,0.0,4245.128418,4233.589844,4278.333496,4277.436035,4216.153809,4216.282227,4220.256348,4217.05127,4201.025879,4199.743652,4537.436035,4525.512695,4383.717773,4444.102539,0.0,2.0,35.0,,,,0.0,4.0,4.0,4.0,4.0,4.0,4.0,4.0,4.0,4.0,4.0,4.0,4.0,4.0,4.0,100.0,,,,,,,,,,,,,,,,,,,,,,,,,,,,,,,,,,,,,,,,,,,,,,,,,,,,,,,,,,,,,,,,,,,,,,,,,,,,,,,,,,,,,,,,,,,,,,,,,,,,,,,,,,,,,,,,,,,,,,,,,,,,,,,,,,,
1725618226.292383,1725618226.294512,73.0,0.0,4244.615234,4234.615234,4277.436035,4278.333496,4216.538574,4217.820313,4220.512695,4216.282227,4200.256348,4199.871582,4539.358887,4525.0,4385.384766,4444.230957,0.0,2.0,35.0,,,,0.0,4.0,4.0,4.0,4.0,4.0,4.0,4.0,4.0,4.0,4.0,4.0,4.0,4.0,4.0,100.0,,,,,,,,,,,,,,,,,,,,,,,,,,,,,,,,,,,,,,,,,,,,,,,,,,,,,,,,,,,,,,,,,,,,,,,,,,,,,,,,,,,,,,,,,,,,,,,,,,,,,,,,,,,,,,,,,,,,,,,,,,,,,,,,,,,
1725618226.296287,1725618226.298416,74.0,0.0,4244.230957,4235.641113,4278.333496,4277.563965,4216.922852,4217.94873,4219.615234,4216.153809,4199.871582,4201.025879,4540.769043,4525.128418,4386.666504,4445.128418,0.0,2.0,35.0,,,,0.0,4.0,4.0,4.0,4.0,4.0,4.0,4.0,4.0,4.0,4.0,4.0,4.0,4.0,4.0,100.0,,,,,,,,,,,,,,,,,,,,,,,,,,,,,,,,,,,,,,,,,,,,,,,,,,,,,,,,0.0,0.0,1.0,0.0,1.0,0.0,,,,,,,,,,,,,,,,,,,,,,,,,,,,,,,,,,,,,,,,,,,,,,,,,,,,,,,,,,,,,,,,,,,,,,
1725618226.300191,1725618226.302321,75.0,0.0,4244.871582,4236.410156,4279.871582,4276.410156,4216.794922,4216.153809,4218.205078,4216.282227,4199.871582,4202.307617,4540.512695,4527.05127,4386.410156,4446.025879,0.0,2.0,35.0,,,,0.0,4.0,4.0,4.0,4.0,4.0,4.0,4.0,4.0,4.0,4.0,4.0,4.0,4.0,4.0,100.0,,,,,,,,,,,,,,,,,,,,,,,,,,,,,,,,,,,,,,,,,,,,,,,,,,,,,,,,,,,,,,,,,,,,,,,,,,,,,,,,,,,,,,,,,,,,,,,,,,,,,,,,,,,,,,,,,,,,,,,,,,,,,,,,,,,
1725618226.304095,1725618226.306225,76.0,0.0,4246.282227,4236.538574,4281.025879,4275.512695,4215.0,4213.589844,4217.05127,4216.666504,4199.871582,4202.563965,4539.358887,4531.153809,4384.615234,4446.410156,0.0,2.0,35.0,,,,0.0,4.0,4.0,4.0,4.0,4.0,4.0,4.0,4.0,4.0,4.0,4.0,4.0,4.0,4.0,100.0,,,,,,,,,,,,,,,,,,,,,,,,,,,,,,,,,,,,,,,,,,,,,,,,,,,,,,,,,,,,,,,,,,,,,,,,,,,,,,,,,,,,,,,,,,,,,,,,,,,,,,,,,,,,,,,,,,,,,,,,,,,,,,,,,,,
1725618226.307999,1725618226.310129,77.0,0.0,4247.179688,4236.025879,4281.410156,4274.358887,4211.153809,4212.05127,4216.410156,4217.820313,4199.615234,4201.794922,4538.461426,4536.153809,4382.563965,4446.922852,0.0,2.0,35.0,,,,0.0,4.0,4.0,4.0,4.0,4.0,4.0,4.0,4.0,4.0,4.0,4.0,4.0,4.0,4.0,100.0,,,,,,,,,,,,,,,,,,,,,,,,,,,,,,,,,,,,,,,,,,,,,,,,,,,,,,,,,,,,,,,,,,,,,,,,,,,,,,,,,,,,,,,,,,,,,,,,,,,,,,,,,,,,,,,,,,,,,,,,,,,,,,,,,,,
1725618226.311903,1725618226.313933,78.0,0.0,4246.922852,4235.0,4281.538574,4272.563965,4206.282227,4212.05127,4216.282227,4219.743652,4199.615234,4200.641113,4538.846191,4540.256348,4381.666504,4448.077148,0.0,2.0,35.0,,,,0.0,4.0,4.0,4.0,4.0,4.0,4.0,4.0,4.0,4.0,4.0,4.0,4.0,4.0,4.0,100.0,,,,,,,,,,,,,,,,,,,,,,,,,,,,,,,,,,,,,,,,,,,,,,,,,,,,,,,,,,,,,,,,,,,,,,,,,,,,,,,,,,,,,,,,,,,,,,,,,,,,,,,,,,,,,,,,,,,,,,,,,,,,,,,,,,,
1725618226.315807,1725618226.317837,79.0,0.0,4245.769043,4233.333496,4281.794922,4270.128418,4202.179688,4212.307617,4216.025879,4221.282227,4200.256348,4199.743652,4539.871582,4542.179688,4382.436035,4450.0,0.0,2.0,35.0,,,,0.0,4.0,4.0,4.0,4.0,4.0,4.0,4.0,4.0,4.0,4.0,4.0,4.0,4.0,4.0,100.0,,,,,,,,,,,,,,,,,,,,,,,,,,,,,,,,,,,,,,,,,,,,,,,,,,,,,,,,,,,,,,,,,,,,,,,,,,,,,,,,,,,,,,,,,,,,,,,,,,,,,,,,,,,,,,,,,,,,,,,,,,,,,,,,,,,
1725618226.319712,1725618226.321741,80.0,0.0,4245.512695,4231.794922,4282.05127,4268.077148,4200.128418,4211.025879,4215.512695,4221.153809,4201.153809,4199.358887,4540.256348,4541.666504,4384.358887,4452.307617,0.0,2.0,35.0,,,,0.0,4.0,4.0,4.0,4.0,4.0,4.0,4.0,4.0,4.0,4.0,4.0,4.0,4.0,4.0,100.0,,,,,,,,,,,,,,,,,,,,,,,,,,,,,,,,,,,,,,,,,,,,,,,,,,,,,,,,,,,,,,,,,,,,,,,,,,,,,,,,,,,,,,,,,,,,,,,,,,,,,,,,,,,,,,,,,,,,,,,,,,,,,,,,,,,
1725618226.323616,1725618226.325745,81.0,0.0,4246.538574,4231.666504,4281.538574,4267.563965,4200.512695,4208.333496,4214.615234,4218.717773,4201.282227,4199.487305,4539.743652,4539.615234,4385.512695,4454.358887,0.0,2.0,35.0,,,,0.0,4.0,4.0,4.0,4.0,4.0,4.0,4.0,4.0,4.0,4.0,4.0,4.0,4.0,4.0,100.0,,,,,,,,,,,,,,,,,,,,,,,,,,,,,,,,,,,,,,,,,,,,,,,,,,,,,,,,,,,,,,,,,,,,,,,,,,,,,,,,,,,,,,,,,,,,,,,,,,,,,,,,,,,,,,,,,,,,,,,,,,,,,,,,,,,
1725618226.32752,1725618226.329649,82.0,0.0,4248.077148,4234.102539,4280.641113,4269.102539,4202.307617,4205.897461,4213.974121,4215.256348,4200.384766,4199.871582,4538.717773,4537.563965,4384.743652,4455.641113,0.0,2.0,35.0,,,,0.0,4.0,4.0,4.0,4.0,4.0,4.0,4.0,4.0,4.0,4.0,4.0,4.0,4.0,4.0,100.0,,,,,,,,,,,,,,,,,,,,,,,,,,,,,,,,,,,,,,,,,,,,,,,,,,,,,,,,0.0,0.0,1.0,0.0,1.0,0.0,,,,,,,,,,,,,,,,,,,,,,,,,,,,,,,,,,,,,,,,,,,,,,,,,,,,,,,,,,,,,,,,,,,,,,
1725618226.331424,1725618226.333553,83.0,0.0,4248.846191,4239.102539,4280.0,4272.179688,4203.589844,4205.641113,4213.974121,4212.563965,4198.974121,4200.0,4538.333496,4536.538574,4382.820313,4456.153809,0.0,2.0,35.0,,,,0.0,4.0,4.0,4.0,4.0,4.0,4.0,4.0,4.0,4.0,4.0,4.0,4.0,4.0,4.0,100.0,,,,,,,,,,,,,,,,,,,,,,,,,,,,,,,,,,,,,,,,,,,,,,,,,,,,,,,,,,,,,,,,,,,,,,,,,,,,,,,,,,,,,,,,,,,,,,,,,,,,,,,,,,,,,,,,,,,,,,,,,,,,,,,,,,,
1725618226.335328,1725618226.337457,84.0,0.0,4248.974121,4244.487305,4280.512695,4275.384766,4203.333496,4208.205078,4214.743652,4212.307617,4198.205078,4200.0,4538.974121,4537.05127,4381.282227,4456.282227,0.0,2.0,35.0,,,,0.0,4.0,4.0,4.0,4.0,4.0,4.0,4.0,4.0,4.0,4.0,4.0,4.0,4.0,4.0,100.0,,,,,,,,,,,,,,,,,,,,,,,,,,,,,,,,,,,,,,,,,,,,,,,,,,,,,,,,,,,,,,,,,,,,,,,,,,,,,,,,,,,,,,,,,,,,,,,,,,,,,,,,,,,,,,,,,,,,,,,,,,,,,,,,,,,
1725618226.339232,1725618226.341362,85.0,0.0,4249.615234,4248.077148,4282.05127,4277.820313,4202.05127,4212.179688,4216.025879,4214.487305,4198.846191,4199.743652,4540.128418,4538.846191,4381.410156,4457.05127,0.0,2.0,35.0,,,,0.0,4.0,4.0,4.0,4.0,4.0,4.0,4.0,4.0,4.0,4.0,4.0,4.0,4.0,4.0,100.0,,,,,,,,,,,,,,,,,,,,,,,,,,,,,,,,,,,,,,,,,,,,,,,,,,,,,,,,,,,,,,,,,,,,,,,,,,,,,,,,,,,,,,,,,,,,,,,,,,,,,,,,,,,,,,,,,,,,,,,,,,,,,,,,,,,
1725618226.343136,1725618226.345166,86.0,0.0,4251.666504,4248.461426,4284.487305,4279.230957,4201.282227,4215.128418,4217.05127,4217.179688,4200.384766,4199.487305,4541.538574,4540.897461,4382.563965,4458.333496,0.0,2.0,35.0,,,,0.0,4.0,4.0,4.0,4.0,4.0,4.0,4.0,4.0,4.0,4.0,4.0,4.0,4.0,4.0,100.0,,,,,,,,,,,,,,,,,,,,,,,,,,,,,,,,,,,,,,,,,,,,,,,,,,,,,,,,,,,,,,,,,,,,,,,,,,,,,,,,,,,,,,,,,,,,,,,,,,,,,,,,,,,,,,,,,,,,,,,,,,,,,,,,,,,
1725618226.34704,1725618226.34907,87.0,0.0,4254.230957,4246.410156,4287.05127,4279.358887,4202.692383,4215.512695,4217.436035,4218.717773,4201.538574,4199.487305,4542.307617,4542.179688,4383.717773,4459.487305,0.0,2.0,35.0,,,,0.0,4.0,4.0,4.0,4.0,4.0,4.0,4.0,4.0,4.0,4.0,4.0,4.0,4.0,4.0,100.0,,,,,,,,,,,,,,,,,,,,,,,,,,,,,,,,,,,,,,,,,,,,,,,,,,,,,,,,,,,,,,,,,,,,,,,,,,,,,,,,,,,,,,,,,,,,,,,,,,,,,,,,,,,,,,,,,,,,,,,,,,,,,,,,,,,
1725618226.350944,1725618226.352974,88.0,0.0,4255.769043,4244.615234,4289.487305,4278.846191,4206.410156,4213.846191,4217.179688,4218.461426,4201.666504,4199.487305,4542.436035,4542.436035,4383.974121,4459.743652,0.0,2.0,35.0,,,,0.0,4.0,4.0,4.0,4.0,4.0,4.0,4.0,4.0,4.0,4.0,4.0,4.0,4.0,4.0,100.0,,,,,,,,,,,,,,,,,,,,,,,,,,,,,,,,,,,,,,,,,,,,,,,,,,,,,,,,,,,,,,,,,,,,,,,,,,,,,,,,,,,,,,,,,,,,,,,,,,,,,,,,,,,,,,,,,,,,,,,,,,,,,,,,,,,
1725618226.354849,1725618226.356878,89.0,0.0,4255.384766,4244.615234,4291.153809,4278.461426,4211.025879,4212.307617,4216.922852,4217.05127,4200.769043,4199.743652,4541.922852,4541.794922,4383.717773,4459.102539,0.0,2.0,35.0,,,,0.0,4.0,4.0,4.0,4.0,4.0,4.0,4.0,4.0,4.0,4.0,4.0,4.0,4.0,4.0,100.0,,,,,,,,,,,,,,,,,,,,,,,,,,,,,,,,,,,,,,,,,,,,,,,,,,,,,,,,,,,,,,,,,,,,,,,,,,,,,,,,,,,,,,,,,,,,,,,,,,,,,,,,,,,,,,,,,,,,,,,,,,,,,,,,,,,
1725618226.358753,1725618226.360682,90.0,0.0,4253.205078,4245.897461,4291.153809,4278.717773,4214.743652,4212.436035,4216.922852,4215.769043,4199.871582,4199.871582,4541.153809,4541.153809,4383.974121,4458.589844,0.0,2.0,35.0,,,,0.0,4.0,4.0,4.0,4.0,4.0,4.0,4.0,4.0,4.0,4.0,4.0,4.0,4.0,4.0,100.0,,,,,,,,,,,,,,,,,,,,,,,,,,,,,,,,,,,,,,,,,,,,,,,,,,,,,,,,0.0,0.0,1.0,0.0,1.0,0.0,,,,,,,,,,,,,,,,,,,,,,,,,,,,,,,,,,,,,,,,,,,,,,,,,,,,,,,,,,,,,,,,,,,,,,
1725618226.362657,1725618226.364586,91.0,0.0,4250.641113,4246.538574,4289.615234,4278.974121,4216.794922,4214.102539,4217.563965,4216.153809,4199.743652,4199.871582,4540.512695,4541.666504,4385.256348,4458.974121,0.0,2.0,35.0,,,,0.0,4.0,4.0,4.0,4.0,4.0,4.0,4.0,4.0,4.0,4.0,4.0,4.0,4.0,4.0,100.0,,,,,,,,,,,,,,,,,,,,,,,,,,,,,,,,,,,,,,,,,,,,,,,,,,,,,,,,,,,,,,,,,,,,,,,,,,,,,,,,,,,,,,,,,,,,,,,,,,,,,,,,,,,,,,,,,,,,,,,,,,,,,,,,,,,
1725618226.366561,1725618226.368491,92.0,0.0,4248.717773,4244.615234,4286.794922,4278.333496,4217.05127,4215.897461,4218.205078,4217.94873,4200.256348,4199.615234,4540.256348,4543.333496,4387.307617,4459.871582,0.0,2.0,35.0,,,,0.0,4.0,4.0,4.0,4.0,4.0,4.0,4.0,4.0,4.0,4.0,4.0,4.0,4.0,4.0,100.0,,,,,,,,,,,,,,,,,,,,,,,,,,,,,,,,,,,,,,,,,,,,,,,,,,,,,,,,,,,,,,,,,,,,,,,,,,,,,,,,,,,,,,,,,,,,,,,,,,,,,,,,,,,,,,,,,,,,,,,,,,,,,,,,,,,
1725618226.370465,1725618226.372395,93.0,0.0,4248.205078,4240.512695,4283.461426,4275.897461,4216.282227,4216.666504,4218.333496,4220.128418,4200.769043,4199.487305,4540.384766,4545.256348,4388.461426,4460.0,0.0,2.0,35.0,,,,0.0,4.0,4.0,4.0,4.0,4.0,4.0,4.0,4.0,4.0,4.0,4.0,4.0,4.0,4.0,100.0,,,,,,,,,,,,,,,,,,,,,,,,,,,,,,,,,,,,,,,,,,,,,,,,,,,,,,,,,,,,,,,,,,,,,,,,,,,,,,,,,,,,,,,,,,,,,,,,,,,,,,,,,,,,,,,,,,,,,,,,,,,,,,,,,,,
1725618226.374369,1725618226.376199,94.0,0.0,4248.461426,4235.769043,4280.769043,4271.922852,4215.128418,4216.922852,4217.692383,4221.922852,4200.897461,4199.743652,4540.512695,4546.025879,4387.05127,4458.333496,0.0,2.0,35.0,,,,0.0,4.0,4.0,4.0,4.0,4.0,4.0,4.0,4.0,4.0,4.0,4.0,4.0,4.0,4.0,100.0,,,,,,,,,,,,,,,,,,,,,,,,,,,,,,,,,,,,,,,,,,,,,,,,,,,,,,,,,,,,,,,,,,,,,,,,,,,,,,,,,,,,,,,,,,,,,,,,,,,,,,,,,,,,,,,,,,,,,,,,,,,,,,,,,,,
1725618226.378273,1725618226.380103,95.0,0.0,4248.205078,4232.692383,4279.230957,4267.820313,4213.846191,4217.563965,4216.666504,4222.563965,4201.025879,4200.512695,4540.256348,4545.384766,4382.692383,4455.128418,0.0,2.0,35.0,,,,0.0,4.0,4.0,4.0,4.0,4.0,4.0,4.0,4.0,4.0,4.0,4.0,4.0,4.0,4.0,100.0,,,,,,,,,,,,,,,,,,,,,,,,,,,,,,,,,,,,,,,,,,,,,,,,,,,,,,,,,,,,,,,,,,,,,,,,,,,,,,,,,,,,,,,,,,,,,,,,,,,,,,,,,,,,,,,,,,,,,,,,,,,,,,,,,,,
1725618226.382177,1725618226.384007,96.0,0.0,4246.153809,4231.922852,4278.974121,4264.743652,4212.179688,4219.487305,4215.769043,4222.307617,4201.794922,4201.794922,4539.358887,4543.333496,4377.307617,4451.666504,0.0,2.0,35.0,,,,0.0,4.0,4.0,4.0,4.0,4.0,4.0,4.0,4.0,4.0,4.0,4.0,4.0,4.0,4.0,100.0,,,,,,,,,,,,,,,,,,,,,,,,,,,,,,,,,,,,,,,,,,,,,,,,,,,,,,,,,,,,,,,,,,,,,,,,,,,,,,,,,,,,,,,,,,,,,,,,,,,,,,,,,,,,,,,,,,,,,,,,,,,,,,,,,,,
1725618226.386081,1725618226.388011,97.0,0.0,4242.05127,4232.94873,4279.487305,4263.461426,4209.615234,4221.153809,4215.769043,4221.282227,4203.205078,4202.94873,4538.205078,4541.025879,4373.589844,4448.974121,0.0,2.0,35.0,,,,0.0,4.0,4.0,4.0,4.0,4.0,4.0,4.0,4.0,4.0,4.0,4.0,4.0,4.0,4.0,100.0,,,,,,,,,,,,,,,,,,,,,,,,,,,,,,,,,,,,,,,,,,,,,,,,,,,,,,,,,,,,,,,,,,,,,,,,,,,,,,,,,,,,,,,,,,,,,,,,,,,,,,,,,,,,,,,,,,,,,,,,,,,,,,,,,,,
1725618226.389985,1725618226.391915,98.0,0.0,4237.436035,4233.589844,4279.871582,4263.846191,4206.538574,4220.512695,4216.410156,4219.871582,4204.358887,4204.230957,4537.563965,4539.487305,4373.717773,4447.179688,0.0,2.0,35.0,,,,0.0,4.0,4.0,4.0,4.0,4.0,4.0,4.0,4.0,4.0,4.0,4.0,4.0,4.0,4.0,100.0,,,,,,,,,,,,,,,,,1.0,0.0,0.0,,,,,,,,,,,,,,,,,,,,,,,,,,,,,,,,,,,,,0.0,0.0,1.0,0.0,1.0,0.0,2.401446,1.530913,1.11114,0.300316,0.09538,1.481097,1.123654,0.612465,0.294833,0.076789,2.045915,0.970004,0.797341,0.276954,0.094793,1.435193,1.169849,0.671478,0.293903,0.06198,1.003471,0.610096,0.158907,0.161705,0.071163,0.245896,0.197119,0.184344,0.060513,0.048809,0.56749,0.283103,0.14049,0.106717,0.088834,1.372535,1.43238,0.860862,0.328243,0.183218,1.490737,1.540198,1.242673,0.249187,0.079133,1.591515,1.808881,1.218467,0.32065,0.06658,2.918375,2.358931,1.94702,0.764052,0.195114,2.292,1.735448,1.999754,0.563068,0.13102,3.876154,2.358309,1.615848,0.447179,0.052762,2.967262,1.874013,1.484298,0.425744,0.083376
1725618226.39389,1725618226.395819,99.0,0.0,4234.102539,4232.692383,4279.871582,4264.487305,4203.974121,4217.820313,4217.05127,4218.846191,4203.974121,4205.256348,4537.692383,4539.615234,4377.05127,4446.538574,0.0,2.0,35.0,,,,0.0,4.0,4.0,4.0,4.0,4.0,4.0,4.0,4.0,4.0,4.0,4.0,4.0,4.0,4.0,100.0,,,,,,,,,,,,,,,,,,,,,,,,,,,,,,,,,,,,,,,,,,,,,,,,,,,,,,,,,,,,,,,,,,,,,,,,,,,,,,,,,,,,,,,,,,,,,,,,,,,,,,,,,,,,,,,,,,,,,,,,,,,,,,,,,,,
1725618226.397794,1725618226.399823,100.0,0.0,4233.077148,4230.641113,4279.102539,4264.358887,4202.820313,4215.128418,4217.05127,4218.589844,4202.307617,4206.025879,4537.692383,4540.641113,4380.512695,4446.153809,0.0,2.0,35.0,,,,0.0,4.0,4.0,4.0,4.0,4.0,4.0,4.0,4.0,4.0,4.0,4.0,4.0,4.0,4.0,100.0,,,,,,,,,,,,,,,,,,,,,,,,,,,,,,,,,,,,,,,,,,,,,,,,,,,,,,,,,,,,,,,,,,,,,,,,,,,,,,,,,,,,,,,,,,,,,,,,,,,,,,,,,,,,,,,,,,,,,,,,,,,,,,,,,,,
1725618226.401698,1725618226.403727,101.0,0.0,4233.846191,4229.230957,4278.333496,4262.692383,4203.333496,4214.743652,4216.538574,4218.974121,4201.153809,4205.769043,4536.538574,4541.153809,4381.025879,4445.384766,0.0,2.0,35.0,,,,0.0,4.0,4.0,4.0,4.0,4.0,4.0,4.0,4.0,4.0,4.0,4.0,4.0,4.0,4.0,100.0,,,,,,,,,,,,,,,,,,,,,,,,,,,,,,,,,,,,,,,,,,,,,,,,,,,,,,,,,,,,,,,,,,,,,,,,,,,,,,,,,,,,,,,,,,,,,,,,,,,,,,,,,,,,,,,,,,,,,,,,,,,,,,,,,,,
1725618226.405602,1725618226.407631,102.0,0.0,4234.743652,4230.0,4278.461426,4260.512695,4204.743652,4216.153809,4216.282227,4219.102539,4201.410156,4204.615234,4533.205078,4539.615234,4377.436035,4444.358887,0.0,2.0,35.0,,,,0.0,4.0,4.0,4.0,4.0,4.0,4.0,4.0,4.0,4.0,4.0,4.0,4.0,4.0,4.0,100.0,,,,,,,,,,,,,,,,,,,,,,,,,,,,,,,,,,,,,,,,,,,,,,,,,,,,,,,,,,,,,,,,,,,,,,,,,,,,,,,,,,,,,,,,,,,,,,,,,,,,,,,,,,,,,,,,,,,,,,,,,,,,,,,,,,,
1725618226.409506,1725618226.411536,103.0,0.0,4235.128418,4232.307617,4279.230957,4259.230957,4205.897461,4217.307617,4216.282227,4217.820313,4202.05127,4202.692383,4528.333496,4535.769043,4371.153809,4443.846191,0.0,2.0,35.0,,,,0.0,4.0,4.0,4.0,4.0,4.0,4.0,4.0,4.0,4.0,4.0,4.0,4.0,4.0,4.0,100.0,,,,,,,,,,,,,,,,,,,,,,,,,,,,,,,,,,,,,,,,,,,,,,,,,,,,,,,,,,,,,,,,,,,,,,,,,,,,,,,,,,,,,,,,,,,,,,,,,,,,,,,,,,,,,,,,,,,,,,,,,,,,,,,,,,,
1725618226.41341,1725618226.41544,104.0,0.0,4234.487305,4233.589844,4279.487305,4259.358887,4206.282227,4215.384766,4216.282227,4214.487305,4200.641113,4200.641113,4523.333496,4530.128418,4365.256348,4443.717773,0.0,2.0,35.0,,,,0.0,4.0,4.0,4.0,4.0,4.0,4.0,4.0,4.0,4.0,4.0,4.0,4.0,4.0,4.0,100.0,,,,,,,,,,,,,,,,,,,,,,,,,,,,,,,,,,,,,,,,,,,,,,,,,,,,,,,,,,,,,,,,,,,,,,,,,,,,,,,,,,,,,,,,,,,,,,,,,,,,,,,,,,,,,,,,,,,,,,,,,,,,,,,,,,,
1725618226.417314,1725618226.419244,105.0,0.0,4233.333496,4232.05127,4278.077148,4260.256348,4205.897461,4210.0,4215.641113,4208.974121,4196.794922,4198.589844,4519.615234,4524.358887,4362.307617,4443.205078,0.0,2.0,35.0,,,,0.0,4.0,4.0,4.0,4.0,4.0,4.0,4.0,4.0,4.0,4.0,4.0,4.0,4.0,4.0,100.0,,,,,,,,,,,,,,,,,,,,,,,,,,,,,,,,,,,,,,,,,,,,,,,,,,,,,,,,,,,,,,,,,,,,,,,,,,,,,,,,,,,,,,,,,,,,,,,,,,,,,,,,,,,,,,,,,,,,,,,,,,,,,,,,,,,
1725618226.421219,1725618226.423148,106.0,0.0,4231.794922,4227.563965,4274.743652,4260.769043,4205.0,4203.333496,4213.461426,4202.820313,4192.05127,4196.666504,4517.94873,4520.512695,4362.820313,4441.410156,0.0,2.0,35.0,,,,0.0,4.0,4.0,4.0,4.0,4.0,4.0,4.0,4.0,4.0,4.0,4.0,4.0,4.0,4.0,100.0,,,,,,,,,,,,,,,,,,,,,,,,,,,,,,,,,,,,,,,,,,,,,,,,,,,,,,,,0.0,0.0,1.0,0.0,1.0,0.0,,,,,,,,,,,,,,,,,,,,,,,,,,,,,,,,,,,,,,,,,,,,,,,,,,,,,,,,,,,,,,,,,,,,,,
1725618226.425123,1725618226.427052,107.0,0.0,4230.897461,4222.563965,4271.025879,4260.769043,4204.102539,4198.717773,4209.743652,4198.717773,4188.846191,4194.871582,4517.94873,4519.358887,4364.743652,4438.846191,0.0,2.0,35.0,,,,0.0,4.0,4.0,4.0,4.0,4.0,4.0,4.0,4.0,4.0,4.0,4.0,4.0,4.0,4.0,100.0,,,,,,,,,,,,,,,,,,,,,,,,,,,,,,,,,,,,,,,,,,,,,,,,,,,,,,,,,,,,,,,,,,,,,,,,,,,,,,,,,,,,,,,,,,,,,,,,,,,,,,,,,,,,,,,,,,,,,,,,,,,,,,,,,,,
1725618226.429027,1725618226.431056,108.0,0.0,4231.025879,4220.0,4268.846191,4260.512695,4203.333496,4198.077148,4204.871582,4198.974121,4188.205078,4192.436035,4518.589844,4520.0,4365.512695,4436.794922,0.0,2.0,35.0,,,,0.0,4.0,4.0,4.0,4.0,4.0,4.0,4.0,4.0,4.0,4.0,4.0,4.0,4.0,4.0,100.0,,,,,,,,,,,,,,,,,,,,,,,,,,,,,,,,,,,,,,,,,,,,,,,,,,,,,,,,,,,,,,,,,,,,,,,,,,,,,,,,,,,,,,,,,,,,,,,,,,,,,,,,,,,,,,,,,,,,,,,,,,,,,,,,,,,
1725618226.432931,1725618226.43496,109.0,0.0,4232.05127,4220.897461,4269.358887,4260.641113,4202.692383,4200.641113,4200.512695,4203.333496,4188.974121,4189.487305,4519.358887,4521.153809,4363.589844,4436.538574,0.0,2.0,35.0,,,,0.0,4.0,4.0,4.0,4.0,4.0,4.0,4.0,4.0,4.0,4.0,4.0,4.0,4.0,4.0,100.0,,,,,,,,,,,,,,,,,,,,,,,,,,,,,,,,,,,,,,,,,,,,,,,,,,,,,,,,,,,,,,,,,,,,,,,,,,,,,,,,,,,,,,,,,,,,,,,,,,,,,,,,,,,,,,,,,,,,,,,,,,,,,,,,,,,
1725618226.436835,1725618226.438864,110.0,0.0,4233.077148,4224.487305,4272.307617,4260.641113,4201.666504,4203.333496,4198.846191,4208.846191,4189.487305,4186.794922,4519.871582,4521.538574,4360.256348,4438.461426,0.0,2.0,35.0,,,,0.0,4.0,4.0,4.0,4.0,4.0,4.0,4.0,4.0,4.0,4.0,4.0,4.0,4.0,4.0,100.0,,,,,,,,,,,,,,,,,,,,,,,,,,,,,,,,,,,,,,,,,,,,,,,,,,,,,,,,,,,,,,,,,,,,,,,,,,,,,,,,,,,,,,,,,,,,,,,,,,,,,,,,,,,,,,,,,,,,,,,,,,,,,,,,,,,
1725618226.440739,1725618226.442768,111.0,0.0,4233.589844,4228.461426,4275.769043,4259.871582,4200.512695,4203.717773,4200.769043,4212.563965,4189.102539,4186.282227,4520.641113,4521.538574,4357.820313,4441.025879,0.0,2.0,35.0,,,,0.0,4.0,4.0,4.0,4.0,4.0,4.0,4.0,4.0,4.0,4.0,4.0,4.0,4.0,4.0,100.0,,,,,,,,,,,,,,,,,,,,,,,,,,,,,,,,,,,,,,,,,,,,,,,,,,,,,,,,,,,,,,,,,,,,,,,,,,,,,,,,,,,,,,,,,,,,,,,,,,,,,,,,,,,,,,,,,,,,,,,,,,,,,,,,,,,
1725618226.444643,1725618226.446672,112.0,0.0,4233.461426,4231.025879,4277.820313,4259.230957,4200.0,4201.666504,4205.641113,4213.846191,4188.846191,4188.461426,4521.922852,4522.436035,4358.205078,4442.94873,0.0,2.0,35.0,,,,0.0,4.0,4.0,4.0,4.0,4.0,4.0,4.0,4.0,4.0,4.0,4.0,4.0,4.0,4.0,100.0,,,,,,,,,,,,,,,,,,,,,,,,,,,,,,,,,,,,,,,,,,,,,,,,,,,,,,,,,,,,,,,,,,,,,,,,,,,,,,,,,,,,,,,,,,,,,,,,,,,,,,,,,,,,,,,,,,,,,,,,,,,,,,,,,,,
1725618226.448547,1725618226.450477,113.0,0.0,4233.333496,4231.410156,4277.94873,4259.743652,4201.282227,4199.743652,4211.025879,4214.487305,4190.256348,4192.563965,4523.846191,4525.769043,4361.153809,4443.974121,0.0,2.0,35.0,,,,0.0,4.0,4.0,4.0,4.0,4.0,4.0,4.0,4.0,4.0,4.0,4.0,4.0,4.0,4.0,100.0,,,,,,,,,,,,,,,,,,,,,,,,,,,,,,,,,,,,,,,,,,,,,,,,,,,,,,,,,,,,,,,,,,,,,,,,,,,,,,,,,,,,,,,,,,,,,,,,,,,,,,,,,,,,,,,,,,,,,,,,,,,,,,,,,,,
1725618226.452451,1725618226.454381,114.0,0.0,4233.846191,4230.512695,4277.563965,4261.538574,4204.487305,4200.384766,4214.871582,4216.922852,4194.230957,4196.538574,4525.769043,4531.794922,4365.384766,4444.743652,0.0,2.0,35.0,,,,0.0,4.0,4.0,4.0,4.0,4.0,4.0,4.0,4.0,4.0,4.0,4.0,4.0,4.0,4.0,100.0,,,,,,,,,,,,,,,,,,,,,,,,,,,,,,,,,,,,,,,,,,,,,,,,,,,,,,,,0.0,0.0,1.0,0.0,1.0,0.0,,,,,,,,,,,,,,,,,,,,,,,,,,,,,,,,,,,,,,,,,,,,,,,,,,,,,,,,,,,,,,,,,,,,,,
1725618226.456355,1725618226.458285,115.0,0.0,4235.256348,4229.743652,4277.563965,4263.717773,4209.230957,4204.230957,4215.897461,4221.153809,4199.230957,4199.102539,4526.922852,4538.461426,4368.333496,4445.641113,0.0,2.0,35.0,,,,0.0,4.0,4.0,4.0,4.0,4.0,4.0,4.0,4.0,4.0,4.0,4.0,4.0,4.0,4.0,100.0,,,,,,,,,,,,,,,,,,,,,,,,,,,,,,,,,,,,,,,,,,,,,,,,,,,,,,,,,,,,,,,,,,,,,,,,,,,,,,,,,,,,,,,,,,,,,,,,,,,,,,,,,,,,,,,,,,,,,,,,,,,,,,,,,,,
1725618226.46026,1725618226.462189,116.0,0.0,4237.563965,4229.615234,4278.589844,4265.0,4213.461426,4209.743652,4215.0,4224.871582,4202.94873,4199.615234,4527.179688,4542.692383,4368.333496,4446.282227,0.0,2.0,35.0,,,,0.0,4.0,4.0,4.0,4.0,4.0,4.0,4.0,4.0,4.0,4.0,4.0,4.0,4.0,4.0,100.0,,,,,,,,,,,,,,,,,,,,,,,,,,,,,,,,,,,,,,,,,,,,,,,,,,,,,,,,,,,,,,,,,,,,,,,,,,,,,,,,,,,,,,,,,,,,,,,,,,,,,,,,,,,,,,,,,,,,,,,,,,,,,,,,,,,
1725618226.464164,1725618226.465993,117.0,0.0,4240.256348,4230.128418,4279.871582,4264.871582,4215.512695,4214.358887,4213.461426,4226.025879,4203.589844,4198.974121,4526.410156,4542.563965,4364.871582,4446.025879,0.0,2.0,35.0,,,,0.0,4.0,4.0,4.0,4.0,4.0,4.0,4.0,4.0,4.0,4.0,4.0,4.0,4.0,4.0,100.0,,,,,,,,,,,,,,,,,,,,,,,,,,,,,,,,,,,,,,,,,,,,,,,,,,,,,,,,,,,,,,,,,,,,,,,,,,,,,,,,,,,,,,,,,,,,,,,,,,,,,,,,,,,,,,,,,,,,,,,,,,,,,,,,,,,
1725618226.468068,1725618226.469897,118.0,0.0,4243.077148,4231.025879,4280.641113,4264.743652,4215.128418,4216.794922,4212.94873,4223.974121,4201.410156,4198.461426,4525.384766,4539.487305,4360.256348,4445.641113,0.0,2.0,35.0,,,,0.0,4.0,4.0,4.0,4.0,4.0,4.0,4.0,4.0,4.0,4.0,4.0,4.0,4.0,4.0,100.0,,,,,,,,,,,,,,,,,,,,,,,,,,,,,,,,,,,,,,,,,,,,,,,,,,,,,,,,,,,,,,,,,,,,,,,,,,,,,,,,,,,,,,,,,,,,,,,,,,,,,,,,,,,,,,,,,,,,,,,,,,,,,,,,,,,
1725618226.471972,1725618226.473801,119.0,0.0,4245.512695,4231.922852,4281.025879,4266.153809,4213.589844,4217.05127,4213.974121,4220.0,4198.846191,4198.589844,4524.358887,4536.538574,4357.307617,4446.025879,0.0,2.0,35.0,,,,0.0,4.0,4.0,4.0,4.0,4.0,4.0,4.0,4.0,4.0,4.0,4.0,4.0,4.0,4.0,100.0,,,,,,,,,,,,,,,,,,,,,,,,,,,,,,,,,,,,,,,,,,,,,,,,,,,,,,,,,,,,,,,,,,,,,,,,,,,,,,,,,,,,,,,,,,,,,,,,,,,,,,,,,,,,,,,,,,,,,,,,,,,,,,,,,,,
1725618226.475876,1725618226.477706,120.0,0.0,4247.563965,4232.820313,4281.922852,4269.487305,4212.563965,4216.025879,4216.025879,4215.897461,4197.692383,4199.487305,4523.589844,4536.025879,4357.692383,4448.205078,0.0,2.0,35.0,,,,0.0,4.0,4.0,4.0,4.0,4.0,4.0,4.0,4.0,4.0,4.0,4.0,4.0,4.0,4.0,100.0,,,,,,,,,,,,,,,,,,,,,,,,,,,,,,,,,,,,,,,,,,,,,,,,,,,,,,,,,,,,,,,,,,,,,,,,,,,,,,,,,,,,,,,,,,,,,,,,,,,,,,,,,,,,,,,,,,,,,,,,,,,,,,,,,,,
1725618226.47978,1725618226.48151,121.0,0.0,4249.102539,4233.461426,4284.358887,4273.461426,4213.333496,4215.0,4217.820313,4213.461426,4198.461426,4200.256348,4523.333496,4537.820313,4360.384766,4451.922852,0.0,2.0,35.0,,,,0.0,4.0,4.0,4.0,4.0,4.0,4.0,4.0,4.0,4.0,4.0,4.0,4.0,4.0,4.0,100.0,,,,,,,,,,,,,,,,,,,,,,,,,,,,,,,,,,,,,,,,,,,,,,,,,,,,,,,,,,,,,,,,,,,,,,,,,,,,,,,,,,,,,,,,,,,,,,,,,,,,,,,,,,,,,,,,,,,,,,,,,,,,,,,,,,,
1725618226.483684,1725618226.485414,122.0,0.0,4250.0,4233.589844,4288.077148,4276.282227,4215.641113,4214.615234,4218.205078,4214.615234,4199.615234,4200.512695,4523.846191,4540.384766,4363.205078,4456.153809,0.0,2.0,35.0,,,,0.0,4.0,4.0,4.0,4.0,4.0,4.0,4.0,4.0,4.0,4.0,4.0,4.0,4.0,4.0,100.0,,,,,,,,,,,,,,,,,,,,,,,,,,,,,,,,,,,,,,,,,,,,,,,,,,,,,,,,0.0,0.0,1.0,0.0,1.0,0.0,,,,,,,,,,,,,,,,,,,,,,,,,,,,,,,,,,,,,,,,,,,,,,,,,,,,,,,,,,,,,,,,,,,,,,
1725618226.487588,1725618226.489318,123.0,0.0,4250.256348,4233.205078,4291.666504,4276.794922,4217.94873,4215.0,4217.307617,4219.358887,4200.384766,4200.128418,4525.384766,4542.05127,4364.487305,4459.230957,0.0,2.0,35.0,,,,0.0,4.0,4.0,4.0,4.0,4.0,4.0,4.0,4.0,4.0,4.0,4.0,4.0,4.0,4.0,100.0,,,,,,,,,,,,,,,,,,,,,,,,,,,,,,,,,,,,,,,,,,,,,,,,,,,,,,,,,,,,,,,,,,,,,,,,,,,,,,,,,,,,,,,,,,,,,,,,,,,,,,,,,,,,,,,,,,,,,,,,,,,,,,,,,,,
1725618226.491492,1725618226.493322,124.0,0.0,4250.0,4233.205078,4293.846191,4276.025879,4219.102539,4216.153809,4216.282227,4224.871582,4201.282227,4199.102539,4527.94873,4542.94873,4364.102539,4460.512695,0.0,2.0,35.0,,,,0.0,4.0,4.0,4.0,4.0,4.0,4.0,4.0,4.0,4.0,4.0,4.0,4.0,4.0,4.0,100.0,,,,,,,,,,,,,,,,,,,,,,,,,,,,,,,,,,,,,,,,,,,,,,,,,,,,,,,,,,,,,,,,,,,,,,,,,,,,,,,,,,,,,,,,,,,,,,,,,,,,,,,,,,,,,,,,,,,,,,,,,,,,,,,,,,,
1725618226.495397,1725618226.497226,125.0,0.0,4249.487305,4234.487305,4294.358887,4275.512695,4218.974121,4217.820313,4216.538574,4227.563965,4203.205078,4198.205078,4531.282227,4544.615234,4363.205078,4460.641113,0.0,2.0,35.0,,,,0.0,4.0,4.0,4.0,4.0,4.0,4.0,4.0,4.0,4.0,4.0,4.0,4.0,4.0,4.0,100.0,,,,,,,,,,,,,,,,,,,,,,,,,,,,,,,,,,,,,,,,,,,,,,,,,,,,,,,,,,,,,,,,,,,,,,,,,,,,,,,,,,,,,,,,,,,,,,,,,,,,,,,,,,,,,,,,,,,,,,,,,,,,,,,,,,,
1725618226.499301,1725618226.50113,126.0,0.0,4249.487305,4236.282227,4293.974121,4276.410156,4218.333496,4219.871582,4217.820313,4226.025879,4205.641113,4198.333496,4534.358887,4547.563965,4363.461426,4460.897461,0.0,2.0,35.0,,,,0.0,4.0,4.0,4.0,4.0,4.0,4.0,4.0,4.0,4.0,4.0,4.0,4.0,4.0,4.0,100.0,,,,,,,,,,,,,,,,,,,,,,,,,,,,,,,,,,,,,,,,,,,,,,,,,,,,,,,,,,,,,,,,,,,,,,,,,,,,,,,,,,,,,,,,,,,,,,,,,,,,,,,,,,,,,,,,,,,,,,,,,,,,,,,,,,,
1725618226.503205,1725618226.505134,127.0,0.0,4250.0,4236.922852,4293.077148,4278.205078,4217.820313,4220.384766,4218.974121,4221.410156,4206.025879,4200.0,4536.666504,4550.641113,4365.0,4461.282227,0.0,2.0,35.0,,,,0.0,4.0,4.0,4.0,4.0,4.0,4.0,4.0,4.0,4.0,4.0,4.0,4.0,4.0,4.0,100.0,,,,,,,,,,,,,,,,,,,,,,,,,,,,,,,,,,,,,,,,,,,,,,,,,,,,,,,,,,,,,,,,,,,,,,,,,,,,,,,,,,,,,,,,,,,,,,,,,,,,,,,,,,,,,,,,,,,,,,,,,,,,,,,,,,,
1725618226.507109,1725618226.509038,128.0,0.0,4250.512695,4235.512695,4292.563965,4279.358887,4217.307617,4218.461426,4218.717773,4217.05127,4203.461426,4203.077148,4537.05127,4552.307617,4367.692383,4461.538574,2615.0,2.0,35.0,,,,0.0,4.0,4.0,4.0,4.0,4.0,4.0,4.0,4.0,4.0,4.0,4.0,4.0,4.0,4.0,100.0,,,,,,,,,,,,,,,,,,,,,,,,,,,,,,,,,,,,,,,,,,,,,,,,,,,,,,,,,,,,,,,,,,,,,,,,,,,,,,,,,,,,,,,,,,,,,,,,,,,,,,,,,,,,,,,,,,,,,,,,,,,,,,,,,,,
1725618226.511013,1725618226.512942,129.0,0.0,4250.769043,4233.589844,4292.692383,4278.974121,4216.922852,4215.128418,4217.179688,4216.282227,4201.025879,4206.922852,4536.410156,4552.692383,4370.641113,4461.282227,2566.0,2.0,35.0,,,,0.0,4.0,4.0,4.0,4.0,4.0,4.0,4.0,4.0,4.0,4.0,4.0,4.0,4.0,4.0,100.0,,,,,,,,,,,,,,,,,,,,,,,,,,,,,,,,,,,,,,,,,,,,,,,,,,,,,,,,,,,,,,,,,,,,,,,,,,,,,,,,,,,,,,,,,,,,,,,,,,,,,,,,,,,,,,,,,,,,,,,,,,,,,,,,,,,
1725618226.514917,1725618226.516846,130.0,0.0,4251.025879,4234.487305,4293.589844,4278.205078,4217.05127,4213.846191,4216.282227,4220.769043,4202.307617,4210.897461,4536.538574,4553.589844,4373.077148,4461.282227,2451.0,2.0,35.0,,,,0.0,4.0,4.0,4.0,4.0,4.0,4.0,4.0,4.0,4.0,4.0,4.0,4.0,4.0,4.0,100.0,,,,,,,,,,,,,,,,,1.0,0.0,0.0,,,,,,,,,,,,,,,,,,,,,,,,,,,,,,,,,,,,,0.0,0.0,1.0,0.0,1.0,0.0,2.14574,1.21806,1.001574,0.291478,0.080301,1.483988,0.98019,0.615452,0.283063,0.073584,1.781621,0.849131,0.728472,0.289464,0.091821,1.349044,0.982754,0.608054,0.323959,0.070516,0.942875,0.593699,0.179989,0.155611,0.066764,0.175573,0.190031,0.203429,0.067066,0.043373,0.497839,0.25561,0.16469,0.101234,0.098686,1.153147,1.202395,0.698277,0.313732,0.158533,1.162312,1.616966,1.173409,0.255779,0.072156,1.503492,2.093914,1.422852,0.309245,0.071195,2.299773,2.011032,1.764406,0.691572,0.226155,1.974197,1.554716,1.791921,0.531188,0.122063,3.19402,2.091741,1.421421,0.442078,0.063929,2.61877,1.535381,1.298082,0.389263,0.081394
1725618226.518821,1725618226.520751,131.0,0.0,4251.922852,4239.615234,4294.615234,4279.615234,4218.589844,4217.179688,4217.05127,4229.358887,4208.205078,4214.487305,4539.358887,4556.153809,4374.358887,4461.538574,2461.0,2.0,35.0,,,,0.0,4.0,4.0,4.0,4.0,4.0,4.0,4.0,4.0,4.0,4.0,4.0,4.0,4.0,4.0,100.0,,,,,,,,,,,,,,,,,,,,,,,,,,,,,,,,,,,,,,,,,,,,,,,,,,,,,,,,,,,,,,,,,,,,,,,,,,,,,,,,,,,,,,,,,,,,,,,,,,,,,,,,,,,,,,,,,,,,,,,,,,,,,,,,,,,
1725618226.522725,1725618226.524555,132.0,0.0,4252.94873,4246.922852,4294.230957,4283.205078,4220.769043,4223.717773,4219.487305,4237.436035,4215.512695,4217.179688,4543.461426,4558.846191,4374.230957,4461.538574,2424.0,2.0,35.0,,,,0.0,4.0,4.0,4.0,4.0,4.0,4.0,4.0,4.0,4.0,4.0,4.0,4.0,4.0,4.0,100.0,,,,,,,,,,,,,,,,,,,,,,,,,,,,,,,,,,,,,,,,,,,,,,,,,,,,,,,,,,,,,,,,,,,,,,,,,,,,,,,,,,,,,,,,,,,,,,,,,,,,,,,,,,,,,,,,,,,,,,,,,,,,,,,,,,,
1725618226.526629,1725618226.528459,133.0,0.0,4252.94873,4252.05127,4290.897461,4285.897461,4221.538574,4228.333496,4221.538574,4239.358887,4219.358887,4218.461426,4545.128418,4558.205078,4372.94873,4459.615234,2391.0,2.0,35.0,,,,0.0,4.0,4.0,4.0,4.0,4.0,4.0,4.0,4.0,4.0,4.0,4.0,4.0,4.0,4.0,100.0,,,,,,,,,,,,,,,,,,,,,,,,,,,,,,,,,,,,,,,,,,,,,,,,,,,,,,,,,,,,,,,,,,,,,,,,,,,,,,,,,,,,,,,,,,,,,,,,,,,,,,,,,,,,,,,,,,,,,,,,,,,,,,,,,,,
1725618226.530533,1725618226.532363,134.0,0.0,4250.512695,4251.538574,4285.384766,4284.102539,4219.358887,4227.05127,4221.538574,4233.333496,4217.05127,4217.820313,4541.922852,4552.179688,4370.641113,4455.0,2182.0,2.0,35.0,,,,0.0,4.0,4.0,4.0,4.0,4.0,4.0,4.0,4.0,4.0,4.0,4.0,4.0,4.0,4.0,100.0,,,,,,,,,,,,,,,,,,,,,,,,,,,,,,,,,,,,,,,,,,,,,,,,,,,,,,,,,,,,,,,,,,,,,,,,,,,,,,,,,,,,,,,,,,,,,,,,,,,,,,,,,,,,,,,,,,,,,,,,,,,,,,,,,,,
1725618226.534438,1725618226.536367,135.0,0.0,4245.512695,4245.256348,4279.615234,4277.563965,4214.487305,4219.487305,4218.717773,4222.94873,4209.871582,4215.641113,4534.743652,4542.692383,4367.820313,4448.333496,2488.0,2.0,35.0,,,,0.0,4.0,4.0,4.0,4.0,4.0,4.0,4.0,4.0,4.0,4.0,4.0,4.0,4.0,4.0,100.0,,,,,,,,,,,,,,,,,,,,,,,,,,,,,,,,,,,,,,,,,,,,,,,,,,,,,,,,,,,,,,,,,,,,,,,,,,,,,,,,,,,,,,,,,,,,,,,,,,,,,,,,,,,,,,,,,,,,,,,,,,,,,,,,,,,
1725618226.538342,1725618226.540271,136.0,0.0,4239.102539,4236.538574,4275.512695,4269.743652,4209.487305,4210.128418,4214.615234,4214.487305,4201.922852,4212.692383,4527.692383,4534.102539,4365.256348,4441.666504,2478.0,2.0,35.0,,,,0.0,4.0,4.0,4.0,4.0,4.0,4.0,4.0,4.0,4.0,4.0,4.0,4.0,4.0,4.0,100.0,,,,,,,,,,,,,,,,,,,,,,,,,,,,,,,,,,,,,,,,,,,,,,,,,,,,,,,,,,,,,,,,,,,,,,,,,,,,,,,,,,,,,,,,,,,,,,,,,,,,,,,,,,,,,,,,,,,,,,,,,,,,,,,,,,,
1725618226.542246,1725618226.544175,137.0,0.0,4233.589844,4230.128418,4273.717773,4265.641113,4207.179688,4205.256348,4211.666504,4211.922852,4197.692383,4210.256348,4524.615234,4530.256348,4364.102539,4437.692383,2546.0,2.0,35.0,,,,0.0,4.0,4.0,4.0,4.0,4.0,4.0,4.0,4.0,4.0,4.0,4.0,4.0,4.0,4.0,100.0,,,,,,,,,,,,,,,,,,,,,,,,,,,,,,,,,,,,,,,,,,,,,,,,,,,,,,,,,,,,,,,,,,,,,,,,,,,,,,,,,,,,,,,,,,,,,,,,,,,,,,,,,,,,,,,,,,,,,,,,,,,,,,,,,,,
1725618226.54615,1725618226.548079,138.0,0.0,4230.641113,4228.974121,4273.717773,4267.05127,4208.461426,4207.692383,4211.794922,4214.230957,4198.461426,4209.102539,4526.282227,4531.666504,4365.256348,4437.820313,2889.0,2.0,35.0,,,,0.0,4.0,4.0,4.0,4.0,4.0,4.0,4.0,4.0,4.0,4.0,4.0,4.0,4.0,4.0,100.0,,,,,,,,,,,,,,,,,,,,,,,,,,,,,,,,,,,,,,,,,,,,,,,,,,,,,,,,0.0,0.0,1.0,0.0,1.0,0.0,,,,,,,,,,,,,,,,,,,,,,,,,,,,,,,,,,,,,,,,,,,,,,,,,,,,,,,,,,,,,,,,,,,,,,
1725618226.550054,1725618226.551983,139.0,0.0,4230.897461,4231.794922,4274.230957,4271.410156,4212.05127,4215.0,4214.487305,4217.563965,4201.922852,4209.102539,4530.512695,4535.128418,4367.179688,4440.897461,3057.0,2.0,35.0,,,,0.0,4.0,4.0,4.0,4.0,4.0,4.0,4.0,4.0,4.0,4.0,4.0,4.0,4.0,4.0,100.0,,,,,,,,,,,,,,,,,,,,,,,,,,,,,,,,,,,,,,,,,,,,,,,,,,,,,,,,,,,,,,,,,,,,,,,,,,,,,,,,,,,,,,,,,,,,,,,,,,,,,,,,,,,,,,,,,,,,,,,,,,,,,,,,,,,
1725618226.553958,1725618226.555788,140.0,0.0,4233.077148,4234.871582,4273.589844,4274.487305,4215.256348,4221.282227,4217.307617,4219.230957,4204.102539,4208.846191,4532.94873,4536.410156,4367.436035,4443.205078,3410.0,2.0,35.0,,,,0.0,4.0,4.0,4.0,4.0,4.0,4.0,4.0,4.0,4.0,4.0,4.0,4.0,4.0,4.0,100.0,,,,,,,,,,,,,,,,,,,,,,,,,,,,,,,,,,,,,,,,,,,,,,,,,,,,,,,,,,,,,,,,,,,,,,,,,,,,,,,,,,,,,,,,,,,,,,,,,,,,,,,,,,,,,,,,,,,,,,,,,,,,,,,,,,,
1725618226.557862,1725618226.559692,141.0,0.0,4234.743652,4235.641113,4271.153809,4273.205078,4216.282227,4221.922852,4218.205078,4219.358887,4202.692383,4207.307617,4530.641113,4533.333496,4365.0,4442.820313,3881.0,2.0,35.0,,,,0.0,4.0,4.0,4.0,4.0,4.0,4.0,4.0,4.0,4.0,4.0,4.0,4.0,4.0,4.0,100.0,,,,,,,,,,,,,,,,,,,,,,,,,,,,,,,,,,,,,,,,,,,,,,,,,,,,,,,,,,,,,,,,,,,,,,,,,,,,,,,,,,,,,,,,,,,,,,,,,,,,,,,,,,,,,,,,,,,,,,,,,,,,,,,,,,,
1725618226.561766,1725618226.563596,142.0,0.0,4234.230957,4234.358887,4268.077148,4268.461426,4215.384766,4217.563965,4216.538574,4218.717773,4198.589844,4204.871582,4524.358887,4527.820313,4361.538574,4440.0,2889.0,2.0,35.0,,,,0.0,4.0,4.0,4.0,4.0,4.0,4.0,4.0,4.0,4.0,4.0,4.0,4.0,4.0,4.0,100.0,,,,,,,,,,,,,,,,,,,,,,,,,,,,,,,,,,,,,,,,,,,,,,,,,,,,,,,,,,,,,,,,,,,,,,,,,,,,,,,,,,,,,,,,,,,,,,,,,,,,,,,,,,,,,,,,,,,,,,,,,,,,,,,,,,,
1725618226.56567,1725618226.5675,143.0,0.0,4232.307617,4233.717773,4266.025879,4264.102539,4213.974121,4212.05127,4213.846191,4217.436035,4195.384766,4202.563965,4518.333496,4523.333496,4360.512695,4437.05127,3057.0,2.0,35.0,,,,0.0,4.0,4.0,4.0,4.0,4.0,4.0,4.0,4.0,4.0,4.0,4.0,4.0,4.0,4.0,100.0,,,,,,,,,,,,,,,,,,,,,,,,,,,,,,,,,,,,,,,,,,,,,,,,,,,,,,,,,,,,,,,,,,,,,,,,,,,,,,,,,,,,,,,,,,,,,,,,,,,,,,,,,,,,,,,,,,,,,,,,,,,,,,,,,,,
1725618226.569574,1725618226.571304,144.0,0.0,4231.282227,4236.025879,4266.538574,4263.461426,4213.974121,4209.743652,4211.922852,4214.358887,4195.641113,4200.897461,4516.538574,4522.05127,4363.205078,4436.153809,3410.0,2.0,35.0,,,,0.0,4.0,4.0,4.0,4.0,4.0,4.0,4.0,4.0,4.0,4.0,4.0,4.0,4.0,4.0,100.0,,,,,,,,,,,,,,,,,,,,,,,,,,,,,,,,,,,,,,,,,,,,,,,,,,,,,,,,,,,,,,,,,,,,,,,,,,,,,,,,,,,,,,,,,,,,,,,,,,,,,,,,,,,,,,,,,,,,,,,,,,,,,,,,,,,
1725618226.573479,1725618226.575208,145.0,0.0,4232.692383,4240.897461,4269.102539,4267.307617,4215.512695,4211.922852,4211.410156,4209.743652,4198.589844,4200.0,4519.743652,4523.333496,4368.205078,4437.05127,3881.0,2.0,35.0,,,,0.0,4.0,4.0,4.0,4.0,4.0,4.0,4.0,4.0,4.0,4.0,4.0,4.0,4.0,4.0,100.0,,,,,,,,,,,,,,,,,,,,,,,,,,,,,,,,,,,,,,,,,,,,,,,,,,,,,,,,,,,,,,,,,,,,,,,,,,,,,,,,,,,,,,,,,,,,,,,,,,,,,,,,,,,,,,,,,,,,,,,,,,,,,,,,,,,
1725618226.577383,1725618226.579112,146.0,0.0,4236.282227,4245.769043,4271.922852,4273.333496,4217.436035,4216.025879,4211.794922,4205.512695,4200.512695,4200.128418,4525.512695,4525.512695,4373.589844,4438.461426,2889.0,2.0,35.0,,,,0.0,4.0,4.0,4.0,4.0,4.0,4.0,4.0,4.0,4.0,4.0,4.0,4.0,4.0,4.0,100.0,,,,,,,,,,,,,,,,,,,,,,,,,,,,,,,,,,,,,,,,,,,,,,,,,,,,,,,,0.0,0.0,1.0,0.0,1.0,0.0,,,,,,,,,,,,,,,,,,,,,,,,,,,,,,,,,,,,,,,,,,,,,,,,,,,,,,,,,,,,,,,,,,,,,,
1725618226.581287,1725618226.583116,147.0,0.0,4240.384766,4248.333496,4274.230957,4277.820313,4218.205078,4218.461426,4212.436035,4204.230957,4199.743652,4201.538574,4531.025879,4527.692383,4378.077148,4440.128418,3057.0,2.0,35.0,,,,0.0,4.0,4.0,4.0,4.0,4.0,4.0,4.0,4.0,4.0,4.0,4.0,4.0,4.0,4.0,100.0,,,,,,,,,,,,,,,,,,,,,,,,,,,,,,,,,,,,,,,,,,,,,,,,,,,,,,,,,,,,,,,,,,,,,,,,,,,,,,,,,,,,,,,,,,,,,,,,,,,,,,,,,,,,,,,,,,,,,,,,,,,,,,,,,,,
1725618226.585191,1725618226.58702,148.0,0.0,4244.230957,4248.589844,4276.794922,4279.230957,4217.436035,4217.94873,4212.94873,4207.563965,4198.589844,4205.128418,4535.256348,4531.538574,4382.179688,4443.077148,3410.0,2.0,35.0,,,,0.0,4.0,4.0,4.0,4.0,4.0,4.0,4.0,4.0,4.0,4.0,4.0,4.0,4.0,4.0,100.0,,,,,,,,,,,,,,,,,,,,,,,,,,,,,,,,,,,,,,,,,,,,,,,,,,,,,,,,,,,,,,,,,,,,,,,,,,,,,,,,,,,,,,,,,,,,,,,,,,,,,,,,,,,,,,,,,,,,,,,,,,,,,,,,,,,
1725618226.589095,1725618226.590925,149.0,0.0,4248.205078,4248.461426,4280.384766,4278.846191,4216.538574,4216.153809,4213.974121,4216.025879,4200.256348,4210.384766,4539.230957,4538.333496,4387.179688,4448.461426,3881.0,2.0,35.0,,,,0.0,4.0,4.0,4.0,4.0,4.0,4.0,4.0,4.0,4.0,4.0,4.0,4.0,4.0,4.0,100.0,,,,,,,,,,,,,,,,,,,,,,,,,,,,,,,,,,,,,,,,,,,,,,,,,,,,,,,,,,,,,,,,,,,,,,,,,,,,,,,,,,,,,,,,,,,,,,,,,,,,,,,,,,,,,,,,,,,,,,,,,,,,,,,,,,,
1725618226.592999,1725618226.594829,150.0,0.0,4253.333496,4250.512695,4285.384766,4278.717773,4216.922852,4215.384766,4215.897461,4226.794922,4205.512695,4216.025879,4543.974121,4547.307617,4392.820313,4455.384766,2889.0,2.0,35.0,,,,0.0,4.0,4.0,4.0,4.0,4.0,4.0,4.0,4.0,4.0,4.0,4.0,4.0,4.0,4.0,100.0,,,,,,,,,,,,,,,,,,,,,,,,,,,,,,,,,,,,,,,,,,,,,,,,,,,,,,,,,,,,,,,,,,,,,,,,,,,,,,,,,,,,,,,,,,,,,,,,,,,,,,,,,,,,,,,,,,,,,,,,,,,,,,,,,,,
1725618226.596903,1725618226.598633,151.0,0.0,4259.102539,4255.128418,4290.384766,4280.512695,4218.077148,4216.410156,4217.94873,4235.512695,4211.666504,4219.743652,4549.230957,4555.0,4397.820313,4460.897461,3057.0,2.0,35.0,,,,0.0,4.0,4.0,4.0,4.0,4.0,4.0,4.0,4.0,4.0,4.0,4.0,4.0,4.0,4.0,100.0,,,,,,,,,,,,,,,,,,,,,,,,,,,,,,,,,,,,,,,,,,,,,,,,,,,,,,,,,,,,,,,,,,,,,,,,,,,,,,,,,,,,,,,,,,,,,,,,,,,,,,,,,,,,,,,,,,,,,,,,,,,,,,,,,,,
1725618226.600807,1725618226.602537,152.0,0.0,4263.974121,4260.512695,4294.230957,4283.589844,4218.974121,4218.205078,4219.230957,4238.333496,4215.769043,4220.256348,4553.205078,4558.333496,4400.641113,4462.94873,3410.0,2.0,35.0,,,,0.0,4.0,4.0,4.0,4.0,4.0,4.0,4.0,4.0,4.0,4.0,4.0,4.0,4.0,4.0,100.0,,,,,,,,,,,,,,,,,,,,,,,,,,,,,,,,,,,,,,,,,,,,,,,,,,,,,,,,,,,,,,,,,,,,,,,,,,,,,,,,,,,,,,,,,,,,,,,,,,,,,,,,,,,,,,,,,,,,,,,,,,,,,,,,,,,
1725618226.604711,1725618226.606441,153.0,0.0,4266.666504,4264.615234,4296.538574,4287.05127,4218.846191,4219.743652,4219.230957,4235.0,4216.538574,4218.205078,4555.0,4557.436035,4401.025879,4462.563965,3881.0,2.0,35.0,,,,0.0,4.0,4.0,4.0,4.0,4.0,4.0,4.0,4.0,4.0,4.0,4.0,4.0,4.0,4.0,100.0,,,,,,,,,,,,,,,,,,,,,,,,,,,,,,,,,,,,,,,,,,,,,,,,,,,,,,,,,,,,,,,,,,,,,,,,,,,,,,,,,,,,,,,,,,,,,,,,,,,,,,,,,,,,,,,,,,,,,,,,,,,,,,,,,,,
1725618226.608616,1725618226.610445,154.0,0.0,4267.307617,4266.410156,4297.692383,4290.512695,4218.333496,4220.128418,4218.205078,4228.717773,4214.615234,4216.410156,4555.897461,4555.256348,4400.512695,4463.077148,2889.0,2.0,35.0,,,,0.0,4.0,4.0,4.0,4.0,4.0,4.0,4.0,4.0,4.0,4.0,4.0,4.0,4.0,4.0,100.0,,,,,,,,,,,,,,,,,,,,,,,,,,,,,,,,,,,,,,,,,,,,,,,,,,,,,,,,0.0,0.0,1.0,0.0,1.0,0.0,,,,,,,,,,,,,,,,,,,,,,,,,,,,,,,,,,,,,,,,,,,,,,,,,,,,,,,,,,,,,,,,,,,,,,
1725618226.61252,1725618226.614349,155.0,0.0,4266.666504,4266.666504,4297.94873,4293.461426,4218.077148,4219.230957,4217.05127,4222.563965,4211.282227,4217.179688,4556.666504,4554.230957,4400.641113,4466.794922,3057.0,2.0,35.0,,,,0.0,4.0,4.0,4.0,4.0,4.0,4.0,4.0,4.0,4.0,4.0,4.0,4.0,4.0,4.0,100.0,,,,,,,,,,,,,,,,,,,,,,,,,,,,,,,,,,,,,,,,,,,,,,,,,,,,,,,,,,,,,,,,,,,,,,,,,,,,,,,,,,,,,,,,,,,,,,,,,,,,,,,,,,,,,,,,,,,,,,,,,,,,,,,,,,,
1725618226.616424,1725618226.618253,156.0,0.0,4265.641113,4267.307617,4297.436035,4294.743652,4218.205078,4217.436035,4216.153809,4217.94873,4208.077148,4220.0,4556.794922,4554.487305,4401.410156,4472.563965,3410.0,2.0,35.0,,,,0.0,4.0,4.0,4.0,4.0,4.0,4.0,4.0,4.0,4.0,4.0,4.0,4.0,4.0,4.0,100.0,,,,,,,,,,,,,,,,,,,,,,,,,,,,,,,,,,,,,,,,,,,,,,,,,,,,,,,,,,,,,,,,,,,,,,,,,,,,,,,,,,,,,,,,,,,,,,,,,,,,,,,,,,,,,,,,,,,,,,,,,,,,,,,,,,,
1725618226.620328,1725618226.622157,157.0,0.0,4265.128418,4269.615234,4296.922852,4293.589844,4218.077148,4215.897461,4215.769043,4214.743652,4205.769043,4221.922852,4555.512695,4554.615234,4401.410156,4476.410156,3881.0,2.0,35.0,,,,0.0,4.0,4.0,4.0,4.0,4.0,4.0,4.0,4.0,4.0,4.0,4.0,4.0,4.0,4.0,100.0,,,,,,,,,,,,,,,,,,,,,,,,,,,,,,,,,,,,,,,,,,,,,,,,,,,,,,,,,,,,,,,,,,,,,,,,,,,,,,,,,,,,,,,,,,,,,,,,,,,,,,,,,,,,,,,,,,,,,,,,,,,,,,,,,,,
1725618226.624232,1725618226.626061,158.0,0.0,4265.641113,4273.589844,4297.05127,4290.897461,4217.563965,4215.641113,4215.769043,4213.077148,4204.743652,4220.897461,4553.333496,4554.102539,4399.487305,4476.025879,2889.0,2.0,35.0,,,,0.0,4.0,4.0,4.0,4.0,4.0,4.0,4.0,4.0,4.0,4.0,4.0,4.0,4.0,4.0,100.0,,,,,,,,,,,,,,,,,,,,,,,,,,,,,,,,,,,,,,,,,,,,,,,,,,,,,,,,,,,,,,,,,,,,,,,,,,,,,,,,,,,,,,,,,,,,,,,,,,,,,,,,,,,,,,,,,,,,,,,,,,,,,,,,,,,
1725618226.628136,1725618226.629866,159.0,0.0,4267.05127,4277.563965,4298.333496,4289.615234,4217.179688,4216.794922,4215.512695,4213.461426,4204.358887,4218.205078,4552.179688,4553.846191,4396.282227,4472.307617,3057.0,2.0,35.0,,,,0.0,4.0,4.0,4.0,4.0,4.0,4.0,4.0,4.0,4.0,4.0,4.0,4.0,4.0,4.0,100.0,,,,,,,,,,,,,,,,,,,,,,,,,,,,,,,,,,,,,,,,,,,,,,,,,,,,,,,,,,,,,,,,,,,,,,,,,,,,,,,,,,,,,,,,,,,,,,,,,,,,,,,,,,,,,,,,,,,,,,,,,,,,,,,,,,,
1725618226.63204,1725618226.63377,160.0,0.0,4268.717773,4280.128418,4300.128418,4291.282227,4217.436035,4218.461426,4215.256348,4216.153809,4204.102539,4217.436035,4553.333496,4555.256348,4392.94873,4468.461426,3410.0,2.0,35.0,,,,0.0,4.0,4.0,4.0,4.0,4.0,4.0,4.0,4.0,4.0,4.0,4.0,4.0,4.0,4.0,100.0,,,,,,,,,,,,,,,,,,,,,,,,,,,,,,,,,,,,,,,,,,,,,,,,,,,,,,,,,,,,,,,,,,,,,,,,,,,,,,,,,,,,,,,,,,,,,,,,,,,,,,,,,,,,,,,,,,,,,,,,,,,,,,,,,,,
1725618226.635944,1725618226.637674,161.0,0.0,4270.128418,4281.153809,4302.307617,4295.128418,4218.205078,4219.615234,4215.512695,4219.230957,4203.461426,4219.743652,4555.641113,4557.820313,4390.384766,4467.563965,3881.0,2.0,35.0,,,,0.0,4.0,4.0,4.0,4.0,4.0,4.0,4.0,4.0,4.0,4.0,4.0,4.0,4.0,4.0,100.0,,,,,,,,,,,,,,,,,,,,,,,,,,,,,,,,,,,,,,,,,,,,,,,,,,,,,,,,,,,,,,,,,,,,,,,,,,,,,,,,,,,,,,,,,,,,,,,,,,,,,,,,,,,,,,,,,,,,,,,,,,,,,,,,,,,
1725618226.639848,1725618226.641678,162.0,0.0,4270.512695,4281.282227,4303.846191,4297.820313,4219.230957,4219.487305,4216.538574,4220.769043,4202.179688,4222.820313,4556.538574,4559.358887,4387.563965,4469.487305,2889.0,2.0,35.0,,,,0.0,4.0,4.0,4.0,4.0,4.0,4.0,4.0,4.0,4.0,4.0,4.0,4.0,4.0,4.0,100.0,,,,,,,,,,,,,,,,,1.0,0.0,0.0,,,,,,,,,,,,,,,,,,,,,,,,,,,,,,,,,,,,,0.0,0.0,1.0,0.0,1.0,0.0,1.973772,0.97947,0.959201,0.319541,0.069561,1.604868,0.927697,0.676863,0.294767,0.076824,1.584029,0.77387,0.71,0.342173,0.092827,1.34206,0.817982,0.597774,0.371145,0.078988,0.881966,0.544502,0.214549,0.160385,0.066235,0.133074,0.208456,0.244798,0.078344,0.044841,0.450775,0.223395,0.20962,0.100228,0.111997,1.028073,1.132407,0.562946,0.338744,0.136932,0.967602,1.881914,1.201809,0.300499,0.070454,1.511489,2.517035,1.755676,0.341053,0.080815,1.831618,1.900048,1.651033,0.702887,0.258553,1.759931,1.49129,1.667217,0.544885,0.118355,2.71264,2.121946,1.343712,0.497946,0.079407,2.272541,1.323491,1.153164,0.403865,0.079283
1725618226.643752,1725618226.645582,163.0,0.0,4269.358887,4281.025879,4302.94873,4296.538574,4219.615234,4218.461426,4217.563965,4219.871582,4200.512695,4222.436035,4553.974121,4557.179688,4382.692383,4471.153809,3057.0,2.0,35.0,,,,0.0,4.0,4.0,4.0,4.0,4.0,4.0,4.0,4.0,4.0,4.0,4.0,4.0,4.0,4.0,100.0,,,,,,,,,,,,,,,,,,,,,,,,,,,,,,,,,,,,,,,,,,,,,,,,,,,,,,,,,,,,,,,,,,,,,,,,,,,,,,,,,,,,,,,,,,,,,,,,,,,,,,,,,,,,,,,,,,,,,,,,,,,,,,,,,,,
1725618226.647657,1725618226.649486,164.0,0.0,4266.410156,4280.128418,4298.589844,4291.410156,4219.102539,4217.179688,4217.563965,4216.666504,4198.846191,4217.179688,4548.205078,4550.512695,4374.743652,4468.846191,3410.0,2.0,35.0,,,,0.0,4.0,4.0,4.0,4.0,4.0,4.0,4.0,4.0,4.0,4.0,4.0,4.0,4.0,4.0,100.0,,,,,,,,,,,,,,,,,,,,,,,,,,,,,,,,,,,,,,,,,,,,,,,,,,,,,,,,,,,,,,,,,,,,,,,,,,,,,,,,,,,,,,,,,,,,,,,,,,,,,,,,,,,,,,,,,,,,,,,,,,,,,,,,,,,
1725618226.651561,1725618226.65339,165.0,0.0,4262.05127,4278.333496,4291.538574,4284.743652,4218.461426,4216.794922,4215.769043,4213.077148,4197.563965,4209.743652,4541.666504,4542.436035,4365.641113,4462.179688,3881.0,2.0,35.0,,,,0.0,4.0,4.0,4.0,4.0,4.0,4.0,4.0,4.0,4.0,4.0,4.0,4.0,4.0,4.0,100.0,,,,,,,,,,,,,,,,,,,,,,,,,,,,,,,,,,,,,,,,,,,,,,,,,,,,,,,,,,,,,,,,,,,,,,,,,,,,,,,,,,,,,,,,,,,,,,,,,,,,,,,,,,,,,,,,,,,,,,,,,,,,,,,,,,,
1725618226.655465,1725618226.657294,166.0,0.0,4257.179688,4276.153809,4285.256348,4279.871582,4217.820313,4217.563965,4212.692383,4211.410156,4197.563965,4204.743652,4537.563965,4537.307617,4358.717773,4454.358887,2889.0,2.0,35.0,,,,0.0,4.0,4.0,4.0,4.0,4.0,4.0,4.0,4.0,4.0,4.0,4.0,4.0,4.0,4.0,100.0,,,,,,,,,,,,,,,,,,,,,,,,,,,,,,,,,,,,,,,,,,,,,,,,,,,,,,,,,,,,,,,,,,,,,,,,,,,,,,,,,,,,,,,,,,,,,,,,,,,,,,,,,,,,,,,,,,,,,,,,,,,,,,,,,,,
1725618226.659369,1725618226.661099,167.0,0.0,4252.436035,4274.230957,4282.436035,4278.333496,4217.179688,4218.974121,4208.974121,4212.94873,4199.358887,4204.743652,4537.307617,4537.436035,4355.512695,4449.487305,3057.0,2.0,35.0,,,,0.0,4.0,4.0,4.0,4.0,4.0,4.0,4.0,4.0,4.0,4.0,4.0,4.0,4.0,4.0,100.0,,,,,,,,,,,,,,,,,,,,,,,,,,,,,,,,,,,,,,,,,,,,,,,,,,,,,,,,,,,,,,,,,,,,,,,,,,,,,,,,,,,,,,,,,,,,,,,,,,,,,,,,,,,,,,,,,,,,,,,,,,,,,,,,,,,
1725618226.663273,1725618226.665003,168.0,0.0,4248.333496,4271.794922,4282.307617,4278.461426,4215.384766,4219.230957,4205.512695,4216.922852,4202.179688,4207.94873,4539.230957,4540.384766,4354.102539,4448.461426,3410.0,2.0,35.0,,,,0.0,4.0,4.0,4.0,4.0,4.0,4.0,4.0,4.0,4.0,4.0,4.0,4.0,4.0,4.0,100.0,,,,,,,,,,,,,,,,,,,,,,,,,,,,,,,,,,,,,,,,,,,,,,,,,,,,,,,,,,,,,,,,,,,,,,,,,,,,,,,,,,,,,,,,,,,,,,,,,,,,,,,,,,,,,,,,,,,,,,,,,,,,,,,,,,,
1725618226.667177,1725618226.668907,169.0,0.0,4244.487305,4267.563965,4281.153809,4277.179688,4212.05127,4217.692383,4202.94873,4220.256348,4203.717773,4210.0,4539.743652,4540.641113,4350.641113,4447.94873,3881.0,2.0,35.0,,,,0.0,4.0,4.0,4.0,4.0,4.0,4.0,4.0,4.0,4.0,4.0,4.0,4.0,4.0,4.0,100.0,,,,,,,,,,,,,,,,,,,,,,,,,,,,,,,,,,,,,,,,,,,,,,,,,,,,,,,,,,,,,,,,,,,,,,,,,,,,,,,,,,,,,,,,,,,,,,,,,,,,,,,,,,,,,,,,,,,,,,,,,,,,,,,,,,,
1725618226.671081,1725618226.672811,170.0,0.0,4240.256348,4261.538574,4276.153809,4271.666504,4207.436035,4215.0,4201.538574,4219.871582,4202.179688,4208.333496,4535.512695,4533.974121,4342.307617,4443.846191,2889.0,2.0,35.0,,,,0.0,4.0,4.0,4.0,4.0,4.0,4.0,4.0,4.0,4.0,4.0,4.0,4.0,4.0,4.0,100.0,,,,,,,,,,,,,,,,,,,,,,,,,,,,,,,,,,,,,,,,,,,,,,,,,,,,,,,,0.0,0.0,1.0,0.0,1.0,0.0,,,,,,,,,,,,,,,,,,,,,,,,,,,,,,,,,,,,,,,,,,,,,,,,,,,,,,,,,,,,,,,,,,,,,,
1725618226.674985,1725618226.676615,171.0,0.0,4235.512695,4255.0,4268.589844,4262.563965,4203.077148,4213.205078,4201.282227,4215.128418,4197.94873,4203.461426,4527.179688,4521.666504,4330.0,4435.128418,3057.0,2.0,35.0,,,,0.0,4.0,4.0,4.0,4.0,4.0,4.0,4.0,4.0,4.0,4.0,4.0,4.0,4.0,4.0,100.0,,,,,,,,,,,,,,,,,,,,,,,,,,,,,,,,,,,,,,,,,,,,,,,,,,,,,,,,,,,,,,,,,,,,,,,,,,,,,,,,,,,,,,,,,,,,,,,,,,,,,,,,,,,,,,,,,,,,,,,,,,,,,,,,,,,
1725618226.678889,1725618226.680519,172.0,0.0,4230.641113,4250.384766,4262.05127,4253.846191,4201.153809,4213.589844,4201.538574,4208.461426,4193.846191,4197.94873,4518.461426,4509.230957,4316.922852,4424.615234,3410.0,2.0,35.0,,,,0.0,4.0,4.0,4.0,4.0,4.0,4.0,4.0,4.0,4.0,4.0,4.0,4.0,4.0,4.0,100.0,,,,,,,,,,,,,,,,,,,,,,,,,,,,,,,,,,,,,,,,,,,,,,,,,,,,,,,,,,,,,,,,,,,,,,,,,,,,,,,,,,,,,,,,,,,,,,,,,,,,,,,,,,,,,,,,,,,,,,,,,,,,,,,,,,,
1725618226.682794,1725618226.684423,173.0,0.0,4226.282227,4248.205078,4259.487305,4248.974121,4201.794922,4214.871582,4201.666504,4203.461426,4191.153809,4193.077148,4512.94873,4502.307617,4307.307617,4416.922852,3881.0,2.0,35.0,,,,0.0,4.0,4.0,4.0,4.0,4.0,4.0,4.0,4.0,4.0,4.0,4.0,4.0,4.0,4.0,100.0,,,,,,,,,,,,,,,,,,,,,,,,,,,,,,,,,,,,,,,,,,,,,,,,,,,,,,,,,,,,,,,,,,,,,,,,,,,,,,,,,,,,,,,,,,,,,,,,,,,,,,,,,,,,,,,,,,,,,,,,,,,,,,,,,,,
1725618226.686698,1725618226.688227,174.0,0.0,4222.307617,4246.922852,4259.871582,4248.077148,4203.717773,4215.128418,4201.025879,4201.794922,4189.102539,4188.205078,4510.256348,4501.538574,4301.666504,4413.589844,2889.0,2.0,35.0,,,,0.0,4.0,4.0,4.0,4.0,4.0,4.0,4.0,4.0,4.0,4.0,4.0,4.0,4.0,4.0,100.0,,,,,,,,,,,,,,,,,,,,,,,,,,,,,,,,,,,,,,,,,,,,,,,,,,,,,,,,,,,,,,,,,,,,,,,,,,,,,,,,,,,,,,,,,,,,,,,,,,,,,,,,,,,,,,,,,,,,,,,,,,,,,,,,,,,
1725618226.690602,1725618226.692132,175.0,0.0,4217.820313,4244.102539,4259.358887,4248.717773,4204.615234,4213.077148,4199.615234,4201.794922,4186.538574,4182.05127,4507.692383,4503.333496,4298.077148,4412.563965,3057.0,2.0,35.0,,,,0.0,4.0,4.0,4.0,4.0,4.0,4.0,4.0,4.0,4.0,4.0,4.0,4.0,4.0,4.0,100.0,,,,,,,,,,,,,,,,,,,,,,,,,,,,,,,,,,,,,,,,,,,,,,,,,,,,,,,,,,,,,,,,,,,,,,,,,,,,,,,,,,,,,,,,,,,,,,,,,,,,,,,,,,,,,,,,,,,,,,,,,,,,,,,,,,,
1725618226.694506,1725618226.696036,176.0,0.0,4213.333496,4239.743652,4255.512695,4248.333496,4203.589844,4209.102539,4197.94873,4201.666504,4183.333496,4175.769043,4503.846191,4503.461426,4293.974121,4411.666504,3410.0,2.0,35.0,,,,0.0,4.0,4.0,4.0,4.0,4.0,4.0,4.0,4.0,4.0,4.0,4.0,4.0,4.0,4.0,100.0,,,,,,,,,,,,,,,,,,,,,,,,,,,,,,,,,,,,,,,,,,,,,,,,,,,,,,,,,,,,,,,,,,,,,,,,,,,,,,,,,,,,,,,,,,,,,,,,,,,,,,,,,,,,,,,,,,,,,,,,,,,,,,,,,,,
1725618226.69841,1725618226.69994,177.0,0.0,4210.512695,4235.769043,4249.871582,4247.179688,4201.666504,4205.512695,4197.05127,4201.025879,4181.538574,4172.692383,4500.641113,4501.538574,4289.615234,4410.641113,3881.0,2.0,35.0,,,,0.0,4.0,4.0,4.0,4.0,4.0,4.0,4.0,4.0,4.0,4.0,4.0,4.0,4.0,4.0,100.0,,,,,,,,,,,,,,,,,,,,,,,,,,,,,,,,,,,,,,,,,,,,,,,,,,,,,,,,,,,,,,,,,,,,,,,,,,,,,,,,,,,,,,,,,,,,,,,,,,,,,,,,,,,,,,,,,,,,,,,,,,,,,,,,,,,
1725618226.702314,1725618226.703744,178.0,0.0,4211.538574,4235.0,4247.179688,4247.179688,4200.384766,4204.487305,4197.436035,4202.05127,4182.94873,4176.153809,4501.666504,4500.897461,4287.179688,4411.666504,2889.0,2.0,35.0,,,,0.0,4.0,4.0,4.0,4.0,4.0,4.0,4.0,4.0,4.0,4.0,4.0,4.0,4.0,4.0,100.0,,,,,,,,,,,,,,,,,,,,,,,,,,,,,,,,,,,,,,,,,,,,,,,,,,,,,,,,0.0,0.0,1.0,0.0,1.0,0.0,,,,,,,,,,,,,,,,,,,,,,,,,,,,,,,,,,,,,,,,,,,,,,,,,,,,,,,,,,,,,,,,,,,,,,
1725618226.706218,1725618226.707648,179.0,0.0,4216.922852,4238.589844,4250.897461,4249.743652,4200.769043,4205.641113,4198.461426,4206.666504,4187.692383,4186.025879,4508.205078,4505.0,4288.846191,4416.282227,3057.0,2.0,35.0,,,,0.0,4.0,4.0,4.0,4.0,4.0,4.0,4.0,4.0,4.0,4.0,4.0,4.0,4.0,4.0,100.0,,,,,,,,,,,,,,,,,,,,,,,,,,,,,,,,,,,,,,,,,,,,,,,,,,,,,,,,,,,,,,,,,,,,,,,,,,,,,,,,,,,,,,,,,,,,,,,,,,,,,,,,,,,,,,,,,,,,,,,,,,,,,,,,,,,
1725618226.710122,1725618226.711552,180.0,0.0,4224.615234,4245.0,4260.128418,4254.358887,4202.05127,4206.922852,4199.615234,4213.846191,4194.102539,4197.692383,4517.05127,4514.102539,4294.358887,4423.717773,3410.0,2.0,35.0,,,,0.0,4.0,4.0,4.0,4.0,4.0,4.0,4.0,4.0,4.0,4.0,4.0,4.0,4.0,4.0,100.0,,,,,,,,,,,,,,,,,,,,,,,,,,,,,,,,,,,,,,,,,,,,,,,,,,,,,,,,,,,,,,,,,,,,,,,,,,,,,,,,,,,,,,,,,,,,,,,,,,,,,,,,,,,,,,,,,,,,,,,,,,,,,,,,,,,
1725618226.714026,1725618226.715556,181.0,0.0,4231.538574,4250.512695,4270.256348,4258.461426,4203.077148,4206.153809,4200.0,4220.128418,4200.0,4205.0,4522.820313,4523.974121,4301.153809,4430.897461,3881.0,2.0,35.0,,,,0.0,4.0,4.0,4.0,4.0,4.0,4.0,4.0,4.0,4.0,4.0,4.0,4.0,4.0,4.0,100.0,,,,,,,,,,,,,,,,,,,,,,,,,,,,,,,,,,,,,,,,,,,,,,,,,,,,,,,,,,,,,,,,,,,,,,,,,,,,,,,,,,,,,,,,,,,,,,,,,,,,,,,,,,,,,,,,,,,,,,,,,,,,,,,,,,,
1725618226.71793,1725618226.71946,182.0,0.0,4235.256348,4252.307617,4275.384766,4260.128418,4203.077148,4203.589844,4199.743652,4221.538574,4203.333496,4205.128418,4522.179688,4529.743652,4306.410156,4434.487305,2889.0,2.0,35.0,,,,0.0,4.0,4.0,4.0,4.0,4.0,4.0,4.0,4.0,4.0,4.0,4.0,4.0,4.0,4.0,100.0,,,,,,,,,,,,,,,,,,,,,,,,,,,,,,,,,,,,,,,,,,,,,,,,,,,,,,,,,,,,,,,,,,,,,,,,,,,,,,,,,,,,,,,,,,,,,,,,,,,,,,,,,,,,,,,,,,,,,,,,,,,,,,,,,,,
1725618226.721835,1725618226.723364,183.0,0.0,4235.512695,4250.0,4273.846191,4259.487305,4202.436035,4201.538574,4199.102539,4216.922852,4203.717773,4200.769043,4517.05127,4530.128418,4309.102539,4433.974121,3057.0,2.0,35.0,,,,0.0,4.0,4.0,4.0,4.0,4.0,4.0,4.0,4.0,4.0,4.0,4.0,4.0,4.0,4.0,100.0,,,,,,,,,,,,,,,,,,,,,,,,,,,,,,,,,,,,,,,,,,,,,,,,,,,,,,,,,,,,,,,,,,,,,,,,,,,,,,,,,,,,,,,,,,,,,,,,,,,,,,,,,,,,,,,,,,,,,,,,,,,,,,,,,,,
1725618226.725739,1725618226.727269,184.0,0.0,4234.358887,4246.282227,4268.717773,4257.94873,4201.922852,4202.436035,4198.846191,4208.974121,4201.538574,4197.05127,4513.333496,4527.307617,4309.487305,4431.153809,3410.0,2.0,35.0,,,,0.0,4.0,4.0,4.0,4.0,4.0,4.0,4.0,4.0,4.0,4.0,4.0,4.0,4.0,4.0,100.0,,,,,,,,,,,,,,,,,,,,,,,,,,,,,,,,,,,,,,,,,,,,,,,,,,,,,,,,,,,,,,,,,,,,,,,,,,,,,,,,,,,,,,,,,,,,,,,,,,,,,,,,,,,,,,,,,,,,,,,,,,,,,,,,,,,
1725618226.729643,1725618226.731173,185.0,0.0,4233.589844,4244.358887,4264.743652,4257.179688,4201.922852,4206.666504,4199.230957,4202.179688,4199.102539,4197.179688,4516.410156,4524.615234,4309.102539,4429.743652,3881.0,2.0,35.0,,,,0.0,4.0,4.0,4.0,4.0,4.0,4.0,4.0,4.0,4.0,4.0,4.0,4.0,4.0,4.0,100.0,,,,,,,,,,,,,,,,,,,,,,,,,,,,,,,,,,,,,,,,,,,,,,,,,,,,,,,,,,,,,,,,,,,,,,,,,,,,,,,,,,,,,,,,,,,,,,,,,,,,,,,,,,,,,,,,,,,,,,,,,,,,,,,,,,,
1725618226.733547,1725618226.734977,186.0,0.0,4233.974121,4245.769043,4264.230957,4258.077148,4202.436035,4211.666504,4199.871582,4199.871582,4198.333496,4200.512695,4526.410156,4523.717773,4309.102539,4431.153809,2889.0,2.0,35.0,,,,0.0,4.0,4.0,4.0,4.0,4.0,4.0,4.0,4.0,4.0,4.0,4.0,4.0,4.0,4.0,100.0,,,,,,,,,,,,,,,,,,,,,,,,,,,,,,,,,,,,,,,,,,,,,,,,,,,,,,,,0.0,0.0,1.0,0.0,1.0,0.0,,,,,,,,,,,,,,,,,,,,,,,,,,,,,,,,,,,,,,,,,,,,,,,,,,,,,,,,,,,,,,,,,,,,,,
1725618226.737451,1725618226.738881,187.0,0.0,4234.743652,4248.974121,4265.384766,4260.128418,4202.820313,4214.102539,4200.512695,4201.794922,4200.384766,4204.102539,4537.692383,4523.205078,4309.615234,4433.974121,3057.0,2.0,35.0,,,,0.0,4.0,4.0,4.0,4.0,4.0,4.0,4.0,4.0,4.0,4.0,4.0,4.0,4.0,4.0,100.0,,,,,,,,,,,,,,,,,,,,,,,,,,,,,,,,,,,,,,,,,,,,,,,,,,,,,,,,,,,,,,,,,,,,,,,,,,,,,,,,,,,,,,,,,,,,,,,,,,,,,,,,,,,,,,,,,,,,,,,,,,,,,,,,,,,
1725618226.741355,1725618226.742785,188.0,0.0,4235.128418,4251.153809,4265.641113,4262.05127,4203.205078,4212.692383,4201.153809,4204.358887,4204.358887,4205.384766,4543.717773,4521.153809,4310.256348,4435.512695,3410.0,2.0,35.0,,,,0.0,4.0,4.0,4.0,4.0,4.0,4.0,4.0,4.0,4.0,4.0,4.0,4.0,4.0,4.0,100.0,,,,,,,,,,,,,,,,,,,,,,,,,,,,,,,,,,,,,,,,,,,,,,,,,,,,,,,,,,,,,,,,,,,,,,,,,,,,,,,,,,,,,,,,,,,,,,,,,,,,,,,,,,,,,,,,,,,,,,,,,,,,,,,,,,,
1725618226.745259,1725618226.746789,189.0,0.0,4234.743652,4250.769043,4265.0,4262.820313,4203.846191,4210.0,4202.179688,4204.615234,4208.846191,4203.846191,4541.025879,4517.692383,4310.384766,4434.743652,3881.0,2.0,35.0,,,,0.0,4.0,4.0,4.0,4.0,4.0,4.0,4.0,4.0,4.0,4.0,4.0,4.0,4.0,4.0,100.0,,,,,,,,,,,,,,,,,,,,,,,,,,,,,,,,,,,,,,,,,,,,,,,,,,,,,,,,,,,,,,,,,,,,,,,,,,,,,,,,,,,,,,,,,,,,,,,,,,,,,,,,,,,,,,,,,,,,,,,,,,,,,,,,,,,
1725618226.749163,1725618226.750693,190.0,0.0,4233.717773,4248.974121,4265.128418,4262.436035,4204.615234,4209.871582,4203.717773,4202.307617,4212.692383,4201.153809,4532.179688,4514.871582,4310.128418,4433.205078,2889.0,2.0,35.0,,,,0.0,4.0,4.0,4.0,4.0,4.0,4.0,4.0,4.0,4.0,4.0,4.0,4.0,4.0,4.0,100.0,,,,,,,,,,,,,,,,,,,,,,,,,,,,,,,,,,,,,,,,,,,,,,,,,,,,,,,,,,,,,,,,,,,,,,,,,,,,,,,,,,,,,,,,,,,,,,,,,,,,,,,,,,,,,,,,,,,,,,,,,,,,,,,,,,,
1725618226.753067,1725618226.754597,191.0,0.0,4233.077148,4247.307617,4267.692383,4261.666504,4205.256348,4213.333496,4204.743652,4199.871582,4215.256348,4199.487305,4523.717773,4515.256348,4310.256348,4433.333496,3057.0,2.0,35.0,,,,0.0,4.0,4.0,4.0,4.0,4.0,4.0,4.0,4.0,4.0,4.0,4.0,4.0,4.0,4.0,100.0,,,,,,,,,,,,,,,,,,,,,,,,,,,,,,,,,,,,,,,,,,,,,,,,,,,,,,,,,,,,,,,,,,,,,,,,,,,,,,,,,,,,,,,,,,,,,,,,,,,,,,,,,,,,,,,,,,,,,,,,,,,,,,,,,,,
1725618226.756971,1725618226.758501,192.0,0.0,4233.333496,4246.922852,4271.538574,4260.897461,4205.641113,4217.436035,4204.615234,4200.128418,4216.538574,4199.487305,4520.897461,4519.102539,4311.538574,4436.025879,3410.0,2.0,35.0,,,,0.0,4.0,4.0,4.0,4.0,4.0,4.0,4.0,4.0,4.0,4.0,4.0,4.0,4.0,4.0,100.0,,,,,,,,,,,,,,,,,,,,,,,,,,,,,,,,,,,,,,,,,,,,,,,,,,,,,,,,,,,,,,,,,,,,,,,,,,,,,,,,,,,,,,,,,,,,,,,,,,,,,,,,,,,,,,,,,,,,,,,,,,,,,,,,,,,
1725618226.760876,1725618226.762505,193.0,0.0,4234.358887,4247.307617,4273.461426,4260.256348,4205.256348,4217.563965,4203.205078,4202.692383,4216.794922,4200.512695,4523.589844,4523.974121,4313.717773,4439.487305,3881.0,2.0,35.0,,,,0.0,4.0,4.0,4.0,4.0,4.0,4.0,4.0,4.0,4.0,4.0,4.0,4.0,4.0,4.0,100.0,,,,,,,,,,,,,,,,,,,,,,,,,,,,,,,,,,,,,,,,,,,,,,,,,,,,,,,,,,,,,,,,,,,,,,,,,,,,,,,,,,,,,,,,,,,,,,,,,,,,,,,,,,,,,,,,,,,,,,,,,,,,,,,,,,,
1725618226.76478,1725618226.766409,194.0,0.0,4234.743652,4247.94873,4271.538574,4259.615234,4204.358887,4212.563965,4201.410156,4205.0,4216.410156,4201.282227,4527.179688,4526.794922,4314.871582,4441.025879,2889.0,2.0,35.0,,,,0.0,4.0,4.0,4.0,4.0,4.0,4.0,4.0,4.0,4.0,4.0,4.0,4.0,4.0,4.0,100.0,1.0,100.0,4.0,4.0,4.0,4.0,4.0,4.0,4.0,4.0,4.0,4.0,4.0,4.0,4.0,4.0,1.0,0.0,0.0,,,,,,,,,,,,,,,,,,,,,,,,,,,,,,,,,,,,,0.0,0.0,1.0,0.0,1.0,0.0,1.956947,0.849908,1.005218,0.369967,0.065279,1.817106,0.975424,0.778481,0.322459,0.085016,1.500338,0.754321,0.752226,0.416925,0.09621,1.427352,0.71462,0.655082,0.419653,0.086142,0.817041,0.491982,0.25558,0.170295,0.069005,0.12602,0.250563,0.294096,0.091416,0.051889,0.429912,0.191652,0.262175,0.103626,0.124579,1.020475,1.184559,0.484026,0.384682,0.120737,0.960076,2.234811,1.300144,0.367124,0.075474,1.654312,2.963222,2.12316,0.395414,0.090723,1.588579,1.97576,1.630335,0.782512,0.285715,1.71456,1.508464,1.651211,0.590396,0.116747,2.537257,2.410798,1.382162,0.590918,0.096825,2.048389,1.25411,1.079735,0.452124,0.075904
1725618226.768684,1725618226.770314,195.0,0.0,4233.974121,4248.461426,4267.563965,4259.102539,4203.333496,4205.641113,4200.384766,4205.384766,4216.153809,4200.897461,4527.692383,4525.769043,4313.205078,4439.743652,3057.0,2.0,35.0,,,,0.0,4.0,4.0,4.0,4.0,4.0,4.0,4.0,4.0,4.0,4.0,4.0,4.0,4.0,4.0,100.0,,,,,,,,,,,,,,,,,,,,,,,,,,,,,,,,,,,,,,,,,,,,,,,,,,,,,,,,,,,,,,,,,,,,,,,,,,,,,,,,,,,,,,,,,,,,,,,,,,,,,,,,,,,,,,,,,,,,,,,,,,,,,,,,,,,
1725618226.772588,1725618226.774218,196.0,0.0,4232.94873,4249.102539,4265.256348,4259.230957,4203.205078,4201.794922,4200.641113,4204.230957,4216.410156,4199.487305,4525.512695,4522.820313,4309.871582,4437.563965,3410.0,2.0,35.0,,,,0.0,4.0,4.0,4.0,4.0,4.0,4.0,4.0,4.0,4.0,4.0,4.0,4.0,4.0,4.0,100.0,,,,,,,,,,,,,,,,,,,,,,,,,,,,,,,,,,,,,,,,,,,,,,,,,,,,,,,,,,,,,,,,,,,,,,,,,,,,,,,,,,,,,,,,,,,,,,,,,,,,,,,,,,,,,,,,,,,,,,,,,,,,,,,,,,,
1725618226.776492,1725618226.778122,197.0,0.0,4232.94873,4249.615234,4267.307617,4260.256348,4204.615234,4203.974121,4202.179688,4203.974121,4217.692383,4198.077148,4523.589844,4521.025879,4308.205078,4437.05127,3881.0,2.0,35.0,,,,0.0,4.0,4.0,4.0,4.0,4.0,4.0,4.0,4.0,4.0,4.0,4.0,4.0,4.0,4.0,100.0,,,,,,,,,,,,,,,,,,,,,,,,,,,,,,,,,,,,,,,,,,,,,,,,,,,,,,,,,,,,,,,,,,,,,,,,,,,,,,,,,,,,,,,,,,,,,,,,,,,,,,,,,,,,,,,,,,,,,,,,,,,,,,,,,,,
1725618226.780396,1725618226.781926,198.0,0.0,4235.256348,4249.871582,4272.692383,4261.538574,4206.922852,4210.512695,4203.974121,4206.153809,4219.230957,4197.692383,4524.102539,4522.179688,4310.128418,4439.615234,2889.0,2.0,35.0,,,,0.0,4.0,4.0,4.0,4.0,4.0,4.0,4.0,4.0,4.0,4.0,4.0,4.0,4.0,4.0,100.0,,,,,,,,,,,,,,,,,,,,,,,,,,,,,,,,,,,,,,,,,,,,,,,,,,,,,,,,,,,,,,,,,,,,,,,,,,,,,,,,,,,,,,,,,,,,,,,,,,,,,,,,,,,,,,,,,,,,,,,,,,,,,,,,,,,
1725618226.7843,1725618226.78583,199.0,0.0,4239.743652,4250.0,4278.077148,4262.436035,4209.102539,4216.794922,4205.128418,4210.897461,4220.128418,4198.589844,4526.153809,4525.384766,4315.128418,4443.589844,3057.0,2.0,35.0,,,,0.0,4.0,4.0,4.0,4.0,4.0,4.0,4.0,4.0,4.0,4.0,4.0,4.0,4.0,4.0,100.0,,,,,,,,,,,,,,,,,,,,,,,,,,,,,,,,,,,,,,,,,,,,,,,,,,,,,,,,,,,,,,,,,,,,,,,,,,,,,,,,,,,,,,,,,,,,,,,,,,,,,,,,,,,,,,,,,,,,,,,,,,,,,,,,,,,
1725618226.788204,1725618226.789734,200.0,0.0,4244.487305,4249.871582,4280.769043,4262.94873,4209.615234,4218.461426,4204.871582,4216.282227,4220.128418,4200.256348,4527.692383,4528.077148,4319.871582,4446.794922,3410.0,2.0,35.0,,,,0.0,4.0,4.0,4.0,4.0,4.0,4.0,4.0,4.0,4.0,4.0,4.0,4.0,4.0,4.0,100.0,,,,,,,,,,,,,,,,,,,,,,,,,,,,,,,,,,,,,,,,,,,,,,,,,,,,,,,,,,,,,,,,,,,,,,,,,,,,,,,,,,,,,,,,,,,,,,,,,,,,,,,,,,,,,,,,,,,,,,,,,,,,,,,,,,,
1725618226.792108,1725618226.793538,201.0,0.0,4247.692383,4249.615234,4280.128418,4263.333496,4208.333496,4214.871582,4203.333496,4220.384766,4219.615234,4201.666504,4527.820313,4528.589844,4321.025879,4447.436035,3881.0,2.0,35.0,,,,0.0,4.0,4.0,4.0,4.0,4.0,4.0,4.0,4.0,4.0,4.0,4.0,4.0,4.0,4.0,100.0,,,,,,,,,,,,,,,,,,,,,,,,,,,,,,,,,,,,,,,,,,,,,,,,,,,,,,,,,,,,,,,,,,,,,,,,,,,,,,,,,,,,,,,,,,,,,,,,,,,,,,,,,,,,,,,,,,,,,,,,,,,,,,,,,,,
1725618226.796013,1725618226.797442,202.0,0.0,4247.94873,4248.974121,4277.692383,4263.333496,4205.897461,4209.230957,4201.666504,4221.666504,4219.102539,4201.410156,4526.794922,4527.436035,4318.589844,4445.769043,2889.0,2.0,35.0,,,,0.0,4.0,4.0,4.0,4.0,4.0,4.0,4.0,4.0,4.0,4.0,4.0,4.0,4.0,4.0,100.0,,,,,,,,,,,,,,,,,,,,,,,,,,,,,,,,,,,,,,,,,,,,,,,,,,,,,,,,0.0,0.0,1.0,0.0,1.0,0.0,,,,,,,,,,,,,,,,,,,,,,,,,,,,,,,,,,,,,,,,,,,,,,,,,,,,,,,,,,,,,,,,,,,,,,
1725618226.799917,1725618226.801347,203.0,0.0,4245.384766,4248.205078,4275.256348,4262.820313,4203.333496,4205.0,4201.666504,4219.743652,4218.717773,4198.461426,4526.025879,4526.025879,4315.0,4443.589844,3057.0,2.0,35.0,,,,0.0,4.0,4.0,4.0,4.0,4.0,4.0,4.0,4.0,4.0,4.0,4.0,4.0,4.0,4.0,100.0,,,,,,,,,,,,,,,,,,,,,,,,,,,,,,,,,,,,,,,,,,,,,,,,,,,,,,,,,,,,,,,,,,,,,,,,,,,,,,,,,,,,,,,,,,,,,,,,,,,,,,,,,,,,,,,,,,,,,,,,,,,,,,,,,,,
1725618226.803821,1725618226.805251,204.0,0.0,4241.410156,4246.922852,4273.589844,4261.282227,4201.666504,4203.589844,4203.717773,4214.871582,4218.205078,4193.461426,4525.897461,4525.512695,4313.205078,4442.179688,3410.0,2.0,35.0,,,,0.0,4.0,4.0,4.0,4.0,4.0,4.0,4.0,4.0,4.0,4.0,4.0,4.0,4.0,4.0,100.0,,,,,,,,,,,,,,,,,,,,,,,,,,,,,,,,,,,,,,,,,,,,,,,,,,,,,,,,,,,,,,,,,,,,,,,,,,,,,,,,,,,,,,,,,,,,,,,,,,,,,,,,,,,,,,,,,,,,,,,,,,,,,,,,,,,
1725618226.807725,1725618226.809055,205.0,0.0,4236.666504,4243.717773,4271.666504,4258.205078,4201.794922,4203.717773,4205.769043,4208.077148,4216.666504,4187.436035,4524.615234,4524.615234,4313.589844,4440.897461,3881.0,2.0,35.0,,,,0.0,4.0,4.0,4.0,4.0,4.0,4.0,4.0,4.0,4.0,4.0,4.0,4.0,4.0,4.0,100.0,,,,,,,,,,,,,,,,,,,,,,,,,,,,,,,,,,,,,,,,,,,,,,,,,,,,,,,,,,,,,,,,,,,,,,,,,,,,,,,,,,,,,,,,,,,,,,,,,,,,,,,,,,,,,,,,,,,,,,,,,,,,,,,,,,,
1725618226.811629,1725618226.812959,206.0,0.0,4232.05127,4237.94873,4267.94873,4253.717773,4202.820313,4203.717773,4205.0,4200.0,4212.692383,4181.282227,4519.358887,4521.025879,4313.333496,4437.436035,2889.0,2.0,35.0,,,,0.0,4.0,4.0,4.0,4.0,4.0,4.0,4.0,4.0,4.0,4.0,4.0,4.0,4.0,4.0,100.0,,,,,,,,,,,,,,,,,,,,,,,,,,,,,,,,,,,,,,,,,,,,,,,,,,,,,,,,,,,,,,,,,,,,,,,,,,,,,,,,,,,,,,,,,,,,,,,,,,,,,,,,,,,,,,,,,,,,,,,,,,,,,,,,,,,
1725618226.815533,1725618226.816863,207.0,0.0,4227.563965,4230.128418,4261.794922,4248.077148,4203.077148,4202.307617,4199.871582,4191.538574,4205.384766,4175.0,4508.589844,4513.077148,4308.717773,4430.256348,3057.0,2.0,35.0,,,,0.0,4.0,4.0,4.0,4.0,4.0,4.0,4.0,4.0,4.0,4.0,4.0,4.0,4.0,4.0,100.0,,,,,,,,,,,,,,,,,,,,,,,,,,,,,,,,,,,,,,,,,,,,,,,,,,,,,,,,,,,,,,,,,,,,,,,,,,,,,,,,,,,,,,,,,,,,,,,,,,,,,,,,,,,,,,,,,,,,,,,,,,,,,,,,,,,
1725618226.819437,1725618226.820867,208.0,0.0,4223.333496,4222.05127,4254.230957,4241.538574,4200.769043,4200.0,4192.436035,4183.846191,4195.256348,4168.077148,4493.846191,4502.179688,4298.461426,4419.871582,3410.0,2.0,35.0,,,,0.0,4.0,4.0,4.0,4.0,4.0,4.0,4.0,4.0,4.0,4.0,4.0,4.0,4.0,4.0,100.0,,,,,,,,,,,,,,,,,,,,,,,,,,,,,,,,,,,,,,,,,,,,,,,,,,,,,,,,,,,,,,,,,,,,,,,,,,,,,,,,,,,,,,,,,,,,,,,,,,,,,,,,,,,,,,,,,,,,,,,,,,,,,,,,,,,
1725618226.823341,1725618226.824771,209.0,0.0,4219.358887,4215.769043,4247.307617,4234.871582,4195.512695,4198.077148,4186.282227,4179.102539,4185.512695,4161.153809,4480.384766,4491.410156,4285.128418,4409.358887,3881.0,2.0,35.0,,,,0.0,4.0,4.0,4.0,4.0,4.0,4.0,4.0,4.0,4.0,4.0,4.0,4.0,4.0,4.0,100.0,,,,,,,,,,,,,,,,,,,,,,,,,,,,,,,,,,,,,,,,,,,,,,,,,,,,,,,,,,,,,,,,,,,,,,,,,,,,,,,,,,,,,,,,,,,,,,,,,,,,,,,,,,,,,,,,,,,,,,,,,,,,,,,,,,,
1725618226.827246,1725618226.828675,210.0,0.0,4215.769043,4212.179688,4243.461426,4229.487305,4189.102539,4197.692383,4184.487305,4178.846191,4180.128418,4155.769043,4473.077148,4484.615234,4274.102539,4401.538574,2889.0,2.0,35.0,,,,0.0,4.0,4.0,4.0,4.0,4.0,4.0,4.0,4.0,4.0,4.0,4.0,4.0,4.0,4.0,100.0,,,,,,,,,,,,,,,,,,,,,,,,,,,,,,,,,,,,,,,,,,,,,,,,,,,,,,,,0.0,0.0,1.0,0.0,1.0,0.0,,,,,,,,,,,,,,,,,,,,,,,,,,,,,,,,,,,,,,,,,,,,,,,,,,,,,,,,,,,,,,,,,,,,,,
1725618226.83115,1725618226.832679,211.0,0.0,4212.820313,4210.512695,4243.974121,4227.307617,4184.487305,4198.846191,4187.436035,4183.589844,4181.538574,4153.846191,4473.717773,4483.589844,4269.871582,4398.589844,3057.0,2.0,35.0,,,,0.0,4.0,4.0,4.0,4.0,4.0,4.0,4.0,4.0,4.0,4.0,4.0,4.0,4.0,4.0,100.0,,,,,,,,,,,,,,,,,,,,,,,,,,,,,,,,,,,,,,,,,,,,,,,,,,,,,,,,,,,,,,,,,,,,,,,,,,,,,,,,,,,,,,,,,,,,,,,,,,,,,,,,,,,,,,,,,,,,,,,,,,,,,,,,,,,
1725618226.835054,1725618226.836583,212.0,0.0,4211.153809,4210.128418,4248.205078,4229.615234,4183.846191,4201.282227,4192.94873,4192.179688,4189.358887,4156.153809,4480.897461,4488.461426,4273.589844,4401.666504,3410.0,2.0,35.0,,,,0.0,4.0,4.0,4.0,4.0,4.0,4.0,4.0,4.0,4.0,4.0,4.0,4.0,4.0,4.0,100.0,,,,,,,,,,,,,,,,,,,,,,,,,,,,,,,,,,,,,,,,,,,,,,,,,,,,,,,,,,,,,,,,,,,,,,,,,,,,,,,,,,,,,,,,,,,,,,,,,,,,,,,,,,,,,,,,,,,,,,,,,,,,,,,,,,,
1725618226.838958,1725618226.840488,213.0,0.0,4212.05127,4211.153809,4254.487305,4236.153809,4187.563965,4204.871582,4198.333496,4202.436035,4200.641113,4162.563965,4491.794922,4497.563965,4282.820313,4410.128418,3881.0,2.0,35.0,,,,0.0,4.0,4.0,4.0,4.0,4.0,4.0,4.0,4.0,4.0,4.0,4.0,4.0,4.0,4.0,100.0,,,,,,,,,,,,,,,,,,,,,,,,,,,,,,,,,,,,,,,,,,,,,,,,,,,,,,,,,,,,,,,,,,,,,,,,,,,,,,,,,,,,,,,,,,,,,,,,,,,,,,,,,,,,,,,,,,,,,,,,,,,,,,,,,,,
1725618226.842862,1725618226.844392,214.0,0.0,4216.538574,4214.615234,4260.769043,4245.256348,4194.487305,4209.102539,4202.307617,4212.436035,4211.666504,4171.538574,4503.717773,4508.974121,4294.102539,4421.153809,2889.0,2.0,35.0,,,,0.0,4.0,4.0,4.0,4.0,4.0,4.0,4.0,4.0,4.0,4.0,4.0,4.0,4.0,4.0,100.0,,,,,,,,,,,,,,,,,,,,,,,,,,,,,,,,,,,,,,,,,,,,,,,,,,,,,,,,,,,,,,,,,,,,,,,,,,,,,,,,,,,,,,,,,,,,,,,,,,,,,,,,,,,,,,,,,,,,,,,,,,,,,,,,,,,
1725618226.846766,1725618226.848296,215.0,0.0,4224.615234,4221.410156,4266.282227,4254.358887,4202.563965,4213.077148,4205.384766,4220.512695,4219.358887,4181.410156,4514.871582,4520.897461,4305.256348,4431.410156,3057.0,2.0,35.0,,,,0.0,4.0,4.0,4.0,4.0,4.0,4.0,4.0,4.0,4.0,4.0,4.0,4.0,4.0,4.0,100.0,,,,,,,,,,,,,,,,,,,,,,,,,,,,,,,,,,,,,,,,,,,,,,,,,,,,,,,,,,,,,,,,,,,,,,,,,,,,,,,,,,,,,,,,,,,,,,,,,,,,,,,,,,,,,,,,,,,,,,,,,,,,,,,,,,,
1725618226.85067,1725618226.8523,216.0,0.0,4234.615234,4230.769043,4271.922852,4261.538574,4210.128418,4215.897461,4208.846191,4225.641113,4223.205078,4190.256348,4524.487305,4531.153809,4315.256348,4439.230957,3410.0,2.0,35.0,,,,0.0,4.0,4.0,4.0,4.0,4.0,4.0,4.0,4.0,4.0,4.0,4.0,4.0,4.0,4.0,100.0,,,,,,,,,,,,,,,,,,,,,,,,,,,,,,,,,,,,,,,,,,,,,,,,,,,,,,,,,,,,,,,,,,,,,,,,,,,,,,,,,,,,,,,,,,,,,,,,,,,,,,,,,,,,,,,,,,,,,,,,,,,,,,,,,,,
1725618226.854574,1725618226.856204,217.0,0.0,4243.846191,4239.615234,4278.461426,4267.05127,4215.384766,4217.307617,4213.333496,4227.307617,4224.102539,4196.794922,4531.794922,4538.333496,4324.102539,4445.0,3881.0,2.0,35.0,,,,0.0,4.0,4.0,4.0,4.0,4.0,4.0,4.0,4.0,4.0,4.0,4.0,4.0,4.0,4.0,100.0,,,,,,,,,,,,,,,,,,,,,,,,,,,,,,,,,,,,,,,,,,,,,,,,,,,,,,,,,,,,,,,,,,,,,,,,,,,,,,,,,,,,,,,,,,,,,,,,,,,,,,,,,,,,,,,,,,,,,,,,,,,,,,,,,,,
1725618226.858478,1725618226.860108,218.0,0.0,4250.512695,4245.769043,4286.025879,4272.307617,4217.820313,4217.820313,4217.94873,4226.538574,4223.589844,4201.025879,4536.666504,4542.436035,4331.666504,4450.0,2889.0,2.0,35.0,,,,0.0,4.0,4.0,4.0,4.0,4.0,4.0,4.0,4.0,4.0,4.0,4.0,4.0,4.0,4.0,100.0,,,,,,,,,,,,,,,,,,,,,,,,,,,,,,,,,,,,,,,,,,,,,,,,,,,,,,,,0.0,0.0,1.0,0.0,1.0,0.0,,,,,,,,,,,,,,,,,,,,,,,,,,,,,,,,,,,,,,,,,,,,,,,,,,,,,,,,,,,,,,,,,,,,,,
1725618226.862383,1725618226.864012,219.0,0.0,4253.846191,4248.846191,4292.820313,4277.820313,4218.205078,4217.94873,4220.769043,4224.615234,4222.692383,4203.077148,4538.846191,4544.358887,4337.179688,4454.743652,3057.0,2.0,35.0,,,,0.0,4.0,4.0,4.0,4.0,4.0,4.0,4.0,4.0,4.0,4.0,4.0,4.0,4.0,4.0,100.0,,,,,,,,,,,,,,,,,,,,,,,,,,,,,,,,,,,,,,,,,,,,,,,,,,,,,,,,,,,,,,,,,,,,,,,,,,,,,,,,,,,,,,,,,,,,,,,,,,,,,,,,,,,,,,,,,,,,,,,,,,,,,,,,,,,
1725618226.866287,1725618226.868016,220.0,0.0,4253.717773,4250.0,4296.025879,4282.436035,4217.563965,4218.333496,4220.512695,4222.05127,4221.538574,4203.333496,4538.589844,4544.743652,4340.128418,4457.820313,3410.0,2.0,35.0,,,,0.0,4.0,4.0,4.0,4.0,4.0,4.0,4.0,4.0,4.0,4.0,4.0,4.0,4.0,4.0,100.0,,,,,,,,,,,,,,,,,,,,,,,,,,,,,,,,,,,,,,,,,,,,,,,,,,,,,,,,,,,,,,,,,,,,,,,,,,,,,,,,,,,,,,,,,,,,,,,,,,,,,,,,,,,,,,,,,,,,,,,,,,,,,,,,,,,
1725618226.870191,1725618226.87192,221.0,0.0,4250.512695,4250.256348,4293.589844,4283.846191,4216.410156,4218.589844,4217.692383,4219.230957,4219.615234,4201.922852,4536.410156,4543.717773,4339.871582,4457.436035,3881.0,2.0,35.0,,,,0.0,4.0,4.0,4.0,4.0,4.0,4.0,4.0,4.0,4.0,4.0,4.0,4.0,4.0,4.0,100.0,,,,,,,,,,,,,,,,,,,,,,,,,,,,,,,,,,,,,,,,,,,,,,,,,,,,,,,,,,,,,,,,,,,,,,,,,,,,,,,,,,,,,,,,,,,,,,,,,,,,,,,,,,,,,,,,,,,,,,,,,,,,,,,,,,,
1725618226.874095,1725618226.875824,222.0,0.0,4245.384766,4249.487305,4286.666504,4280.256348,4215.512695,4218.333496,4214.871582,4216.410156,4217.179688,4199.487305,4532.820313,4541.153809,4337.692383,4453.589844,2889.0,2.0,35.0,,,,0.0,4.0,4.0,4.0,4.0,4.0,4.0,4.0,4.0,4.0,4.0,4.0,4.0,4.0,4.0,100.0,,,,,,,,,,,,,,,,,,,,,,,,,,,,,,,,,,,,,,,,,,,,,,,,,,,,,,,,,,,,,,,,,,,,,,,,,,,,,,,,,,,,,,,,,,,,,,,,,,,,,,,,,,,,,,,,,,,,,,,,,,,,,,,,,,,
1725618226.877999,1725618226.879728,223.0,0.0,4240.128418,4247.05127,4279.358887,4273.333496,4215.0,4216.922852,4213.589844,4214.615234,4215.512695,4197.179688,4529.102539,4537.563965,4336.153809,4447.94873,3057.0,2.0,35.0,,,,0.0,4.0,4.0,4.0,4.0,4.0,4.0,4.0,4.0,4.0,4.0,4.0,4.0,4.0,4.0,100.0,,,,,,,,,,,,,,,,,,,,,,,,,,,,,,,,,,,,,,,,,,,,,,,,,,,,,,,,,,,,,,,,,,,,,,,,,,,,,,,,,,,,,,,,,,,,,,,,,,,,,,,,,,,,,,,,,,,,,,,,,,,,,,,,,,,
1725618226.881903,1725618226.883632,224.0,0.0,4236.153809,4243.333496,4276.025879,4266.538574,4215.128418,4215.256348,4213.974121,4214.358887,4215.641113,4196.538574,4526.282227,4534.871582,4336.666504,4443.589844,3410.0,2.0,35.0,,,,0.0,4.0,4.0,4.0,4.0,4.0,4.0,4.0,4.0,4.0,4.0,4.0,4.0,4.0,4.0,100.0,,,,,,,,,,,,,,,,,,,,,,,,,,,,,,,,,,,,,,,,,,,,,,,,,,,,,,,,,,,,,,,,,,,,,,,,,,,,,,,,,,,,,,,,,,,,,,,,,,,,,,,,,,,,,,,,,,,,,,,,,,,,,,,,,,,
1725618226.885807,1725618226.887437,225.0,0.0,4233.974121,4239.230957,4277.436035,4262.94873,4215.384766,4214.358887,4214.230957,4214.871582,4217.307617,4197.307617,4524.871582,4534.230957,4338.846191,4442.307617,3881.0,2.0,35.0,,,,0.0,4.0,4.0,4.0,4.0,4.0,4.0,4.0,4.0,4.0,4.0,4.0,4.0,4.0,4.0,100.0,,,,,,,,,,,,,,,,,,,,,,,,,,,,,,,,,,,,,,,,,,,,,,,,,,,,,,,,,,,,,,,,,,,,,,,,,,,,,,,,,,,,,,,,,,,,,,,,,,,,,,,,,,,,,,,,,,,,,,,,,,,,,,,,,,,
1725618226.889711,1725618226.891341,226.0,0.0,4233.333496,4235.256348,4280.384766,4263.461426,4214.743652,4214.871582,4213.589844,4214.230957,4218.205078,4197.436035,4524.615234,4535.128418,4340.897461,4443.461426,2889.0,2.0,35.0,,,,0.0,4.0,4.0,4.0,4.0,4.0,4.0,4.0,4.0,4.0,4.0,4.0,4.0,4.0,4.0,100.0,,,,,,,,,,,,,,,,,1.0,0.0,0.0,,,,,,,,,,,,,,,,,,,,,,,,,,,,,,,,,,,,,0.0,0.0,1.0,0.0,1.0,0.0,2.141279,0.807381,1.096571,0.413653,0.06679,2.064106,1.0741,0.867978,0.347334,0.095129,1.564094,0.775636,0.816422,0.479792,0.099654,1.596599,0.679115,0.75022,0.44609,0.091177,0.740538,0.468305,0.29445,0.176714,0.072935,0.157767,0.313958,0.331972,0.102577,0.063083,0.429692,0.169368,0.305071,0.108698,0.13131,1.09067,1.274512,0.460108,0.420547,0.114656,1.124473,2.526867,1.385681,0.422759,0.086155,1.898042,3.272473,2.364877,0.435131,0.09684,1.556049,2.089749,1.638515,0.867302,0.300778,1.873156,1.537963,1.671635,0.631259,0.115921,2.762025,2.785364,1.446076,0.66868,0.112594,2.06757,1.269261,1.037507,0.493833,0.071525
1725618226.893615,1725618226.895245,227.0,0.0,4233.077148,4231.922852,4280.0,4265.512695,4212.94873,4215.641113,4211.922852,4211.153809,4216.410156,4195.512695,4525.0,4535.128418,4341.153809,4445.128418,3057.0,2.0,35.0,,,,0.0,4.0,4.0,4.0,4.0,4.0,4.0,4.0,4.0,4.0,4.0,4.0,4.0,4.0,4.0,100.0,,,,,,,,,,,,,,,,,,,,,,,,,,,,,,,,,,,,,,,,,,,,,,,,,,,,,,,,,,,,,,,,,,,,,,,,,,,,,,,,,,,,,,,,,,,,,,,,,,,,,,,,,,,,,,,,,,,,,,,,,,,,,,,,,,,
1725618226.897519,1725618226.899049,228.0,0.0,4232.307617,4229.871582,4275.0,4266.025879,4210.897461,4215.128418,4210.128418,4206.153809,4211.410156,4191.794922,4525.384766,4532.436035,4339.102539,4445.384766,3410.0,2.0,35.0,,,,0.0,4.0,4.0,4.0,4.0,4.0,4.0,4.0,4.0,4.0,4.0,4.0,4.0,4.0,4.0,100.0,,,,,,,,,,,,,,,,,,,,,,,,,,,,,,,,,,,,,,,,,,,,,,,,,,,,,,,,,,,,,,,,,,,,,,,,,,,,,,,,,,,,,,,,,,,,,,,,,,,,,,,,,,,,,,,,,,,,,,,,,,,,,,,,,,,
1725618226.901424,1725618226.902953,229.0,0.0,4230.897461,4229.230957,4268.077148,4263.974121,4209.871582,4213.974121,4208.461426,4201.666504,4205.128418,4188.077148,4524.230957,4527.563965,4336.282227,4444.358887,3881.0,2.0,35.0,,,,0.0,4.0,4.0,4.0,4.0,4.0,4.0,4.0,4.0,4.0,4.0,4.0,4.0,4.0,4.0,100.0,,,,,,,,,,,,,,,,,,,,,,,,,,,,,,,,,,,,,,,,,,,,,,,,,,,,,,,,,,,,,,,,,,,,,,,,,,,,,,,,,,,,,,,,,,,,,,,,,,,,,,,,,,,,,,,,,,,,,,,,,,,,,,,,,,,
1725618226.905328,1725618226.906857,230.0,0.0,4229.230957,4229.871582,4263.717773,4260.641113,4210.256348,4213.717773,4206.922852,4199.102539,4200.897461,4186.282227,4520.897461,4523.589844,4334.743652,4442.563965,2889.0,2.0,35.0,,,,0.0,4.0,4.0,4.0,4.0,4.0,4.0,4.0,4.0,4.0,4.0,4.0,4.0,4.0,4.0,100.0,,,,,,,,,,,,,,,,,,,,,,,,,,,,,,,,,,,,,,,,,,,,,,,,,,,,,,,,,,,,,,,,,,,,,,,,,,,,,,,,,,,,,,,,,,,,,,,,,,,,,,,,,,,,,,,,,,,,,,,,,,,,,,,,,,,
1725618226.909232,1725618226.910761,231.0,0.0,4228.461426,4230.384766,4264.102539,4258.846191,4210.769043,4215.256348,4205.769043,4198.461426,4200.512695,4186.922852,4516.025879,4523.077148,4335.128418,4441.153809,3057.0,2.0,35.0,,,,0.0,4.0,4.0,4.0,4.0,4.0,4.0,4.0,4.0,4.0,4.0,4.0,4.0,4.0,4.0,100.0,,,,,,,,,,,,,,,,,,,,,,,,,,,,,,,,,,,,,,,,,,,,,,,,,,,,,,,,,,,,,,,,,,,,,,,,,,,,,,,,,,,,,,,,,,,,,,,,,,,,,,,,,,,,,,,,,,,,,,,,,,,,,,,,,,,
1725618226.913136,1725618226.914566,232.0,0.0,4229.487305,4229.230957,4267.563965,4259.615234,4210.256348,4217.179688,4205.0,4199.743652,4204.102539,4188.717773,4512.05127,4526.410156,4336.410156,4440.128418,3410.0,2.0,35.0,,,,0.0,4.0,4.0,4.0,4.0,4.0,4.0,4.0,4.0,4.0,4.0,4.0,4.0,4.0,4.0,100.0,,,,,,,,,,,,,,,,,,,,,,,,,,,,,,,,,,,,,,,,,,,,,,,,,,,,,,,,,,,,,,,,,,,,,,,,,,,,,,,,,,,,,,,,,,,,,,,,,,,,,,,,,,,,,,,,,,,,,,,,,,,,,,,,,,,
1725618226.91704,1725618226.91847,233.0,0.0,4232.05127,4225.769043,4270.512695,4262.05127,4207.820313,4216.922852,4204.230957,4202.436035,4208.846191,4190.128418,4511.538574,4531.025879,4336.922852,4439.487305,3881.0,2.0,35.0,,,,0.0,4.0,4.0,4.0,4.0,4.0,4.0,4.0,4.0,4.0,4.0,4.0,4.0,4.0,4.0,100.0,,,,,,,,,,,,,,,,,,,,,,,,,,,,,,,,,,,,,,,,,,,,,,,,,,,,,,,,,,,,,,,,,,,,,,,,,,,,,,,,,,,,,,,,,,,,,,,,,,,,,,,,,,,,,,,,,,,,,,,,,,,,,,,,,,,
1725618226.920944,1725618226.922374,234.0,0.0,4234.871582,4221.410156,4271.025879,4264.487305,4204.358887,4213.333496,4203.077148,4205.256348,4211.153809,4190.0,4514.487305,4532.692383,4335.897461,4438.717773,2889.0,2.0,35.0,,,,0.0,4.0,4.0,4.0,4.0,4.0,4.0,4.0,4.0,4.0,4.0,4.0,4.0,4.0,4.0,100.0,,,,,,,,,,,,,,,,,,,,,,,,,,,,,,,,,,,,,,,,,,,,,,,,,,,,,,,,0.0,0.0,1.0,0.0,1.0,0.0,,,,,,,,,,,,,,,,,,,,,,,,,,,,,,,,,,,,,,,,,,,,,,,,,,,,,,,,,,,,,,,,,,,,,,
1725618226.924848,1725618226.926378,235.0,0.0,4235.512695,4218.717773,4269.743652,4265.128418,4201.410156,4208.077148,4201.666504,4207.179688,4208.846191,4188.333496,4518.333496,4529.743652,4334.230957,4438.333496,3057.0,2.0,35.0,,,,0.0,4.0,4.0,4.0,4.0,4.0,4.0,4.0,4.0,4.0,4.0,4.0,4.0,4.0,4.0,100.0,,,,,,,,,,,,,,,,,,,,,,,,,,,,,,,,,,,,,,,,,,,,,,,,,,,,,,,,,,,,,,,,,,,,,,,,,,,,,,,,,,,,,,,,,,,,,,,,,,,,,,,,,,,,,,,,,,,,,,,,,,,,,,,,,,,
1725618226.928752,1725618226.930282,236.0,0.0,4233.717773,4218.846191,4268.974121,4264.230957,4200.128418,4204.358887,4200.512695,4208.589844,4203.846191,4186.410156,4520.897461,4524.615234,4333.846191,4439.230957,3410.0,2.0,35.0,,,,0.0,4.0,4.0,4.0,4.0,4.0,4.0,4.0,4.0,4.0,4.0,4.0,4.0,4.0,4.0,100.0,,,,,,,,,,,,,,,,,,,,,,,,,,,,,,,,,,,,,,,,,,,,,,,,,,,,,,,,,,,,,,,,,,,,,,,,,,,,,,,,,,,,,,,,,,,,,,,,,,,,,,,,,,,,,,,,,,,,,,,,,,,,,,,,,,,
1725618226.932656,1725618226.934186,237.0,0.0,4231.282227,4221.538574,4270.641113,4263.205078,4200.512695,4204.358887,4200.0,4211.410156,4200.128418,4185.512695,4522.179688,4522.179688,4335.897461,4441.410156,3881.0,2.0,35.0,,,,0.0,4.0,4.0,4.0,4.0,4.0,4.0,4.0,4.0,4.0,4.0,4.0,4.0,4.0,4.0,100.0,,,,,,,,,,,,,,,,,,,,,,,,,,,,,,,,,,,,,,,,,,,,,,,,,,,,,,,,,,,,,,,,,,,,,,,,,,,,,,,,,,,,,,,,,,,,,,,,,,,,,,,,,,,,,,,,,,,,,,,,,,,,,,,,,,,
1725618226.936561,1725618226.93819,238.0,0.0,4231.538574,4225.384766,4274.615234,4263.205078,4201.922852,4208.461426,4200.256348,4216.025879,4201.025879,4186.538574,4523.589844,4526.025879,4339.871582,4444.230957,2889.0,2.0,35.0,,,,0.0,4.0,4.0,4.0,4.0,4.0,4.0,4.0,4.0,4.0,4.0,4.0,4.0,4.0,4.0,100.0,,,,,,,,,,,,,,,,,,,,,,,,,,,,,,,,,,,,,,,,,,,,,,,,,,,,,,,,,,,,,,,,,,,,,,,,,,,,,,,,,,,,,,,,,,,,,,,,,,,,,,,,,,,,,,,,,,,,,,,,,,,,,,,,,,,
1725618226.940465,1725618226.942094,239.0,0.0,4235.512695,4228.974121,4279.487305,4264.102539,4202.820313,4214.230957,4200.769043,4220.256348,4206.153809,4188.589844,4525.641113,4535.0,4343.461426,4446.282227,3057.0,2.0,35.0,,,,0.0,4.0,4.0,4.0,4.0,4.0,4.0,4.0,4.0,4.0,4.0,4.0,4.0,4.0,4.0,100.0,,,,,,,,,,,,,,,,,,,,,,,,,,,,,,,,,,,,,,,,,,,,,,,,,,,,,,,,,,,,,,,,,,,,,,,,,,,,,,,,,,,,,,,,,,,,,,,,,,,,,,,,,,,,,,,,,,,,,,,,,,,,,,,,,,,
1725618226.944369,1725618226.945998,240.0,0.0,4241.025879,4231.025879,4282.94873,4265.128418,4202.692383,4218.589844,4201.153809,4220.769043,4212.05127,4190.256348,4527.307617,4543.077148,4344.871582,4446.794922,3410.0,2.0,35.0,,,,0.0,4.0,4.0,4.0,4.0,4.0,4.0,4.0,4.0,4.0,4.0,4.0,4.0,4.0,4.0,100.0,,,,,,,,,,,,,,,,,,,,,,,,,,,,,,,,,,,,,,,,,,,,,,,,,,,,,,,,,,,,,,,,,,,,,,,,,,,,,,,,,,,,,,,,,,,,,,,,,,,,,,,,,,,,,,,,,,,,,,,,,,,,,,,,,,,
1725618226.948273,1725618226.949902,241.0,0.0,4244.871582,4230.897461,4283.589844,4265.769043,4201.666504,4219.102539,4201.410156,4215.256348,4214.743652,4190.512695,4526.666504,4544.487305,4343.846191,4445.384766,3881.0,2.0,35.0,,,,0.0,4.0,4.0,4.0,4.0,4.0,4.0,4.0,4.0,4.0,4.0,4.0,4.0,4.0,4.0,100.0,,,,,,,,,,,,,,,,,,,,,,,,,,,,,,,,,,,,,,,,,,,,,,,,,,,,,,,,,,,,,,,,,,,,,,,,,,,,,,,,,,,,,,,,,,,,,,,,,,,,,,,,,,,,,,,,,,,,,,,,,,,,,,,,,,,
1725618226.952177,1725618226.953806,242.0,0.0,4244.487305,4229.358887,4281.666504,4265.512695,4200.641113,4215.641113,4201.794922,4204.102539,4212.820313,4189.871582,4522.307617,4537.307617,4342.307617,4442.436035,2889.0,2.0,35.0,,,,0.0,4.0,4.0,4.0,4.0,4.0,4.0,4.0,4.0,4.0,4.0,4.0,4.0,4.0,4.0,100.0,,,,,,,,,,,,,,,,,,,,,,,,,,,,,,,,,,,,,,,,,,,,,,,,,,,,,,,,0.0,0.0,1.0,0.0,1.0,0.0,,,,,,,,,,,,,,,,,,,,,,,,,,,,,,,,,,,,,,,,,,,,,,,,,,,,,,,,,,,,,,,,,,,,,,
1725618226.956081,1725618226.95781,243.0,0.0,4240.0,4227.436035,4278.717773,4264.102539,4200.256348,4209.743652,4202.05127,4190.256348,4207.563965,4188.974121,4514.615234,4524.487305,4341.794922,4438.333496,3057.0,2.0,35.0,,,,0.0,4.0,4.0,4.0,4.0,4.0,4.0,4.0,4.0,4.0,4.0,4.0,4.0,4.0,4.0,100.0,,,,,,,,,,,,,,,,,,,,,,,,,,,,,,,,,,,,,,,,,,,,,,,,,,,,,,,,,,,,,,,,,,,,,,,,,,,,,,,,,,,,,,,,,,,,,,,,,,,,,,,,,,,,,,,,,,,,,,,,,,,,,,,,,,,
1725618226.959985,1725618226.961715,244.0,0.0,4233.846191,4225.384766,4275.897461,4261.922852,4200.384766,4204.230957,4201.410156,4178.333496,4201.282227,4187.692383,4506.153809,4511.794922,4341.666504,4433.717773,3410.0,2.0,35.0,,,,0.0,4.0,4.0,4.0,4.0,4.0,4.0,4.0,4.0,4.0,4.0,4.0,4.0,4.0,4.0,100.0,,,,,,,,,,,,,,,,,,,,,,,,,,,,,,,,,,,,,,,,,,,,,,,,,,,,,,,,,,,,,,,,,,,,,,,,,,,,,,,,,,,,,,,,,,,,,,,,,,,,,,,,,,,,,,,,,,,,,,,,,,,,,,,,,,,
1725618226.963889,1725618226.965619,245.0,0.0,4229.743652,4222.94873,4274.230957,4259.615234,4200.384766,4201.025879,4199.871582,4172.692383,4196.153809,4185.897461,4501.153809,4504.230957,4341.410156,4429.487305,3881.0,2.0,35.0,,,,0.0,4.0,4.0,4.0,4.0,4.0,4.0,4.0,4.0,4.0,4.0,4.0,4.0,4.0,4.0,100.0,,,,,,,,,,,,,,,,,,,,,,,,,,,,,,,,,,,,,,,,,,,,,,,,,,,,,,,,,,,,,,,,,,,,,,,,,,,,,,,,,,,,,,,,,,,,,,,,,,,,,,,,,,,,,,,,,,,,,,,,,,,,,,,,,,,
1725618226.967793,1725618226.969523,246.0,0.0,4229.615234,4220.128418,4273.717773,4258.077148,4199.871582,4200.641113,4198.205078,4176.153809,4192.820313,4184.102539,4501.538574,4504.230957,4341.538574,4426.666504,2889.0,2.0,35.0,,,,0.0,4.0,4.0,4.0,4.0,4.0,4.0,4.0,4.0,4.0,4.0,4.0,4.0,4.0,4.0,100.0,,,,,,,,,,,,,,,,,,,,,,,,,,,,,,,,,,,,,,,,,,,,,,,,,,,,,,,,,,,,,,,,,,,,,,,,,,,,,,,,,,,,,,,,,,,,,,,,,,,,,,,,,,,,,,,,,,,,,,,,,,,,,,,,,,,
1725618226.971697,1725618226.973427,247.0,0.0,4232.692383,4217.692383,4274.487305,4258.077148,4198.846191,4201.666504,4197.05127,4186.153809,4189.871582,4183.205078,4505.512695,4510.897461,4343.589844,4426.410156,3057.0,2.0,35.0,,,,0.0,4.0,4.0,4.0,4.0,4.0,4.0,4.0,4.0,4.0,4.0,4.0,4.0,4.0,4.0,100.0,,,,,,,,,,,,,,,,,,,,,,,,,,,,,,,,,,,,,,,,,,,,,,,,,,,,,,,,,,,,,,,,,,,,,,,,,,,,,,,,,,,,,,,,,,,,,,,,,,,,,,,,,,,,,,,,,,,,,,,,,,,,,,,,,,,
1725618226.975602,1725618226.977331,248.0,0.0,4235.897461,4216.666504,4276.282227,4259.230957,4197.820313,4202.692383,4196.794922,4197.05127,4185.769043,4183.333496,4508.461426,4519.871582,4347.94873,4429.230957,3410.0,2.0,35.0,,,,0.0,4.0,4.0,4.0,4.0,4.0,4.0,4.0,4.0,4.0,4.0,4.0,4.0,4.0,4.0,100.0,,,,,,,,,,,,,,,,,,,,,,,,,,,,,,,,,,,,,,,,,,,,,,,,,,,,,,,,,,,,,,,,,,,,,,,,,,,,,,,,,,,,,,,,,,,,,,,,,,,,,,,,,,,,,,,,,,,,,,,,,,,,,,,,,,,
1725618226.979506,1725618226.981235,249.0,0.0,4236.153809,4217.307617,4277.692383,4260.897461,4197.179688,4202.820313,4197.436035,4202.820313,4180.0,4183.846191,4508.461426,4525.512695,4352.94873,4433.974121,3881.0,2.0,35.0,,,,0.0,4.0,4.0,4.0,4.0,4.0,4.0,4.0,4.0,4.0,4.0,4.0,4.0,4.0,4.0,100.0,,,,,,,,,,,,,,,,,,,,,,,,,,,,,,,,,,,,,,,,,,,,,,,,,,,,,,,,,,,,,,,,,,,,,,,,,,,,,,,,,,,,,,,,,,,,,,,,,,,,,,,,,,,,,,,,,,,,,,,,,,,,,,,,,,,
1725618226.98341,1725618226.985139,250.0,0.0,4233.333496,4218.333496,4277.436035,4261.794922,4197.179688,4202.563965,4198.461426,4202.436035,4174.102539,4184.102539,4507.563965,4525.256348,4356.410156,4438.461426,2889.0,2.0,35.0,,,,0.0,4.0,4.0,4.0,4.0,4.0,4.0,4.0,4.0,4.0,4.0,4.0,4.0,4.0,4.0,100.0,,,,,,,,,,,,,,,,,,,,,,,,,,,,,,,,,,,,,,,,,,,,,,,,,,,,,,,,0.0,0.0,1.0,0.0,1.0,0.0,,,,,,,,,,,,,,,,,,,,,,,,,,,,,,,,,,,,,,,,,,,,,,,,,,,,,,,,,,,,,,,,,,,,,,
1725618226.987314,1725618226.989043,251.0,0.0,4230.641113,4218.717773,4275.769043,4262.307617,4197.94873,4202.820313,4199.487305,4200.0,4169.743652,4183.717773,4509.230957,4521.282227,4357.563965,4441.538574,3057.0,2.0,35.0,,,,0.0,4.0,4.0,4.0,4.0,4.0,4.0,4.0,4.0,4.0,4.0,4.0,4.0,4.0,4.0,100.0,,,,,,,,,,,,,,,,,,,,,,,,,,,,,,,,,,,,,,,,,,,,,,,,,,,,,,,,,,,,,,,,,,,,,,,,,,,,,,,,,,,,,,,,,,,,,,,,,,,,,,,,,,,,,,,,,,,,,,,,,,,,,,,,,,,
1725618226.991218,1725618226.992847,252.0,0.0,4231.666504,4218.717773,4274.358887,4262.692383,4199.358887,4204.487305,4200.384766,4200.128418,4167.820313,4182.94873,4513.461426,4518.846191,4357.307617,4443.077148,3410.0,2.0,35.0,,,,0.0,4.0,4.0,4.0,4.0,4.0,4.0,4.0,4.0,4.0,4.0,4.0,4.0,4.0,4.0,100.0,,,,,,,,,,,,,,,,,,,,,,,,,,,,,,,,,,,,,,,,,,,,,,,,,,,,,,,,,,,,,,,,,,,,,,,,,,,,,,,,,,,,,,,,,,,,,,,,,,,,,,,,,,,,,,,,,,,,,,,,,,,,,,,,,,,
1725618226.995122,1725618226.996752,253.0,0.0,4236.922852,4219.102539,4275.0,4263.846191,4200.897461,4207.563965,4201.282227,4203.589844,4167.05127,4182.436035,4516.538574,4521.794922,4356.666504,4443.717773,3881.0,2.0,35.0,,,,0.0,4.0,4.0,4.0,4.0,4.0,4.0,4.0,4.0,4.0,4.0,4.0,4.0,4.0,4.0,100.0,,,,,,,,,,,,,,,,,,,,,,,,,,,,,,,,,,,,,,,,,,,,,,,,,,,,,,,,,,,,,,,,,,,,,,,,,,,,,,,,,,,,,,,,,,,,,,,,,,,,,,,,,,,,,,,,,,,,,,,,,,,,,,,,,,,
1725618226.999026,1725618227.000656,254.0,0.0,4243.846191,4220.128418,4277.563965,4265.641113,4202.179688,4211.282227,4201.922852,4207.436035,4166.153809,4182.563965,4515.897461,4528.717773,4356.538574,4443.974121,2889.0,2.0,35.0,,,,0.0,4.0,4.0,4.0,4.0,4.0,4.0,4.0,4.0,4.0,4.0,4.0,4.0,4.0,4.0,100.0,,,,,,,,,,,,,,,,,,,,,,,,,,,,,,,,,,,,,,,,,,,,,,,,,,,,,,,,,,,,,,,,,,,,,,,,,,,,,,,,,,,,,,,,,,,,,,,,,,,,,,,,,,,,,,,,,,,,,,,,,,,,,,,,,,,
1725618227.00293,1725618227.00446,255.0,0.0,4248.589844,4220.641113,4280.128418,4267.05127,4202.692383,4213.974121,4201.922852,4208.461426,4165.128418,4183.205078,4512.692383,4534.871582,4356.538574,4444.230957,35.0,2.0,35.0,,,,0.0,4.0,4.0,4.0,4.0,4.0,4.0,4.0,4.0,4.0,4.0,4.0,4.0,4.0,4.0,100.0,,,,,,,,,,,,,,,,,,,,,,,,,,,,,,,,,,,,,,,,,,,,,,,,,,,,,,,,,,,,,,,,,,,,,,,,,,,,,,,,,,,,,,,,,,,,,,,,,,,,,,,,,,,,,,,,,,,,,,,,,,,,,,,,,,,
1725618227.006834,1725618227.008364,0.0,0.0,4249.487305,4220.256348,4280.641113,4266.922852,4202.692383,4214.487305,4201.153809,4205.897461,4165.0,4183.974121,4510.641113,4535.897461,4356.153809,4444.615234,2615.0,2.0,35.0,,,,0.0,4.0,4.0,4.0,4.0,4.0,4.0,4.0,4.0,4.0,4.0,4.0,4.0,4.0,4.0,100.0,,,,,,,,,,,,,,,,,,,,,,,,,,,,,,,,,,,,,,,,,,,,,,,,,,,,,,,,,,,,,,,,,,,,,,,,,,,,,,,,,,,,,,,,,,,,,,,,,,,,,,,,,,,,,,,,,,,,,,,,,,,,,,,,,,,
1725618227.010738,1725618227.012268,1.0,0.0,4247.692383,4219.230957,4278.717773,4265.256348,4202.179688,4212.94873,4199.871582,4201.666504,4165.897461,4183.846191,4512.05127,4530.897461,4354.487305,4444.871582,2566.0,2.0,35.0,,,,0.0,4.0,4.0,4.0,4.0,4.0,4.0,4.0,4.0,4.0,4.0,4.0,4.0,4.0,4.0,100.0,,,,,,,,,,,,,,,,,,,,,,,,,,,,,,,,,,,,,,,,,,,,,,,,,,,,,,,,,,,,,,,,,,,,,,,,,,,,,,,,,,,,,,,,,,,,,,,,,,,,,,,,,,,,,,,,,,,,,,,,,,,,,,,,,,,
1725618227.014643,1725618227.016172,2.0,0.0,4245.641113,4218.846191,4275.641113,4262.94873,4201.794922,4210.897461,4199.102539,4198.077148,4167.436035,4182.563965,4515.512695,4523.717773,4351.538574,4444.743652,2451.0,2.0,35.0,,,,0.0,4.0,4.0,4.0,4.0,4.0,4.0,4.0,4.0,4.0,4.0,4.0,4.0,4.0,4.0,100.0,,,,,,,,,,,,,,,,,1.0,0.0,0.0,,,,,,,,,,,,,,,,,,,,,,,,,,,,,,,,,,,,,0.0,0.0,1.0,0.0,1.0,0.0,2.57743,0.824331,1.171692,0.421023,0.071203,2.315947,1.168639,0.901406,0.349462,0.104089,1.814304,0.839699,0.851264,0.499064,0.102046,1.847283,0.712508,0.840077,0.432198,0.094049,0.65994,0.493125,0.322261,0.173397,0.075402,0.22711,0.396768,0.34227,0.108552,0.07768,0.445646,0.164993,0.325582,0.111756,0.128816,1.165577,1.341862,0.486175,0.425203,0.123599,1.398805,2.649896,1.386448,0.437912,0.099321,2.168098,3.359912,2.373203,0.430667,0.097955,1.723232,2.157911,1.604225,0.885866,0.299949,2.261167,1.59259,1.653396,0.632155,0.116248,3.558286,3.076258,1.450087,0.681946,0.123221,2.454294,1.330736,0.977098,0.493096,0.067682
1725618227.018547,1725618227.019976,3.0,0.0,4245.512695,4219.615234,4274.230957,4261.410156,4201.794922,4209.102539,4199.615234,4196.794922,4168.333496,4180.128418,4517.436035,4519.487305,4347.820313,4443.589844,2471.0,2.0,35.0,,,,0.0,4.0,4.0,4.0,4.0,4.0,4.0,4.0,4.0,4.0,4.0,4.0,4.0,4.0,4.0,100.0,,,,,,,,,,,,,,,,,,,,,,,,,,,,,,,,,,,,,,,,,,,,,,,,,,,,,,,,,,,,,,,,,,,,,,,,,,,,,,,,,,,,,,,,,,,,,,,,,,,,,,,,,,,,,,,,,,,,,,,,,,,,,,,,,,,
1725618227.022451,1725618227.023881,4.0,0.0,4247.307617,4220.641113,4275.769043,4261.538574,4202.05127,4207.692383,4201.794922,4198.461426,4168.205078,4176.794922,4515.512695,4520.384766,4345.128418,4441.153809,2426.0,2.0,35.0,,,,0.0,4.0,4.0,4.0,4.0,4.0,4.0,4.0,4.0,4.0,4.0,4.0,4.0,4.0,4.0,100.0,,,,,,,,,,,,,,,,,,,,,,,,,,,,,,,,,,,,,,,,,,,,,,,,,,,,,,,,,,,,,,,,,,,,,,,,,,,,,,,,,,,,,,,,,,,,,,,,,,,,,,,,,,,,,,,,,,,,,,,,,,,,,,,,,,,
1725618227.026355,1725618227.027785,5.0,0.0,4249.230957,4221.153809,4278.846191,4263.077148,4202.692383,4206.282227,4204.743652,4202.05127,4167.692383,4173.077148,4511.025879,4524.230957,4344.102539,4437.94873,2391.0,2.0,35.0,,,,0.0,4.0,4.0,4.0,4.0,4.0,4.0,4.0,4.0,4.0,4.0,4.0,4.0,4.0,4.0,100.0,,,,,,,,,,,,,,,,,,,,,,,,,,,,,,,,,,,,,,,,,,,,,,,,,,,,,,,,,,,,,,,,,,,,,,,,,,,,,,,,,,,,,,,,,,,,,,,,,,,,,,,,,,,,,,,,,,,,,,,,,,,,,,,,,,,
1725618227.030259,1725618227.031789,6.0,0.0,4248.974121,4221.025879,4280.641113,4264.615234,4203.205078,4204.615234,4206.922852,4204.615234,4167.179688,4169.871582,4507.05127,4526.025879,4344.487305,4434.358887,2189.0,2.0,35.0,,,,0.0,4.0,4.0,4.0,4.0,4.0,4.0,4.0,4.0,4.0,4.0,4.0,4.0,4.0,4.0,100.0,,,,,,,,,,,,,,,,,,,,,,,,,,,,,,,,,,,,,,,,,,,,,,,,,,,,,,,,,,,,,,,,,,,,,,,,,,,,,,,,,,,,,,,,,,,,,,,,,,,,,,,,,,,,,,,,,,,,,,,,,,,,,,,,,,,
1725618227.034163,1725618227.035693,7.0,0.0,4245.256348,4220.384766,4278.461426,4265.0,4203.205078,4203.461426,4207.179688,4203.589844,4167.307617,4167.94873,4505.897461,4522.563965,4344.487305,4430.641113,2506.0,2.0,35.0,,,,0.0,4.0,4.0,4.0,4.0,4.0,4.0,4.0,4.0,4.0,4.0,4.0,4.0,4.0,4.0,100.0,,,,,,,,,,,,,,,,,,,,,,,,,,,,,,,,,,,,,,,,,,,,,,,,,,,,,,,,,,,,,,,,,,,,,,,,,,,,,,,,,,,,,,,,,,,,,,,,,,,,,,,,,,,,,,,,,,,,,,,,,,,,,,,,,,,
1725618227.038067,1725618227.039597,8.0,0.0,4239.102539,4219.487305,4272.179688,4263.974121,4202.05127,4203.077148,4205.384766,4198.846191,4167.94873,4167.179688,4507.307617,4514.615234,4342.436035,4427.436035,2481.0,2.0,35.0,,,,0.0,4.0,4.0,4.0,4.0,4.0,4.0,4.0,4.0,4.0,4.0,4.0,4.0,4.0,4.0,100.0,,,,,,,,,,,,,,,,,,,,,,,,,,,,,,,,,,,,,,,,,,,,,,,,,,,,,,,,,,,,,,,,,,,,,,,,,,,,,,,,,,,,,,,,,,,,,,,,,,,,,,,,,,,,,,,,,,,,,,,,,,,,,,,,,,,
1725618227.041971,1725618227.043601,9.0,0.0,4233.717773,4218.589844,4265.384766,4262.307617,4200.512695,4203.205078,4202.692383,4192.94873,4168.461426,4167.436035,4508.974121,4506.410156,4337.94873,4425.512695,2548.0,2.0,35.0,,,,0.0,4.0,4.0,4.0,4.0,4.0,4.0,4.0,4.0,4.0,4.0,4.0,4.0,4.0,4.0,100.0,,,,,,,,,,,,,,,,,,,,,,,,,,,,,,,,,,,,,,,,,,,,,,,,,,,,,,,,,,,,,,,,,,,,,,,,,,,,,,,,,,,,,,,,,,,,,,,,,,,,,,,,,,,,,,,,,,,,,,,,,,,,,,,,,,,
1725618227.045875,1725618227.047505,10.0,0.0,4231.410156,4217.692383,4262.05127,4260.641113,4199.487305,4203.205078,4200.769043,4188.846191,4167.94873,4167.94873,4508.333496,4502.820313,4332.692383,4425.256348,2894.0,2.0,35.0,,,,0.0,4.0,4.0,4.0,4.0,4.0,4.0,4.0,4.0,4.0,4.0,4.0,4.0,4.0,4.0,100.0,,,,,,,,,,,,,,,,,,,,,,,,,,,,,,,,,,,,,,,,,,,,,,,,,,,,,,,,0.0,0.0,1.0,0.0,1.0,0.0,,,,,,,,,,,,,,,,,,,,,,,,,,,,,,,,,,,,,,,,,,,,,,,,,,,,,,,,,,,,,,,,,,,,,,
1725618227.04978,1725618227.051409,11.0,0.0,4231.794922,4217.307617,4264.230957,4259.871582,4199.615234,4202.563965,4200.641113,4188.333496,4166.025879,4168.077148,4505.384766,4504.615234,4328.461426,4426.410156,3064.0,2.0,35.0,,,,0.0,4.0,4.0,4.0,4.0,4.0,4.0,4.0,4.0,4.0,4.0,4.0,4.0,4.0,4.0,100.0,,,,,,,,,,,,,,,,,,,,,,,,,,,,,,,,,,,,,,,,,,,,,,,,,,,,,,,,,,,,,,,,,,,,,,,,,,,,,,,,,,,,,,,,,,,,,,,,,,,,,,,,,,,,,,,,,,,,,,,,,,,,,,,,,,,
1725618227.053684,1725618227.055313,12.0,0.0,4232.820313,4217.436035,4270.256348,4260.128418,4200.769043,4201.282227,4202.05127,4191.025879,4163.717773,4167.563965,4503.333496,4508.205078,4326.538574,4427.94873,3411.0,2.0,35.0,,,,0.0,4.0,4.0,4.0,4.0,4.0,4.0,4.0,4.0,4.0,4.0,4.0,4.0,4.0,4.0,100.0,,,,,,,,,,,,,,,,,,,,,,,,,,,,,,,,,,,,,,,,,,,,,,,,,,,,,,,,,,,,,,,,,,,,,,,,,,,,,,,,,,,,,,,,,,,,,,,,,,,,,,,,,,,,,,,,,,,,,,,,,,,,,,,,,,,
1725618227.057588,1725618227.059217,13.0,0.0,4232.94873,4217.436035,4275.897461,4261.410156,4201.666504,4200.128418,4203.846191,4195.384766,4162.692383,4166.794922,4505.0,4509.743652,4326.922852,4428.974121,3887.0,2.0,35.0,,,,0.0,4.0,4.0,4.0,4.0,4.0,4.0,4.0,4.0,4.0,4.0,4.0,4.0,4.0,4.0,100.0,,,,,,,,,,,,,,,,,,,,,,,,,,,,,,,,,,,,,,,,,,,,,,,,,,,,,,,,,,,,,,,,,,,,,,,,,,,,,,,,,,,,,,,,,,,,,,,,,,,,,,,,,,,,,,,,,,,,,,,,,,,,,,,,,,,
1725618227.061492,1725618227.063221,14.0,0.0,4232.563965,4217.179688,4278.205078,4262.820313,4201.922852,4199.358887,4204.615234,4199.487305,4163.846191,4166.666504,4509.871582,4508.589844,4328.205078,4429.102539,2894.0,2.0,35.0,,,,0.0,4.0,4.0,4.0,4.0,4.0,4.0,4.0,4.0,4.0,4.0,4.0,4.0,4.0,4.0,100.0,,,,,,,,,,,,,,,,,,,,,,,,,,,,,,,,,,,,,,,,,,,,,,,,,,,,,,,,,,,,,,,,,,,,,,,,,,,,,,,,,,,,,,,,,,,,,,,,,,,,,,,,,,,,,,,,,,,,,,,,,,,,,,,,,,,
1725618227.065396,1725618227.067125,15.0,0.0,4233.461426,4217.179688,4277.179688,4263.461426,4201.538574,4199.230957,4203.974121,4201.794922,4166.282227,4167.563965,4513.077148,4507.94873,4327.436035,4429.102539,3064.0,2.0,35.0,,,,0.0,4.0,4.0,4.0,4.0,4.0,4.0,4.0,4.0,4.0,4.0,4.0,4.0,4.0,4.0,100.0,,,,,,,,,,,,,,,,,,,,,,,,,,,,,,,,,,,,,,,,,,,,,,,,,,,,,,,,,,,,,,,,,,,,,,,,,,,,,,,,,,,,,,,,,,,,,,,,,,,,,,,,,,,,,,,,,,,,,,,,,,,,,,,,,,,
1725618227.0693,1725618227.071029,16.0,0.0,4236.666504,4218.077148,4275.128418,4263.077148,4200.897461,4199.615234,4202.436035,4201.282227,4168.077148,4168.589844,4510.897461,4509.871582,4322.307617,4429.358887,3411.0,2.0,35.0,,,,0.0,4.0,4.0,4.0,4.0,4.0,4.0,4.0,4.0,4.0,4.0,4.0,4.0,4.0,4.0,100.0,,,,,,,,,,,,,,,,,,,,,,,,,,,,,,,,,,,,,,,,,,,,,,,,,,,,,,,,,,,,,,,,,,,,,,,,,,,,,,,,,,,,,,,,,,,,,,,,,,,,,,,,,,,,,,,,,,,,,,,,,,,,,,,,,,,
1725618227.073204,1725618227.074934,17.0,0.0,4241.538574,4219.487305,4274.102539,4261.794922,4200.769043,4200.384766,4200.897461,4198.974121,4168.205078,4168.461426,4504.230957,4513.717773,4313.077148,4429.871582,3887.0,2.0,35.0,,,,0.0,4.0,4.0,4.0,4.0,4.0,4.0,4.0,4.0,4.0,4.0,4.0,4.0,4.0,4.0,100.0,,,,,,,,,,,,,,,,,,,,,,,,,,,,,,,,,,,,,,,,,,,,,,,,,,,,,,,,,,,,,,,,,,,,,,,,,,,,,,,,,,,,,,,,,,,,,,,,,,,,,,,,,,,,,,,,,,,,,,,,,,,,,,,,,,,
1725618227.077108,1725618227.078738,18.0,0.0,4246.153809,4220.384766,4274.487305,4260.897461,4201.153809,4201.538574,4200.256348,4197.05127,4166.922852,4167.179688,4498.717773,4516.153809,4303.333496,4430.128418,2894.0,2.0,35.0,,,,0.0,4.0,4.0,4.0,4.0,4.0,4.0,4.0,4.0,4.0,4.0,4.0,4.0,4.0,4.0,100.0,,,,,,,,,,,,,,,,,,,,,,,,,,,,,,,,,,,,,,,,,,,,,,,,,,,,,,,,0.0,0.0,1.0,0.0,1.0,0.0,,,,,,,,,,,,,,,,,,,,,,,,,,,,,,,,,,,,,,,,,,,,,,,,,,,,,,,,,,,,,,,,,,,,,,
1725618227.081012,1725618227.082642,19.0,0.0,4248.333496,4220.128418,4275.384766,4261.025879,4202.05127,4202.692383,4201.025879,4197.05127,4165.641113,4165.897461,4499.230957,4515.0,4296.666504,4430.0,3064.0,2.0,35.0,,,,0.0,4.0,4.0,4.0,4.0,4.0,4.0,4.0,4.0,4.0,4.0,4.0,4.0,4.0,4.0,100.0,,,,,,,,,,,,,,,,,,,,,,,,,,,,,,,,,,,,,,,,,,,,,,,,,,,,,,,,,,,,,,,,,,,,,,,,,,,,,,,,,,,,,,,,,,,,,,,,,,,,,,,,,,,,,,,,,,,,,,,,,,,,,,,,,,,
1725618227.084916,1725618227.086546,20.0,0.0,4247.692383,4219.102539,4276.153809,4262.179688,4203.205078,4203.461426,4202.94873,4198.077148,4165.384766,4166.666504,4505.641113,4510.897461,4294.102539,4429.743652,3411.0,2.0,35.0,,,,0.0,4.0,4.0,4.0,4.0,4.0,4.0,4.0,4.0,4.0,4.0,4.0,4.0,4.0,4.0,100.0,,,,,,,,,,,,,,,,,,,,,,,,,,,,,,,,,,,,,,,,,,,,,,,,,,,,,,,,,,,,,,,,,,,,,,,,,,,,,,,,,,,,,,,,,,,,,,,,,,,,,,,,,,,,,,,,,,,,,,,,,,,,,,,,,,,
1725618227.088821,1725618227.09045,21.0,0.0,4245.641113,4218.717773,4276.922852,4263.589844,4204.102539,4203.974121,4205.128418,4198.717773,4166.282227,4170.256348,4513.333496,4507.179688,4293.333496,4429.743652,3887.0,2.0,35.0,,,,0.0,4.0,4.0,4.0,4.0,4.0,4.0,4.0,4.0,4.0,4.0,4.0,4.0,4.0,4.0,100.0,,,,,,,,,,,,,,,,,,,,,,,,,,,,,,,,,,,,,,,,,,,,,,,,,,,,,,,,,,,,,,,,,,,,,,,,,,,,,,,,,,,,,,,,,,,,,,,,,,,,,,,,,,,,,,,,,,,,,,,,,,,,,,,,,,,
1725618227.092725,1725618227.094354,22.0,0.0,4244.615234,4219.743652,4278.077148,4264.615234,4204.358887,4205.0,4206.410156,4198.589844,4168.077148,4175.384766,4517.436035,4507.307617,4291.025879,4430.769043,2894.0,2.0,35.0,,,,0.0,4.0,4.0,4.0,4.0,4.0,4.0,4.0,4.0,4.0,4.0,4.0,4.0,4.0,4.0,100.0,,,,,,,,,,,,,,,,,,,,,,,,,,,,,,,,,,,,,,,,,,,,,,,,,,,,,,,,,,,,,,,,,,,,,,,,,,,,,,,,,,,,,,,,,,,,,,,,,,,,,,,,,,,,,,,,,,,,,,,,,,,,,,,,,,,
1725618227.096629,1725618227.098158,23.0,0.0,4245.769043,4221.538574,4278.974121,4265.0,4204.102539,4207.05127,4206.025879,4198.717773,4169.743652,4180.256348,4515.897461,4512.307617,4285.384766,4432.820313,3064.0,2.0,35.0,,,,0.0,4.0,4.0,4.0,4.0,4.0,4.0,4.0,4.0,4.0,4.0,4.0,4.0,4.0,4.0,100.0,,,,,,,,,,,,,,,,,,,,,,,,,,,,,,,,,,,,,,,,,,,,,,,,,,,,,,,,,,,,,,,,,,,,,,,,,,,,,,,,,,,,,,,,,,,,,,,,,,,,,,,,,,,,,,,,,,,,,,,,,,,,,,,,,,,
1725618227.100533,1725618227.102063,24.0,0.0,4247.820313,4222.94873,4278.461426,4264.871582,4203.205078,4210.0,4204.487305,4199.743652,4170.128418,4183.077148,4510.769043,4519.230957,4277.820313,4435.128418,3411.0,2.0,35.0,,,,0.0,4.0,4.0,4.0,4.0,4.0,4.0,4.0,4.0,4.0,4.0,4.0,4.0,4.0,4.0,100.0,,,,,,,,,,,,,,,,,,,,,,,,,,,,,,,,,,,,,,,,,,,,,,,,,,,,,,,,,,,,,,,,,,,,,,,,,,,,,,,,,,,,,,,,,,,,,,,,,,,,,,,,,,,,,,,,,,,,,,,,,,,,,,,,,,,
1725618227.104437,1725618227.105967,25.0,0.0,4248.846191,4222.692383,4276.666504,4265.0,4202.179688,4212.94873,4202.94873,4201.538574,4169.230957,4183.974121,4506.410156,4524.230957,4270.641113,4436.282227,3887.0,2.0,35.0,,,,0.0,4.0,4.0,4.0,4.0,4.0,4.0,4.0,4.0,4.0,4.0,4.0,4.0,4.0,4.0,100.0,,,,,,,,,,,,,,,,,,,,,,,,,,,,,,,,,,,,,,,,,,,,,,,,,,,,,,,,,,,,,,,,,,,,,,,,,,,,,,,,,,,,,,,,,,,,,,,,,,,,,,,,,,,,,,,,,,,,,,,,,,,,,,,,,,,
1725618227.108341,1725618227.109771,26.0,0.0,4247.820313,4220.897461,4274.871582,4265.769043,4201.538574,4215.256348,4202.179688,4202.820313,4167.692383,4184.102539,4506.666504,4524.871582,4265.512695,4435.769043,2894.0,2.0,35.0,,,,0.0,4.0,4.0,4.0,4.0,4.0,4.0,4.0,4.0,4.0,4.0,4.0,4.0,4.0,4.0,100.0,,,,,,,,,,,,,,,,,,,,,,,,,,,,,,,,,,,,,,,,,,,,,,,,,,,,,,,,0.0,0.0,1.0,0.0,1.0,0.0,,,,,,,,,,,,,,,,,,,,,,,,,,,,,,,,,,,,,,,,,,,,,,,,,,,,,,,,,,,,,,,,,,,,,,
1725618227.112245,1725618227.113675,27.0,0.0,4245.897461,4218.717773,4274.615234,4266.794922,4201.666504,4216.538574,4202.94873,4203.077148,4167.05127,4184.102539,4511.666504,4522.179688,4262.307617,4433.717773,3064.0,2.0,35.0,,,,0.0,4.0,4.0,4.0,4.0,4.0,4.0,4.0,4.0,4.0,4.0,4.0,4.0,4.0,4.0,100.0,,,,,,,,,,,,,,,,,,,,,,,,,,,,,,,,,,,,,,,,,,,,,,,,,,,,,,,,,,,,,,,,,,,,,,,,,,,,,,,,,,,,,,,,,,,,,,,,,,,,,,,,,,,,,,,,,,,,,,,,,,,,,,,,,,,
1725618227.116149,1725618227.117579,28.0,0.0,4244.871582,4217.94873,4275.769043,4267.692383,4202.436035,4216.410156,4204.487305,4202.94873,4168.717773,4184.102539,4518.333496,4519.743652,4259.230957,4431.922852,3411.0,2.0,35.0,,,,0.0,4.0,4.0,4.0,4.0,4.0,4.0,4.0,4.0,4.0,4.0,4.0,4.0,4.0,4.0,100.0,,,,,,,,,,,,,,,,,,,,,,,,,,,,,,,,,,,,,,,,,,,,,,,,,,,,,,,,,,,,,,,,,,,,,,,,,,,,,,,,,,,,,,,,,,,,,,,,,,,,,,,,,,,,,,,,,,,,,,,,,,,,,,,,,,,
1725618227.120053,1725618227.121583,29.0,0.0,4245.641113,4219.102539,4277.05127,4267.94873,4203.333496,4215.384766,4205.384766,4204.102539,4172.307617,4184.615234,4522.94873,4519.871582,4254.102539,4432.05127,3887.0,2.0,35.0,,,,0.0,4.0,4.0,4.0,4.0,4.0,4.0,4.0,4.0,4.0,4.0,4.0,4.0,4.0,4.0,100.0,,,,,,,,,,,,,,,,,,,,,,,,,,,,,,,,,,,,,,,,,,,,,,,,,,,,,,,,,,,,,,,,,,,,,,,,,,,,,,,,,,,,,,,,,,,,,,,,,,,,,,,,,,,,,,,,,,,,,,,,,,,,,,,,,,,
1725618227.123958,1725618227.125487,30.0,0.0,4247.05127,4221.153809,4276.538574,4267.692383,4203.589844,4213.974121,4204.871582,4207.820313,4177.05127,4185.769043,4524.615234,4522.563965,4246.410156,4434.871582,2894.0,2.0,35.0,,,,0.0,4.0,4.0,4.0,4.0,4.0,4.0,4.0,4.0,4.0,4.0,4.0,4.0,4.0,4.0,100.0,,,,,,,,,,,,,,,,,,,,,,,,,,,,,,,,,,,,,,,,,,,,,,,,,,,,,,,,,,,,,,,,,,,,,,,,,,,,,,,,,,,,,,,,,,,,,,,,,,,,,,,,,,,,,,,,,,,,,,,,,,,,,,,,,,,
1725618227.127862,1725618227.129391,31.0,0.0,4247.05127,4222.179688,4273.333496,4266.922852,4202.692383,4212.820313,4203.333496,4214.358887,4181.410156,4187.94873,4524.487305,4525.256348,4237.692383,4439.487305,3064.0,2.0,35.0,,,,0.0,4.0,4.0,4.0,4.0,4.0,4.0,4.0,4.0,4.0,4.0,4.0,4.0,4.0,4.0,100.0,,,,,,,,,,,,,,,,,,,,,,,,,,,,,,,,,,,,,,,,,,,,,,,,,,,,,,,,,,,,,,,,,,,,,,,,,,,,,,,,,,,,,,,,,,,,,,,,,,,,,,,,,,,,,,,,,,,,,,,,,,,,,,,,,,,
1725618227.131766,1725618227.133295,32.0,0.0,4244.615234,4221.538574,4268.333496,4265.897461,4201.410156,4212.563965,4201.666504,4221.410156,4184.358887,4190.641113,4524.487305,4526.025879,4230.0,4443.589844,0.0,2.0,35.0,,,,0.0,4.0,4.0,4.0,4.0,4.0,4.0,4.0,4.0,4.0,4.0,4.0,4.0,4.0,4.0,100.0,,,,,,,,,,,,,,,,,,,,,,,,,,,,,,,,,,,,,,,,,,,,,,,,,,,,,,,,,,,,,,,,,,,,,,,,,,,,,,,,,,,,,,,,,,,,,,,,,,,,,,,,,,,,,,,,,,,,,,,,,,,,,,,,,,,
1725618227.13567,1725618227.137299,33.0,0.0,4240.128418,4219.230957,4263.589844,4264.615234,4200.512695,4213.461426,4200.769043,4225.128418,4185.641113,4193.205078,4524.358887,4524.871582,4223.974121,4444.871582,0.0,2.0,35.0,,,,0.0,4.0,4.0,4.0,4.0,4.0,4.0,4.0,4.0,4.0,4.0,4.0,4.0,4.0,4.0,100.0,,,,,,,,,,,,,,,,,,,,,,,,,,,,,,,,,,,,,,,,,,,,,,,,,,,,,,,,,,,,,,,,,,,,,,,,,,,,,,,,,,,,,,,,,,,,,,,,,,,,,,,,,,,,,,,,,,,,,,,,,,,,,,,,,,,
1725618227.139574,1725618227.141203,34.0,0.0,4235.512695,4216.922852,4261.282227,4263.205078,4200.641113,4214.871582,4200.769043,4222.692383,4185.384766,4194.358887,4522.05127,4523.589844,4218.077148,4442.692383,0.0,2.0,35.0,,,,0.0,4.0,4.0,4.0,4.0,4.0,4.0,4.0,4.0,4.0,4.0,4.0,4.0,4.0,4.0,100.0,,,,,,,,,,,,,,,,,1.0,0.0,0.0,,,,,,,,,,,,,,,,,,,,,,,,,,,,,,,,,,,,,0.0,0.0,1.0,0.0,1.0,0.0,3.27592,0.897545,1.216848,0.384325,0.075495,2.591545,1.246741,0.887264,0.322561,0.109924,2.270697,0.978135,0.855579,0.464183,0.104183,2.188888,0.824243,0.913916,0.378855,0.095416,0.604225,0.563533,0.338131,0.161184,0.075089,0.330405,0.49524,0.322886,0.109375,0.095151,0.477463,0.188339,0.324548,0.112885,0.117484,1.213999,1.364993,0.611541,0.405506,0.148282,1.71217,2.579644,1.301573,0.410875,0.112157,2.40259,3.251476,2.175254,0.383302,0.096313,2.132128,2.21234,1.541278,0.811142,0.285413,2.904443,1.743415,1.621955,0.586024,0.120183,5.028025,3.234936,1.395665,0.619811,0.127208,3.269651,1.455664,0.915916,0.444415,0.066397
1725618227.143478,1725618227.145108,35.0,0.0,4232.307617,4215.641113,4261.794922,4262.179688,4201.025879,4216.153809,4200.897461,4213.974121,4184.358887,4193.589844,4516.282227,4522.820313,4210.512695,4437.94873,0.0,2.0,35.0,,,,0.0,4.0,4.0,4.0,4.0,4.0,4.0,4.0,4.0,4.0,4.0,4.0,4.0,4.0,4.0,100.0,,,,,,,,,,,,,,,,,,,,,,,,,,,,,,,,,,,,,,,,,,,,,,,,,,,,,,,,,,,,,,,,,,,,,,,,,,,,,,,,,,,,,,,,,,,,,,,,,,,,,,,,,,,,,,,,,,,,,,,,,,,,,,,,,,,
1725618227.147382,1725618227.149112,36.0,0.0,4231.538574,4215.512695,4263.077148,4261.410156,4200.897461,4216.538574,4200.512695,4203.205078,4182.94873,4190.641113,4508.717773,4521.666504,4200.512695,4432.436035,0.0,2.0,35.0,,,,0.0,4.0,4.0,4.0,4.0,4.0,4.0,4.0,4.0,4.0,4.0,4.0,4.0,4.0,4.0,100.0,,,,,,,,,,,,,,,,,,,,,,,,,,,,,,,,,,,,,,,,,,,,,,,,,,,,,,,,,,,,,,,,,,,,,,,,,,,,,,,,,,,,,,,,,,,,,,,,,,,,,,,,,,,,,,,,,,,,,,,,,,,,,,,,,,,
1725618227.151286,1725618227.153016,37.0,0.0,4232.563965,4215.641113,4263.333496,4260.897461,4199.871582,4215.769043,4199.615234,4195.512695,4182.05127,4186.666504,4503.333496,4519.487305,4189.871582,4427.692383,0.0,2.0,35.0,,,,0.0,4.0,4.0,4.0,4.0,4.0,4.0,4.0,4.0,4.0,4.0,4.0,4.0,4.0,4.0,100.0,,,,,,,,,,,,,,,,,,,,,,,,,,,,,,,,,,,,,,,,,,,,,,,,,,,,,,,,,,,,,,,,,,,,,,,,,,,,,,,,,,,,,,,,,,,,,,,,,,,,,,,,,,,,,,,,,,,,,,,,,,,,,,,,,,,
1725618227.15519,1725618227.15692,38.0,0.0,4233.974121,4215.641113,4262.692383,4260.384766,4198.461426,4214.871582,4198.974121,4194.871582,4181.922852,4183.846191,4503.717773,4517.436035,4181.025879,4425.128418,0.0,2.0,35.0,,,,0.0,4.0,4.0,4.0,4.0,4.0,4.0,4.0,4.0,4.0,4.0,4.0,4.0,4.0,4.0,100.0,,,,,,,,,,,,,,,,,,,,,,,,,,,,,,,,,,,,,,,,,,,,,,,,,,,,,,,,,,,,,,,,,,,,,,,,,,,,,,,,,,,,,,,,,,,,,,,,,,,,,,,,,,,,,,,,,,,,,,,,,,,,,,,,,,,
1725618227.159094,1725618227.160824,39.0,0.0,4234.358887,4215.384766,4262.820313,4259.871582,4197.436035,4214.743652,4199.358887,4201.153809,4182.692383,4184.487305,4510.256348,4517.05127,4176.153809,4426.025879,0.0,2.0,35.0,,,,0.0,4.0,4.0,4.0,4.0,4.0,4.0,4.0,4.0,4.0,4.0,4.0,4.0,4.0,4.0,100.0,,,,,,,,,,,,,,,,,,,,,,,,,,,,,,,,,,,,,,,,,,,,,,,,,,,,,,,,,,,,,,,,,,,,,,,,,,,,,,,,,,,,,,,,,,,,,,,,,,,,,,,,,,,,,,,,,,,,,,,,,,,,,,,,,,,
1725618227.162999,1725618227.164728,40.0,0.0,4233.461426,4215.256348,4264.743652,4259.230957,4197.436035,4215.769043,4200.769043,4210.897461,4184.487305,4188.461426,4519.487305,4519.230957,4174.487305,4430.0,0.0,2.0,35.0,,,,0.0,4.0,4.0,4.0,4.0,4.0,4.0,4.0,4.0,4.0,4.0,4.0,4.0,4.0,4.0,100.0,,,,,,,,,,,,,,,,,,,,,,,,,,,,,,,,,,,,,,,,,,,,,,,,,,,,,,,,,,,,,,,,,,,,,,,,,,,,,,,,,,,,,,,,,,,,,,,,,,,,,,,,,,,,,,,,,,,,,,,,,,,,,,,,,,,
1725618227.166903,1725618227.168532,41.0,0.0,4231.922852,4215.256348,4267.692383,4259.102539,4198.077148,4216.922852,4202.179688,4219.230957,4186.794922,4194.230957,4527.179688,4522.692383,4174.358887,4435.512695,0.0,2.0,35.0,,,,0.0,4.0,4.0,4.0,4.0,4.0,4.0,4.0,4.0,4.0,4.0,4.0,4.0,4.0,4.0,100.0,,,,,,,,,,,,,,,,,,,,,,,,,,,,,,,,,,,,,,,,,,,,,,,,,,,,,,,,,,,,,,,,,,,,,,,,,,,,,,,,,,,,,,,,,,,,,,,,,,,,,,,,,,,,,,,,,,,,,,,,,,,,,,,,,,,
1725618227.170807,1725618227.172436,42.0,0.0,4231.410156,4215.512695,4270.256348,4259.743652,4198.974121,4217.436035,4202.307617,4223.077148,4188.846191,4199.102539,4530.256348,4525.512695,4173.333496,4440.256348,0.0,2.0,35.0,,,,0.0,4.0,4.0,4.0,4.0,4.0,4.0,4.0,4.0,4.0,4.0,4.0,4.0,4.0,4.0,100.0,,,,,,,,,,,,,,,,,,,,,,,,,,,,,,,,,,,,,,,,,,,,,,,,,,,,,,,,0.0,0.0,1.0,0.0,1.0,0.0,,,,,,,,,,,,,,,,,,,,,,,,,,,,,,,,,,,,,,,,,,,,,,,,,,,,,,,,,,,,,,,,,,,,,,
1725618227.174711,1725618227.17634,43.0,0.0,4232.94873,4215.769043,4271.794922,4261.025879,4199.358887,4217.05127,4200.897461,4221.794922,4189.743652,4200.897461,4529.358887,4526.794922,4169.871582,4442.692383,0.0,2.0,35.0,,,,0.0,4.0,4.0,4.0,4.0,4.0,4.0,4.0,4.0,4.0,4.0,4.0,4.0,4.0,4.0,100.0,,,,,,,,,,,,,,,,,,,,,,,,,,,,,,,,,,,,,,,,,,,,,,,,,,,,,,,,,,,,,,,,,,,,,,,,,,,,,,,,,,,,,,,,,,,,,,,,,,,,,,,,,,,,,,,,,,,,,,,,,,,,,,,,,,,
1725618227.178615,1725618227.180244,44.0,0.0,4236.538574,4215.769043,4272.692383,4262.692383,4199.358887,4216.025879,4198.846191,4216.666504,4189.230957,4198.461426,4526.538574,4527.436035,4163.974121,4442.563965,0.0,2.0,35.0,,,,0.0,4.0,4.0,4.0,4.0,4.0,4.0,4.0,4.0,4.0,4.0,4.0,4.0,4.0,4.0,100.0,,,,,,,,,,,,,,,,,,,,,,,,,,,,,,,,,,,,,,,,,,,,,,,,,,,,,,,,,,,,,,,,,,,,,,,,,,,,,,,,,,,,,,,,,,,,,,,,,,,,,,,,,,,,,,,,,,,,,,,,,,,,,,,,,,,
1725618227.182519,1725618227.184049,45.0,0.0,4241.153809,4215.128418,4274.487305,4264.102539,4199.102539,4215.0,4197.179688,4210.128418,4187.563965,4193.333496,4523.846191,4529.358887,4156.922852,4441.410156,0.0,2.0,35.0,,,,0.0,4.0,4.0,4.0,4.0,4.0,4.0,4.0,4.0,4.0,4.0,4.0,4.0,4.0,4.0,100.0,,,,,,,,,,,,,,,,,,,,,,,,,,,,,,,,,,,,,,,,,,,,,,,,,,,,,,,,,,,,,,,,,,,,,,,,,,,,,,,,,,,,,,,,,,,,,,,,,,,,,,,,,,,,,,,,,,,,,,,,,,,,,,,,,,,
1725618227.186423,1725618227.187953,46.0,0.0,4245.641113,4214.230957,4277.436035,4264.743652,4198.717773,4214.358887,4197.307617,4204.102539,4185.769043,4188.333496,4522.05127,4533.461426,4150.256348,4440.897461,0.0,2.0,35.0,,,,0.0,4.0,4.0,4.0,4.0,4.0,4.0,4.0,4.0,4.0,4.0,4.0,4.0,4.0,4.0,100.0,,,,,,,,,,,,,,,,,,,,,,,,,,,,,,,,,,,,,,,,,,,,,,,,,,,,,,,,,,,,,,,,,,,,,,,,,,,,,,,,,,,,,,,,,,,,,,,,,,,,,,,,,,,,,,,,,,,,,,,,,,,,,,,,,,,
1725618227.190327,1725618227.191857,47.0,0.0,4249.102539,4214.102539,4280.769043,4264.358887,4198.846191,4214.487305,4198.974121,4200.512695,4184.743652,4186.538574,4520.769043,4538.846191,4144.487305,4442.05127,0.0,2.0,35.0,,,,0.0,4.0,4.0,4.0,4.0,4.0,4.0,4.0,4.0,4.0,4.0,4.0,4.0,4.0,4.0,100.0,,,,,,,,,,,,,,,,,,,,,,,,,,,,,,,,,,,,,,,,,,,,,,,,,,,,,,,,,,,,,,,,,,,,,,,,,,,,,,,,,,,,,,,,,,,,,,,,,,,,,,,,,,,,,,,,,,,,,,,,,,,,,,,,,,,
1725618227.194231,1725618227.195761,48.0,0.0,4251.153809,4215.641113,4283.205078,4263.461426,4199.487305,4214.871582,4201.025879,4200.641113,4184.487305,4188.846191,4520.256348,4542.179688,4139.615234,4444.358887,0.0,2.0,35.0,,,,0.0,4.0,4.0,4.0,4.0,4.0,4.0,4.0,4.0,4.0,4.0,4.0,4.0,4.0,4.0,100.0,,,,,,,,,,,,,,,,,,,,,,,,,,,,,,,,,,,,,,,,,,,,,,,,,,,,,,,,,,,,,,,,,,,,,,,,,,,,,,,,,,,,,,,,,,,,,,,,,,,,,,,,,,,,,,,,,,,,,,,,,,,,,,,,,,,
1725618227.198136,1725618227.199565,49.0,0.0,4251.666504,4218.205078,4283.974121,4263.333496,4200.256348,4215.384766,4202.436035,4205.128418,4184.743652,4193.205078,4521.666504,4541.025879,4134.743652,4446.410156,0.0,2.0,35.0,,,,0.0,4.0,4.0,4.0,4.0,4.0,4.0,4.0,4.0,4.0,4.0,4.0,4.0,4.0,4.0,100.0,,,,,,,,,,,,,,,,,,,,,,,,,,,,,,,,,,,,,,,,,,,,,,,,,,,,,,,,,,,,,,,,,,,,,,,,,,,,,,,,,,,,,,,,,,,,,,,,,,,,,,,,,,,,,,,,,,,,,,,,,,,,,,,,,,,
1725618227.20204,1725618227.203469,50.0,0.0,4251.282227,4220.256348,4282.563965,4264.230957,4200.769043,4215.897461,4202.307617,4212.05127,4184.871582,4196.153809,4524.871582,4535.384766,4129.487305,4446.922852,0.0,2.0,35.0,,,,0.0,4.0,4.0,4.0,4.0,4.0,4.0,4.0,4.0,4.0,4.0,4.0,4.0,4.0,4.0,100.0,,,,,,,,,,,,,,,,,,,,,,,,,,,,,,,,,,,,,,,,,,,,,,,,,,,,,,,,0.0,0.0,1.0,0.0,1.0,0.0,,,,,,,,,,,,,,,,,,,,,,,,,,,,,,,,,,,,,,,,,,,,,,,,,,,,,,,,,,,,,,,,,,,,,,
1725618227.205944,1725618227.207373,51.0,0.0,4250.769043,4220.128418,4279.871582,4265.128418,4201.025879,4216.282227,4201.282227,4217.436035,4184.615234,4195.128418,4526.922852,4528.077148,4123.205078,4445.769043,0.0,2.0,35.0,,,,0.0,4.0,4.0,4.0,4.0,4.0,4.0,4.0,4.0,4.0,4.0,4.0,4.0,4.0,4.0,100.0,,,,,,,,,,,,,,,,,,,,,,,,,,,,,,,,,,,,,,,,,,,,,,,,,,,,,,,,,,,,,,,,,,,,,,,,,,,,,,,,,,,,,,,,,,,,,,,,,,,,,,,,,,,,,,,,,,,,,,,,,,,,,,,,,,,
1725618227.209848,1725618227.211278,52.0,0.0,4250.641113,4218.077148,4277.05127,4265.128418,4200.897461,4216.282227,4200.0,4218.077148,4184.358887,4190.256348,4524.871582,4522.94873,4114.871582,4443.589844,0.0,2.0,35.0,,,,0.0,4.0,4.0,4.0,4.0,4.0,4.0,4.0,4.0,4.0,4.0,4.0,4.0,4.0,4.0,100.0,,,,,,,,,,,,,,,,,,,,,,,,,,,,,,,,,,,,,,,,,,,,,,,,,,,,,,,,,,,,,,,,,,,,,,,,,,,,,,,,,,,,,,,,,,,,,,,,,,,,,,,,,,,,,,,,,,,,,,,,,,,,,,,,,,,
1725618227.213752,1725618227.215082,53.0,0.0,4250.384766,4216.153809,4276.153809,4264.230957,4201.025879,4215.769043,4199.358887,4214.230957,4183.974121,4184.102539,4518.717773,4522.820313,4105.0,4441.666504,0.0,2.0,35.0,,,,0.0,4.0,4.0,4.0,4.0,4.0,4.0,4.0,4.0,4.0,4.0,4.0,4.0,4.0,4.0,100.0,,,,,,,,,,,,,,,,,,,,,,,,,,,,,,,,,,,,,,,,,,,,,,,,,,,,,,,,,,,,,,,,,,,,,,,,,,,,,,,,,,,,,,,,,,,,,,,,,,,,,,,,,,,,,,,,,,,,,,,,,,,,,,,,,,,
1725618227.217656,1725618227.218986,54.0,0.0,4249.615234,4216.922852,4277.692383,4263.205078,4201.282227,4214.871582,4199.487305,4209.102539,4183.717773,4180.384766,4511.538574,4526.410156,4094.871826,4441.282227,0.0,2.0,35.0,,,,0.0,4.0,4.0,4.0,4.0,4.0,4.0,4.0,4.0,4.0,4.0,4.0,4.0,4.0,4.0,100.0,,,,,,,,,,,,,,,,,,,,,,,,,,,,,,,,,,,,,,,,,,,,,,,,,,,,,,,,,,,,,,,,,,,,,,,,,,,,,,,,,,,,,,,,,,,,,,,,,,,,,,,,,,,,,,,,,,,,,,,,,,,,,,,,,,,
1725618227.22156,1725618227.22289,55.0,0.0,4248.589844,4220.897461,4280.128418,4263.205078,4201.794922,4214.615234,4200.128418,4206.794922,4183.846191,4181.282227,4508.077148,4530.641113,4086.538574,4441.922852,0.0,2.0,35.0,,,,0.0,4.0,4.0,4.0,4.0,4.0,4.0,4.0,4.0,4.0,4.0,4.0,4.0,4.0,4.0,100.0,,,,,,,,,,,,,,,,,,,,,,,,,,,,,,,,,,,,,,,,,,,,,,,,,,,,,,,,,,,,,,,,,,,,,,,,,,,,,,,,,,,,,,,,,,,,,,,,,,,,,,,,,,,,,,,,,,,,,,,,,,,,,,,,,,,
1725618227.225464,1725618227.226894,56.0,0.0,4248.589844,4226.922852,4281.538574,4265.384766,4202.05127,4215.0,4201.025879,4208.461426,4184.358887,4186.025879,4511.025879,4533.077148,4081.410156,4442.94873,0.0,2.0,35.0,,,,0.0,4.0,4.0,4.0,4.0,4.0,4.0,4.0,4.0,4.0,4.0,4.0,4.0,4.0,4.0,100.0,,,,,,,,,,,,,,,,,,,,,,,,,,,,,,,,,,,,,,,,,,,,,,,,,,,,,,,,,,,,,,,,,,,,,,,,,,,,,,,,,,,,,,,,,,,,,,,,,,,,,,,,,,,,,,,,,,,,,,,,,,,,,,,,,,,
1725618227.229368,1725618227.230798,57.0,0.0,4250.512695,4231.538574,4281.025879,4270.384766,4201.794922,4216.025879,4201.410156,4212.94873,4185.0,4191.922852,4518.717773,4534.230957,4079.230713,4444.102539,0.0,2.0,35.0,,,,0.0,4.0,4.0,4.0,4.0,4.0,4.0,4.0,4.0,4.0,4.0,4.0,4.0,4.0,4.0,100.0,,,,,,,,,,,,,,,,,,,,,,,,,,,,,,,,,,,,,,,,,,,,,,,,,,,,,,,,,,,,,,,,,,,,,,,,,,,,,,,,,,,,,,,,,,,,,,,,,,,,,,,,,,,,,,,,,,,,,,,,,,,,,,,,,,,
1725618227.233272,1725618227.234702,58.0,0.0,4254.102539,4232.563965,4280.0,4277.05127,4201.025879,4216.794922,4200.769043,4217.307617,4185.641113,4196.410156,4526.538574,4535.769043,4078.718018,4445.384766,0.0,2.0,35.0,,,,0.0,4.0,4.0,4.0,4.0,4.0,4.0,4.0,4.0,4.0,4.0,4.0,4.0,4.0,4.0,100.0,,,,,,,,,,,,,,,,,,,,,,,,,,,,,,,,,,,,,,,,,,,,,,,,,,,,,,,,0.0,0.0,1.0,0.0,1.0,0.0,,,,,,,,,,,,,,,,,,,,,,,,,,,,,,,,,,,,,,,,,,,,,,,,,,,,,,,,,,,,,,,,,,,,,,
1725618227.237177,1725618227.238606,59.0,0.0,4257.563965,4229.358887,4280.128418,4281.922852,4199.871582,4216.794922,4198.846191,4219.743652,4186.153809,4197.820313,4530.256348,4537.820313,4077.564209,4446.794922,0.0,2.0,35.0,,,,0.0,4.0,4.0,4.0,4.0,4.0,4.0,4.0,4.0,4.0,4.0,4.0,4.0,4.0,4.0,100.0,,,,,,,,,,,,,,,,,,,,,,,,,,,,,,,,,,,,,,,,,,,,,,,,,,,,,,,,,,,,,,,,,,,,,,,,,,,,,,,,,,,,,,,,,,,,,,,,,,,,,,,,,,,,,,,,,,,,,,,,,,,,,,,,,,,
1725618227.241081,1725618227.24261,60.0,0.0,4258.846191,4224.230957,4280.769043,4282.179688,4198.846191,4215.641113,4196.794922,4219.615234,4186.282227,4195.256348,4528.461426,4538.974121,4073.974365,4447.179688,0.0,2.0,35.0,,,,0.0,4.0,4.0,4.0,4.0,4.0,4.0,4.0,4.0,4.0,4.0,4.0,4.0,4.0,4.0,100.0,,,,,,,,,,,,,,,,,,,,,,,,,,,,,,,,,,,,,,,,,,,,,,,,,,,,,,,,,,,,,,,,,,,,,,,,,,,,,,,,,,,,,,,,,,,,,,,,,,,,,,,,,,,,,,,,,,,,,,,,,,,,,,,,,,,
1725618227.244985,1725618227.246514,61.0,0.0,4256.794922,4220.0,4280.512695,4277.436035,4198.461426,4213.846191,4195.641113,4217.820313,4185.769043,4189.743652,4523.333496,4537.436035,4067.307617,4445.897461,0.0,2.0,35.0,,,,0.0,4.0,4.0,4.0,4.0,4.0,4.0,4.0,4.0,4.0,4.0,4.0,4.0,4.0,4.0,100.0,,,,,,,,,,,,,,,,,,,,,,,,,,,,,,,,,,,,,,,,,,,,,,,,,,,,,,,,,,,,,,,,,,,,,,,,,,,,,,,,,,,,,,,,,,,,,,,,,,,,,,,,,,,,,,,,,,,,,,,,,,,,,,,,,,,
1725618227.248889,1725618227.250418,62.0,0.0,4252.307617,4218.589844,4278.205078,4270.897461,4198.461426,4212.692383,4196.282227,4215.384766,4184.871582,4183.974121,4518.974121,4533.333496,4058.589844,4443.333496,0.0,2.0,35.0,,,,0.0,4.0,4.0,4.0,4.0,4.0,4.0,4.0,4.0,4.0,4.0,4.0,4.0,4.0,4.0,100.0,,,,,,,,,,,,,,,,,,,,,,,,,,,,,,,,,,,,,,,,,,,,,,,,,,,,,,,,,,,,,,,,,,,,,,,,,,,,,,,,,,,,,,,,,,,,,,,,,,,,,,,,,,,,,,,,,,,,,,,,,,,,,,,,,,,
1725618227.252793,1725618227.254422,63.0,0.0,4247.692383,4219.487305,4274.871582,4267.307617,4198.846191,4213.205078,4198.077148,4213.077148,4183.974121,4181.794922,4518.205078,4527.94873,4050.384521,4441.153809,0.0,2.0,35.0,,,,0.0,4.0,4.0,4.0,4.0,4.0,4.0,4.0,4.0,4.0,4.0,4.0,4.0,4.0,4.0,100.0,,,,,,,,,,,,,,,,,,,,,,,,,,,,,,,,,,,,,,,,,,,,,,,,,,,,,,,,,,,,,,,,,,,,,,,,,,,,,,,,,,,,,,,,,,,,,,,,,,,,,,,,,,,,,,,,,,,,,,,,,,,,,,,,,,,
1725618227.256697,1725618227.258327,64.0,0.0,4245.256348,4220.769043,4272.307617,4268.717773,4198.974121,4215.128418,4199.487305,4211.922852,4183.589844,4184.743652,4521.025879,4523.974121,4044.358887,4440.512695,0.0,2.0,35.0,,,,0.0,4.0,4.0,4.0,4.0,4.0,4.0,4.0,4.0,4.0,4.0,4.0,4.0,4.0,4.0,100.0,,,,,,,,,,,,,,,,,,,,,,,,,,,,,,,,,,,,,,,,,,,,,,,,,,,,,,,,,,,,,,,,,,,,,,,,,,,,,,,,,,,,,,,,,,,,,,,,,,,,,,,,,,,,,,,,,,,,,,,,,,,,,,,,,,,
1725618227.260601,1725618227.262231,65.0,0.0,4245.897461,4221.153809,4271.922852,4272.94873,4198.974121,4216.922852,4198.589844,4212.563965,4184.102539,4191.282227,4525.0,4522.94873,4041.153809,4441.538574,0.0,2.0,35.0,,,,0.0,4.0,4.0,4.0,4.0,4.0,4.0,4.0,4.0,4.0,4.0,4.0,4.0,4.0,4.0,100.0,,,,,,,,,,,,,,,,,,,,,,,,,,,,,,,,,,,,,,,,,,,,,,,,,,,,,,,,,,,,,,,,,,,,,,,,,,,,,,,,,,,,,,,,,,,,,,,,,,,,,,,,,,,,,,,,,,,,,,,,,,,,,,,,,,,
1725618227.264506,1725618227.266235,66.0,0.0,4248.589844,4220.256348,4273.974121,4276.282227,4198.846191,4217.05127,4195.256348,4215.0,4185.128418,4197.436035,4527.307617,4524.487305,4039.615479,4443.717773,0.0,2.0,35.0,,,,0.0,4.0,4.0,4.0,4.0,4.0,4.0,4.0,4.0,4.0,4.0,4.0,4.0,4.0,4.0,100.0,1.0,91.666664,4.0,4.0,4.0,4.0,4.0,4.0,4.0,4.0,4.0,4.0,4.0,4.0,3.0,4.0,1.0,0.0,0.0,,,,,,,,,,,,,,,,,,,,,,,,,,,,,,,,,,,,,0.0,0.0,64.0,0.113804,1.0,0.0,4.138582,1.056656,1.278558,0.323109,0.079019,2.919221,1.348213,0.885967,0.278552,0.112033,2.870846,1.232512,0.886681,0.391624,0.108173,2.606433,1.030333,1.000576,0.30758,0.096035,0.600214,0.652927,0.349012,0.146849,0.072451,0.455574,0.59828,0.284727,0.108354,0.113892,0.53641,0.245236,0.314197,0.114616,0.10118,1.215279,1.333701,0.907417,0.390905,0.184685,1.984475,2.373209,1.179334,0.367841,0.123378,2.575166,3.064801,1.901752,0.321943,0.095229,2.795384,2.342311,1.54348,0.679641,0.264406,3.723198,2.040124,1.68695,0.520659,0.131614,7.018797,3.336057,1.362844,0.517378,0.12548,4.407327,1.701222,0.937817,0.376221,0.069012
1725618227.26841,1725618227.270139,67.0,0.0,4251.282227,4218.717773,4276.922852,4275.769043,4198.974121,4214.871582,4190.897461,4218.077148,4186.282227,4199.230957,4526.538574,4526.666504,4037.307617,4445.897461,0.0,2.0,35.0,,,,0.0,4.0,4.0,4.0,4.0,4.0,4.0,4.0,4.0,4.0,4.0,4.0,4.0,4.0,4.0,100.0,,,,,,,,,,,,,,,,,,,,,,,,,,,,,,,,,,,,,,,,,,,,,,,,,,,,,,,,,,,,,,,,,,,,,,,,,,,,,,,,,,,,,,,,,,,,,,,,,,,,,,,,,,,,,,,,,,,,,,,,,,,,,,,,,,,
1725618227.272314,1725618227.274043,68.0,0.0,4251.794922,4217.563965,4278.461426,4271.666504,4198.846191,4211.153809,4187.820313,4219.615234,4187.179688,4195.769043,4523.461426,4528.077148,4032.564209,4447.05127,0.0,2.0,35.0,,,,0.0,4.0,4.0,4.0,4.0,4.0,4.0,4.0,4.0,4.0,4.0,4.0,4.0,4.0,4.0,100.0,,,,,,,,,,,,,,,,,,,,,,,,,,,,,,,,,,,,,,,,,,,,,,,,,,,,,,,,,,,,,,,,,,,,,,,,,,,,,,,,,,,,,,,,,,,,,,,,,,,,,,,,,,,,,,,,,,,,,,,,,,,,,,,,,,,
1725618227.276218,1725618227.277947,69.0,0.0,4249.743652,4217.05127,4277.820313,4266.666504,4198.461426,4207.179688,4187.563965,4217.94873,4187.05127,4190.0,4519.871582,4528.205078,4025.384521,4446.922852,0.0,2.0,35.0,,,,0.0,4.0,4.0,4.0,4.0,4.0,4.0,4.0,4.0,4.0,4.0,4.0,4.0,4.0,4.0,100.0,,,,,,,,,,,,,,,,,,,,,,,,,,,,,,,,,,,,,,,,,,,,,,,,,,,,,,,,,,,,,,,,,,,,,,,,,,,,,,,,,,,,,,,,,,,,,,,,,,,,,,,,,,,,,,,,,,,,,,,,,,,,,,,,,,,
