Timestamp,OriginalTimestamp,EEG.Counter,EEG.Interpolated,EEG.AF3,EEG.F7,EEG.F3,EEG.FC5,EEG.T7,EEG.P7,EEG.O1,EEG.O2,EEG.P8,EEG.T8,EEG.FC6,EEG.F4,EEG.F8,EEG.AF4,EEG.RawCq,EEG.Battery,EEG.BatteryPercent,MarkerIndex,MarkerType,MarkerValueInt,EEG.MarkerHardware,CQ.AF3,CQ.F7,CQ.F3,CQ.FC5,CQ.T7,CQ.P7,CQ.O1,CQ.O2,CQ.P8,CQ.T8,CQ.FC6,CQ.F4,CQ.F8,CQ.AF4,CQ.Overall,EQ.SampleRateQuality,EQ.OVERALL,EQ.AF3,EQ.F7,EQ.F3,EQ.FC5,EQ.T7,EQ.P7,EQ.O1,EQ.O2,EQ.P8,EQ.T8,EQ.FC6,EQ.F4,EQ.F8,EQ.AF4,MC.Action,MC.ActionPower,MC.IsActive,PM.Attention.IsActive,PM.Attention.Scaled,PM.Attention.Raw,PM.Attention.Min,PM.Attention.Max,PM.Engagement.IsActive,PM.Engagement.Scaled,PM.Engagement.Raw,PM.Engagement.Min,PM.Engagement.Max,PM.Excitement.IsActive,PM.Excitement.Scaled,PM.Excitement.Raw,PM.Excitement.Min,PM.Excitement.Max,PM.LongTermExcitement,PM.Stress.IsActive,PM.Stress.Scaled,PM.Stress.Raw,PM.Stress.Min,PM.Stress.Max,PM.Relaxation.IsActive,PM.Relaxation.Scaled,PM.Relaxation.Raw,PM.Relaxation.Min,PM.Relaxation.Max,PM.Interest.IsActive,PM.Interest.Scaled,PM.Interest.Raw,PM.Interest.Min,PM.Interest.Max,PM.Focus.IsActive,PM.Focus.Scaled,PM.Focus.Raw,PM.Focus.Min,PM.Focus.Max,FE.BlinkWink,FE.HorizontalEyesDirection,FE.UpperFaceAction,FE.UpperFaceActionPower,FE.LowerFaceAction,FE.LowerFaceActionPower,POW.AF3.Theta,POW.AF3.Alpha,POW.AF3.BetaL,POW.AF3.BetaH,POW.AF3.Gamma,POW.F7.Theta,POW.F7.Alpha,POW.F7.BetaL,POW.F7.BetaH,POW.F7.Gamma,POW.F3.Theta,POW.F3.Alpha,POW.F3.BetaL,POW.F3.BetaH,POW.F3.Gamma,POW.FC5.Theta,POW.FC5.Alpha,POW.FC5.BetaL,POW.FC5.BetaH,POW.FC5.Gamma,POW.T7.Theta,POW.T7.Alpha,POW.T7.BetaL,POW.T7.BetaH,POW.T7.Gamma,POW.P7.Theta,POW.P7.Alpha,POW.P7.BetaL,POW.P7.BetaH,POW.P7.Gamma,POW.O1.Theta,POW.O1.Alpha,POW.O1.BetaL,POW.O1.BetaH,POW.O1.Gamma,POW.O2.Theta,POW.O2.Alpha,POW.O2.BetaL,POW.O2.BetaH,POW.O2.Gamma,POW.P8.Theta,POW.P8.Alpha,POW.P8.BetaL,POW.P8.BetaH,POW.P8.Gamma,POW.T8.Theta,POW.T8.Alpha,POW.T8.BetaL,POW.T8.BetaH,POW.T8.Gamma,POW.FC6.Theta,POW.FC6.Alpha,POW.FC6.BetaL,POW.FC6.BetaH,POW.FC6.Gamma,POW.F4.Theta,POW.F4.Alpha,POW.F4.BetaL,POW.F4.BetaH,POW.F4.Gamma,POW.F8.Theta,POW.F8.Alpha,POW.F8.BetaL,POW.F8.BetaH,POW.F8.Gamma,POW.AF4.Theta,POW.AF4.Alpha,POW.AF4.BetaL,POW.AF4.BetaH,POW.AF4.Gamma
1725618235.252307,1725618235.254332,64.0,0.0,4247.820313,4235.0,4295.256348,4282.692383,4211.025879,4211.410156,4232.436035,4246.025879,4216.410156,4215.256348,4537.692383,4532.436035,4476.282227,4455.384766,0.0,2.0,35.0,11.0,1.0,1.0,0.0,4.0,4.0,4.0,4.0,4.0,4.0,4.0,4.0,4.0,4.0,4.0,4.0,4.0,4.0,100.0,,,,,,,,,,,,,,,,,,,,,,,,,,,,,,,,,,,,,,,,,,,,,,,,,,,,,,,,,,,,,,,,,,,,,,,,,,,,,,,,,,,,,,,,,,,,,,,,,,,,,,,,,,,,,,,,,,,,,,,,,,,,,,,,,,,
1725618235.256211,1725618235.258236,65.0,0.0,4247.179688,4233.205078,4295.256348,4281.538574,4205.384766,4206.922852,4230.256348,4245.128418,4215.641113,4214.743652,4538.333496,4532.05127,4477.563965,4456.538574,0.0,2.0,35.0,,,,0.0,4.0,4.0,4.0,4.0,4.0,4.0,4.0,4.0,4.0,4.0,4.0,4.0,4.0,4.0,100.0,,,,,,,,,,,,,,,,,,,,,,,,,,,,,,,,,,,,,,,,,,,,,,,,,,,,,,,,,,,,,,,,,,,,,,,,,,,,,,,,,,,,,,,,,,,,,,,,,,,,,,,,,,,,,,,,,,,,,,,,,,,,,,,,,,,
1725618235.260116,1725618235.26214,66.0,0.0,4247.692383,4231.794922,4294.487305,4280.0,4200.128418,4203.333496,4228.077148,4242.692383,4213.717773,4213.846191,4537.692383,4534.743652,4477.563965,4457.436035,0.0,2.0,35.0,,,,0.0,4.0,4.0,4.0,4.0,4.0,4.0,4.0,4.0,4.0,4.0,4.0,4.0,4.0,4.0,100.0,1.0,100.0,4.0,4.0,4.0,4.0,4.0,4.0,4.0,4.0,4.0,4.0,4.0,4.0,4.0,4.0,1.0,0.0,0.0,,,,,,,,,,,,,,,,,,,,,,,,,,,,,,,,,,,,,0.0,0.0,64.0,0.034487,1.0,0.0,4.131821,1.494309,0.66282,0.355273,0.123818,2.302371,1.057287,0.639122,0.290801,0.101325,3.026322,1.630844,0.454032,0.161873,0.080387,2.51147,1.257191,0.433798,0.273204,0.134738,0.790045,0.790802,0.791128,0.175694,0.089278,0.563021,0.298964,0.380861,0.042328,0.06841,0.637724,0.504402,0.451174,0.080314,0.090463,1.215342,0.65184,0.222304,0.477342,0.22873,1.037346,0.922824,0.817648,0.455909,0.074101,2.215689,0.886924,0.851846,0.575828,0.073291,3.368175,1.971255,0.713537,0.587686,0.195471,4.58129,3.17359,0.551418,0.726313,0.134911,4.027845,2.019184,1.259281,0.46896,0.133395,5.360507,2.345776,0.770832,0.439659,0.143693
1725618235.26402,1725618235.266144,67.0,0.0,4248.717773,4231.794922,4293.846191,4279.230957,4198.974121,4202.05127,4227.179688,4240.128418,4212.179688,4213.974121,4536.025879,4538.205078,4476.794922,4457.820313,0.0,2.0,35.0,,,,0.0,4.0,4.0,4.0,4.0,4.0,4.0,4.0,4.0,4.0,4.0,4.0,4.0,4.0,4.0,100.0,,,,,,,,,,,,,,,,,,,,,,,,,,,,,,,,,,,,,,,,,,,,,,,,,,,,,,,,,,,,,,,,,,,,,,,,,,,,,,,,,,,,,,,,,,,,,,,,,,,,,,,,,,,,,,,,,,,,,,,,,,,,,,,,,,,
1725618235.267924,1725618235.270048,68.0,0.0,4249.743652,4233.461426,4294.230957,4279.743652,4203.333496,4202.94873,4228.461426,4239.358887,4212.307617,4216.025879,4535.641113,4540.0,4476.153809,4458.461426,0.0,2.0,35.0,,,,0.0,4.0,4.0,4.0,4.0,4.0,4.0,4.0,4.0,4.0,4.0,4.0,4.0,4.0,4.0,100.0,,,,,,,,,,,,,,,,,,,,,,,,,,,,,,,,,,,,,,,,,,,,,,,,,,,,,,,,,,,,,,,,,,,,,,,,,,,,,,,,,,,,,,,,,,,,,,,,,,,,,,,,,,,,,,,,,,,,,,,,,,,,,,,,,,,
1725618235.271828,1725618235.273952,69.0,0.0,4250.384766,4235.641113,4296.153809,4281.410156,4210.128418,4204.358887,4230.769043,4240.512695,4214.358887,4219.102539,4537.820313,4538.077148,4476.282227,4459.487305,0.0,2.0,35.0,,,,0.0,4.0,4.0,4.0,4.0,4.0,4.0,4.0,4.0,4.0,4.0,4.0,4.0,4.0,4.0,100.0,,,,,,,,,,,,,,,,,,,,,,,,,,,,,,,,,,,,,,,,,,,,,,,,,,,,,,,,,,,,,,,,,,,,,,,,,,,,,,,,,,,,,,,,,,,,,,,,,,,,,,,,,,,,,,,,,,,,,,,,,,,,,,,,,,,
1725618235.275732,1725618235.277856,70.0,0.0,4250.128418,4236.922852,4298.333496,4282.692383,4214.358887,4204.615234,4232.94873,4242.05127,4216.410156,4220.384766,4542.05127,4533.077148,4476.666504,4459.871582,0.0,2.0,35.0,,,,0.0,4.0,4.0,4.0,4.0,4.0,4.0,4.0,4.0,4.0,4.0,4.0,4.0,4.0,4.0,100.0,,,,,,,,,,,,,,,,,,,,,,,,,,,,,,,,,,,,,,,,,,,,,,,,,,,,,,,,,,,,,,,,,,,,,,,,,,,,,,,,,,,,,,,,,,,,,,,,,,,,,,,,,,,,,,,,,,,,,,,,,,,,,,,,,,,
1725618235.279636,1725618235.28186,71.0,0.0,4249.358887,4236.410156,4298.846191,4282.436035,4213.974121,4203.717773,4233.717773,4242.307617,4216.153809,4217.820313,4545.0,4527.05127,4476.922852,4458.333496,0.0,2.0,35.0,,,,0.0,4.0,4.0,4.0,4.0,4.0,4.0,4.0,4.0,4.0,4.0,4.0,4.0,4.0,4.0,100.0,,,,,,,,,,,,,,,,,,,,,,,,,,,,,,,,,,,,,,,,,,,,,,,,,,,,,,,,,,,,,,,,,,,,,,,,,,,,,,,,,,,,,,,,,,,,,,,,,,,,,,,,,,,,,,,,,,,,,,,,,,,,,,,,,,,
1725618235.28354,1725618235.285764,72.0,0.0,4248.717773,4234.487305,4296.538574,4280.897461,4210.512695,4202.820313,4233.077148,4240.256348,4212.820313,4212.05127,4543.974121,4523.077148,4476.410156,4453.974121,0.0,2.0,35.0,,,,0.0,4.0,4.0,4.0,4.0,4.0,4.0,4.0,4.0,4.0,4.0,4.0,4.0,4.0,4.0,100.0,,,,,,,,,,,,,,,,,,,,,,,,,,,,,,,,,,,,,,,,,,,,,,,,,,,,,,,,,,,,,,,,,,,,,,,,,,,,,,,,,,,,,,,,,,,,,,,,,,,,,,,,,,,,,,,,,,,,,,,,,,,,,,,,,,,
1725618235.287444,1725618235.289668,73.0,0.0,4248.846191,4232.692383,4292.05127,4279.230957,4207.436035,4202.820313,4231.922852,4237.05127,4207.94873,4206.282227,4538.589844,4522.436035,4475.256348,4448.205078,0.0,2.0,35.0,,,,0.0,4.0,4.0,4.0,4.0,4.0,4.0,4.0,4.0,4.0,4.0,4.0,4.0,4.0,4.0,100.0,,,,,,,,,,,,,,,,,,,,,,,,,,,,,,,,,,,,,,,,,,,,,,,,,,,,,,,,,,,,,,,,,,,,,,,,,,,,,,,,,,,,,,,,,,,,,,,,,,,,,,,,,,,,,,,,,,,,,,,,,,,,,,,,,,,
1725618235.291348,1725618235.293672,74.0,0.0,4248.974121,4232.05127,4287.179688,4278.717773,4206.153809,4203.974121,4231.025879,4233.717773,4203.589844,4204.102539,4531.410156,4523.846191,4473.846191,4443.846191,0.0,2.0,35.0,,,,0.0,4.0,4.0,4.0,4.0,4.0,4.0,4.0,4.0,4.0,4.0,4.0,4.0,4.0,4.0,100.0,,,,,,,,,,,,,,,,,,,,,,,,,,,,,,,,,,,,,,,,,,,,,,,,,,,,,,,,0.0,0.0,64.0,0.034487,1.0,0.0,,,,,,,,,,,,,,,,,,,,,,,,,,,,,,,,,,,,,,,,,,,,,,,,,,,,,,,,,,,,,,,,,,,,,,
1725618235.295252,1725618235.297576,75.0,0.0,4247.692383,4232.436035,4283.333496,4278.846191,4206.538574,4205.512695,4230.769043,4229.743652,4201.282227,4206.025879,4525.512695,4524.102539,4471.794922,4442.179688,0.0,2.0,35.0,,,,0.0,4.0,4.0,4.0,4.0,4.0,4.0,4.0,4.0,4.0,4.0,4.0,4.0,4.0,4.0,100.0,,,,,,,,,,,,,,,,,,,,,,,,,,,,,,,,,,,,,,,,,,,,,,,,,,,,,,,,,,,,,,,,,,,,,,,,,,,,,,,,,,,,,,,,,,,,,,,,,,,,,,,,,,,,,,,,,,,,,,,,,,,,,,,,,,,
1725618235.299157,1725618235.301481,76.0,0.0,4243.974121,4232.179688,4280.897461,4278.461426,4207.563965,4206.153809,4230.769043,4224.615234,4200.897461,4209.230957,4522.05127,4520.641113,4468.333496,4442.692383,0.0,2.0,35.0,,,,0.0,4.0,4.0,4.0,4.0,4.0,4.0,4.0,4.0,4.0,4.0,4.0,4.0,4.0,4.0,100.0,,,,,,,,,,,,,,,,,,,,,,,,,,,,,,,,,,,,,,,,,,,,,,,,,,,,,,,,,,,,,,,,,,,,,,,,,,,,,,,,,,,,,,,,,,,,,,,,,,,,,,,,,,,,,,,,,,,,,,,,,,,,,,,,,,,
1725618235.303061,1725618235.305385,77.0,0.0,4238.589844,4229.871582,4279.487305,4276.282227,4207.820313,4205.384766,4230.512695,4218.846191,4201.282227,4210.512695,4520.641113,4513.717773,4463.846191,4443.205078,0.0,2.0,35.0,,,,0.0,4.0,4.0,4.0,4.0,4.0,4.0,4.0,4.0,4.0,4.0,4.0,4.0,4.0,4.0,100.0,,,,,,,,,,,,,,,,,,,,,,,,,,,,,,,,,,,,,,,,,,,,,,,,,,,,,,,,,,,,,,,,,,,,,,,,,,,,,,,,,,,,,,,,,,,,,,,,,,,,,,,,,,,,,,,,,,,,,,,,,,,,,,,,,,,
1725618235.306965,1725618235.309289,78.0,0.0,4233.333496,4225.256348,4278.717773,4272.692383,4207.05127,4203.717773,4229.871582,4214.871582,4201.153809,4207.820313,4520.0,4506.922852,4459.743652,4441.666504,0.0,2.0,35.0,,,,0.0,4.0,4.0,4.0,4.0,4.0,4.0,4.0,4.0,4.0,4.0,4.0,4.0,4.0,4.0,100.0,,,,,,,,,,,,,,,,,,,,,,,,,,,,,,,,,,,,,,,,,,,,,,,,,,,,,,,,,,,,,,,,,,,,,,,,,,,,,,,,,,,,,,,,,,,,,,,,,,,,,,,,,,,,,,,,,,,,,,,,,,,,,,,,,,,
1725618235.310869,1725618235.313093,79.0,0.0,4230.256348,4220.256348,4278.077148,4268.589844,4205.897461,4202.436035,4228.974121,4215.128418,4200.512695,4202.94873,4519.487305,4503.717773,4457.307617,4438.077148,0.0,2.0,35.0,,,,0.0,4.0,4.0,4.0,4.0,4.0,4.0,4.0,4.0,4.0,4.0,4.0,4.0,4.0,4.0,100.0,,,,,,,,,,,,,,,,,,,,,,,,,,,,,,,,,,,,,,,,,,,,,,,,,,,,,,,,,,,,,,,,,,,,,,,,,,,,,,,,,,,,,,,,,,,,,,,,,,,,,,,,,,,,,,,,,,,,,,,,,,,,,,,,,,,
1725618235.314773,1725618235.316997,80.0,0.0,4229.743652,4216.922852,4277.307617,4265.256348,4205.128418,4202.307617,4228.717773,4219.871582,4199.871582,4199.230957,4518.846191,4504.743652,4457.179688,4433.589844,0.0,2.0,35.0,,,,0.0,4.0,4.0,4.0,4.0,4.0,4.0,4.0,4.0,4.0,4.0,4.0,4.0,4.0,4.0,100.0,,,,,,,,,,,,,,,,,,,,,,,,,,,,,,,,,,,,,,,,,,,,,,,,,,,,,,,,,,,,,,,,,,,,,,,,,,,,,,,,,,,,,,,,,,,,,,,,,,,,,,,,,,,,,,,,,,,,,,,,,,,,,,,,,,,
1725618235.318677,1725618235.320901,81.0,0.0,4230.512695,4216.410156,4276.666504,4263.589844,4205.769043,4203.333496,4229.871582,4225.897461,4199.871582,4199.358887,4518.589844,4507.692383,4458.333496,4430.256348,0.0,2.0,35.0,,,,0.0,4.0,4.0,4.0,4.0,4.0,4.0,4.0,4.0,4.0,4.0,4.0,4.0,4.0,4.0,100.0,,,,,,,,,,,,,,,,,,,,,,,,,,,,,,,,,,,,,,,,,,,,,,,,,,,,,,,,,,,,,,,,,,,,,,,,,,,,,,,,,,,,,,,,,,,,,,,,,,,,,,,,,,,,,,,,,,,,,,,,,,,,,,,,,,,
1725618235.322581,1725618235.324805,82.0,0.0,4230.769043,4218.205078,4276.282227,4263.846191,4208.077148,4204.358887,4231.794922,4229.358887,4200.256348,4202.436035,4519.102539,4509.743652,4459.358887,4428.717773,0.0,2.0,35.0,,,,0.0,4.0,4.0,4.0,4.0,4.0,4.0,4.0,4.0,4.0,4.0,4.0,4.0,4.0,4.0,100.0,,,,,,,,,,,,,,,,,,,,,,,,,,,,,,,,,,,,,,,,,,,,,,,,,,,,,,,,0.0,0.0,64.0,0.034487,1.0,0.0,,,,,,,,,,,,,,,,,,,,,,,,,,,,,,,,,,,,,,,,,,,,,,,,,,,,,,,,,,,,,,,,,,,,,,
1725618235.326485,1725618235.32861,83.0,0.0,4230.512695,4220.769043,4276.410156,4265.512695,4210.384766,4204.743652,4233.077148,4227.563965,4200.512695,4205.128418,4520.0,4509.230957,4459.358887,4428.974121,0.0,2.0,35.0,,,,0.0,4.0,4.0,4.0,4.0,4.0,4.0,4.0,4.0,4.0,4.0,4.0,4.0,4.0,4.0,100.0,,,,,,,,,,,,,,,,,,,,,,,,,,,,,,,,,,,,,,,,,,,,,,,,,,,,,,,,,,,,,,,,,,,,,,,,,,,,,,,,,,,,,,,,,,,,,,,,,,,,,,,,,,,,,,,,,,,,,,,,,,,,,,,,,,,
1725618235.330389,1725618235.332514,84.0,0.0,4230.641113,4223.077148,4276.922852,4267.307617,4211.282227,4204.358887,4232.179688,4221.922852,4200.256348,4204.871582,4520.897461,4507.307617,4458.589844,4430.0,0.0,2.0,35.0,,,,0.0,4.0,4.0,4.0,4.0,4.0,4.0,4.0,4.0,4.0,4.0,4.0,4.0,4.0,4.0,100.0,,,,,,,,,,,,,,,,,,,,,,,,,,,,,,,,,,,,,,,,,,,,,,,,,,,,,,,,,,,,,,,,,,,,,,,,,,,,,,,,,,,,,,,,,,,,,,,,,,,,,,,,,,,,,,,,,,,,,,,,,,,,,,,,,,,
1725618235.334293,1725618235.336418,85.0,0.0,4231.794922,4224.743652,4277.436035,4268.589844,4209.871582,4203.846191,4228.974121,4217.307617,4199.871582,4202.692383,4521.410156,4505.769043,4458.077148,4430.769043,0.0,2.0,35.0,,,,0.0,4.0,4.0,4.0,4.0,4.0,4.0,4.0,4.0,4.0,4.0,4.0,4.0,4.0,4.0,100.0,,,,,,,,,,,,,,,,,,,,,,,,,,,,,,,,,,,,,,,,,,,,,,,,,,,,,,,,,,,,,,,,,,,,,,,,,,,,,,,,,,,,,,,,,,,,,,,,,,,,,,,,,,,,,,,,,,,,,,,,,,,,,,,,,,,
1725618235.338198,1725618235.340322,86.0,0.0,4233.205078,4226.666504,4277.820313,4269.615234,4207.05127,4204.487305,4224.358887,4217.307617,4200.256348,4202.05127,4521.153809,4505.897461,4458.589844,4430.897461,0.0,2.0,35.0,,,,0.0,4.0,4.0,4.0,4.0,4.0,4.0,4.0,4.0,4.0,4.0,4.0,4.0,4.0,4.0,100.0,,,,,,,,,,,,,,,,,,,,,,,,,,,,,,,,,,,,,,,,,,,,,,,,,,,,,,,,,,,,,,,,,,,,,,,,,,,,,,,,,,,,,,,,,,,,,,,,,,,,,,,,,,,,,,,,,,,,,,,,,,,,,,,,,,,
1725618235.342102,1725618235.344226,87.0,0.0,4233.717773,4228.846191,4277.94873,4271.282227,4204.487305,4206.794922,4219.871582,4221.282227,4201.666504,4205.384766,4520.897461,4507.307617,4460.512695,4431.025879,0.0,2.0,35.0,,,,0.0,4.0,4.0,4.0,4.0,4.0,4.0,4.0,4.0,4.0,4.0,4.0,4.0,4.0,4.0,100.0,,,,,,,,,,,,,,,,,,,,,,,,,,,,,,,,,,,,,,,,,,,,,,,,,,,,,,,,,,,,,,,,,,,,,,,,,,,,,,,,,,,,,,,,,,,,,,,,,,,,,,,,,,,,,,,,,,,,,,,,,,,,,,,,,,,
1725618235.346006,1725618235.34803,88.0,0.0,4233.077148,4231.153809,4277.94873,4273.461426,4202.94873,4210.0,4216.666504,4224.743652,4203.205078,4211.025879,4521.153809,4508.333496,4462.692383,4431.282227,0.0,2.0,35.0,,,,0.0,4.0,4.0,4.0,4.0,4.0,4.0,4.0,4.0,4.0,4.0,4.0,4.0,4.0,4.0,100.0,,,,,,,,,,,,,,,,,,,,,,,,,,,,,,,,,,,,,,,,,,,,,,,,,,,,,,,,,,,,,,,,,,,,,,,,,,,,,,,,,,,,,,,,,,,,,,,,,,,,,,,,,,,,,,,,,,,,,,,,,,,,,,,,,,,
1725618235.34991,1725618235.351934,89.0,0.0,4232.05127,4232.692383,4277.94873,4275.384766,4202.05127,4212.436035,4215.641113,4224.230957,4203.974121,4215.128418,4522.05127,4507.820313,4464.230957,4432.05127,0.0,2.0,35.0,,,,0.0,4.0,4.0,4.0,4.0,4.0,4.0,4.0,4.0,4.0,4.0,4.0,4.0,4.0,4.0,100.0,,,,,,,,,,,,,,,,,,,,,,,,,,,,,,,,,,,,,,,,,,,,,,,,,,,,,,,,,,,,,,,,,,,,,,,,,,,,,,,,,,,,,,,,,,,,,,,,,,,,,,,,,,,,,,,,,,,,,,,,,,,,,,,,,,,
1725618235.353814,1725618235.355838,90.0,0.0,4232.563965,4232.820313,4277.94873,4276.025879,4202.05127,4213.589844,4217.179688,4220.512695,4203.077148,4214.358887,4522.436035,4507.05127,4464.487305,4433.717773,0.0,2.0,35.0,,,,0.0,4.0,4.0,4.0,4.0,4.0,4.0,4.0,4.0,4.0,4.0,4.0,4.0,4.0,4.0,100.0,,,,,,,,,,,,,,,,,,,,,,,,,,,,,,,,,,,,,,,,,,,,,,,,,,,,,,,,0.0,0.0,64.0,0.034487,1.0,0.0,,,,,,,,,,,,,,,,,,,,,,,,,,,,,,,,,,,,,,,,,,,,,,,,,,,,,,,,,,,,,,,,,,,,,,
1725618235.357718,1725618235.359643,91.0,0.0,4235.512695,4232.307617,4278.461426,4275.512695,4203.077148,4213.974121,4219.871582,4217.692383,4201.538574,4209.615234,4521.410156,4507.820313,4463.846191,4436.025879,0.0,2.0,35.0,,,,0.0,4.0,4.0,4.0,4.0,4.0,4.0,4.0,4.0,4.0,4.0,4.0,4.0,4.0,4.0,100.0,,,,,,,,,,,,,,,,,,,,,,,,,,,,,,,,,,,,,,,,,,,,,,,,,,,,,,,,,,,,,,,,,,,,,,,,,,,,,,,,,,,,,,,,,,,,,,,,,,,,,,,,,,,,,,,,,,,,,,,,,,,,,,,,,,,
1725618235.361622,1725618235.363547,92.0,0.0,4240.512695,4231.794922,4280.256348,4275.0,4205.0,4215.0,4222.179688,4219.102539,4200.512695,4204.487305,4519.871582,4511.538574,4462.94873,4438.461426,0.0,2.0,35.0,,,,0.0,4.0,4.0,4.0,4.0,4.0,4.0,4.0,4.0,4.0,4.0,4.0,4.0,4.0,4.0,100.0,,,,,,,,,,,,,,,,,,,,,,,,,,,,,,,,,,,,,,,,,,,,,,,,,,,,,,,,,,,,,,,,,,,,,,,,,,,,,,,,,,,,,,,,,,,,,,,,,,,,,,,,,,,,,,,,,,,,,,,,,,,,,,,,,,,
1725618235.365526,1725618235.367451,93.0,0.0,4245.256348,4231.794922,4283.846191,4275.512695,4206.666504,4216.538574,4222.820313,4224.487305,4200.769043,4201.794922,4519.743652,4517.436035,4462.179688,4440.512695,0.0,2.0,35.0,,,,0.0,4.0,4.0,4.0,4.0,4.0,4.0,4.0,4.0,4.0,4.0,4.0,4.0,4.0,4.0,100.0,,,,,,,,,,,,,,,,,,,,,,,,,,,,,,,,,,,,,,,,,,,,,,,,,,,,,,,,,,,,,,,,,,,,,,,,,,,,,,,,,,,,,,,,,,,,,,,,,,,,,,,,,,,,,,,,,,,,,,,,,,,,,,,,,,,
1725618235.36943,1725618235.371455,94.0,0.0,4247.820313,4232.05127,4287.94873,4276.666504,4207.307617,4216.794922,4222.179688,4230.897461,4201.922852,4201.922852,4522.692383,4523.461426,4461.794922,4442.05127,0.0,2.0,35.0,,,,0.0,4.0,4.0,4.0,4.0,4.0,4.0,4.0,4.0,4.0,4.0,4.0,4.0,4.0,4.0,100.0,,,,,,,,,,,,,,,,,,,,,,,,,,,,,,,,,,,,,,,,,,,,,,,,,,,,,,,,,,,,,,,,,,,,,,,,,,,,,,,,,,,,,,,,,,,,,,,,,,,,,,,,,,,,,,,,,,,,,,,,,,,,,,,,,,,
1725618235.373335,1725618235.375359,95.0,0.0,4248.077148,4231.794922,4290.128418,4277.179688,4207.307617,4213.974121,4221.410156,4234.743652,4202.94873,4203.461426,4528.077148,4527.179688,4461.538574,4443.205078,0.0,2.0,35.0,,,,0.0,4.0,4.0,4.0,4.0,4.0,4.0,4.0,4.0,4.0,4.0,4.0,4.0,4.0,4.0,100.0,,,,,,,,,,,,,,,,,,,,,,,,,,,,,,,,,,,,,,,,,,,,,,,,,,,,,,,,,,,,,,,,,,,,,,,,,,,,,,,,,,,,,,,,,,,,,,,,,,,,,,,,,,,,,,,,,,,,,,,,,,,,,,,,,,,
1725618235.377239,1725618235.379263,96.0,0.0,4246.922852,4231.153809,4289.487305,4275.641113,4207.436035,4208.461426,4221.922852,4234.102539,4202.94873,4204.230957,4533.333496,4527.436035,4461.025879,4443.846191,0.0,2.0,35.0,,,,0.0,4.0,4.0,4.0,4.0,4.0,4.0,4.0,4.0,4.0,4.0,4.0,4.0,4.0,4.0,100.0,,,,,,,,,,,,,,,,,,,,,,,,,,,,,,,,,,,,,,,,,,,,,,,,,,,,,,,,,,,,,,,,,,,,,,,,,,,,,,,,,,,,,,,,,,,,,,,,,,,,,,,,,,,,,,,,,,,,,,,,,,,,,,,,,,,
1725618235.381143,1725618235.383167,97.0,0.0,4245.769043,4230.384766,4287.179688,4271.922852,4208.077148,4203.461426,4223.717773,4230.256348,4201.666504,4203.077148,4536.282227,4524.871582,4460.128418,4443.974121,0.0,2.0,35.0,,,,0.0,4.0,4.0,4.0,4.0,4.0,4.0,4.0,4.0,4.0,4.0,4.0,4.0,4.0,4.0,100.0,,,,,,,,,,,,,,,,,,,,,,,,,,,,,,,,,,,,,,,,,,,,,,,,,,,,,,,,,,,,,,,,,,,,,,,,,,,,,,,,,,,,,,,,,,,,,,,,,,,,,,,,,,,,,,,,,,,,,,,,,,,,,,,,,,,
1725618235.385047,1725618235.387171,98.0,0.0,4245.128418,4230.384766,4285.512695,4267.563965,4208.717773,4202.563965,4226.153809,4226.922852,4199.871582,4200.641113,4536.538574,4522.436035,4458.974121,4443.717773,0.0,2.0,35.0,,,,0.0,4.0,4.0,4.0,4.0,4.0,4.0,4.0,4.0,4.0,4.0,4.0,4.0,4.0,4.0,100.0,,,,,,,,,,,,,,,,,1.0,0.0,0.0,,,,,,,,,,,,,,,,,,,,,,,,,,,,,,,,,,,,,0.0,0.0,64.0,0.032682,1.0,0.0,3.951384,1.690514,0.705544,0.352395,0.125456,2.693101,1.194685,0.662379,0.280464,0.097522,3.084425,1.728649,0.506304,0.160658,0.087152,2.719434,1.229561,0.408168,0.266364,0.131332,0.75029,0.688271,0.708408,0.16347,0.089071,0.553625,0.343502,0.385266,0.044595,0.066393,0.652354,0.488054,0.422549,0.07588,0.077811,1.212147,0.644451,0.212242,0.461498,0.22676,1.118392,0.9561,0.77298,0.449523,0.069641,2.119704,0.900789,0.754709,0.565315,0.071042,2.991114,1.951652,0.646526,0.577138,0.172049,4.027152,3.070138,0.611448,0.757597,0.147381,3.612385,1.980165,1.144231,0.461762,0.132944,4.708526,2.3233,0.82589,0.453346,0.143926
1725618235.388951,1725618235.391075,99.0,0.0,4245.128418,4230.641113,4285.897461,4265.128418,4210.128418,4206.410156,4228.333496,4227.436035,4199.487305,4199.102539,4536.282227,4522.94873,4458.461426,4443.974121,0.0,2.0,35.0,,,,0.0,4.0,4.0,4.0,4.0,4.0,4.0,4.0,4.0,4.0,4.0,4.0,4.0,4.0,4.0,100.0,,,,,,,,,,,,,,,,,,,,,,,,,,,,,,,,,,,,,,,,,,,,,,,,,,,,,,,,,,,,,,,,,,,,,,,,,,,,,,,,,,,,,,,,,,,,,,,,,,,,,,,,,,,,,,,,,,,,,,,,,,,,,,,,,,,
1725618235.392855,1725618235.394979,100.0,0.0,4245.512695,4230.256348,4287.820313,4266.153809,4212.436035,4212.563965,4229.615234,4232.436035,4201.410156,4199.871582,4537.179688,4526.666504,4458.846191,4444.871582,0.0,2.0,35.0,,,,0.0,4.0,4.0,4.0,4.0,4.0,4.0,4.0,4.0,4.0,4.0,4.0,4.0,4.0,4.0,100.0,,,,,,,,,,,,,,,,,,,,,,,,,,,,,,,,,,,,,,,,,,,,,,,,,,,,,,,,,,,,,,,,,,,,,,,,,,,,,,,,,,,,,,,,,,,,,,,,,,,,,,,,,,,,,,,,,,,,,,,,,,,,,,,,,,,
1725618235.396759,1725618235.398883,101.0,0.0,4246.282227,4229.102539,4288.974121,4270.256348,4215.384766,4216.025879,4230.256348,4238.589844,4204.358887,4202.436035,4538.974121,4530.128418,4459.871582,4446.153809,0.0,2.0,35.0,,,,0.0,4.0,4.0,4.0,4.0,4.0,4.0,4.0,4.0,4.0,4.0,4.0,4.0,4.0,4.0,100.0,,,,,,,,,,,,,,,,,,,,,,,,,,,,,,,,,,,,,,,,,,,,,,,,,,,,,,,,,,,,,,,,,,,,,,,,,,,,,,,,,,,,,,,,,,,,,,,,,,,,,,,,,,,,,,,,,,,,,,,,,,,,,,,,,,,
1725618235.400663,1725618235.402787,102.0,0.0,4247.307617,4228.461426,4287.692383,4274.487305,4217.307617,4213.974121,4230.641113,4240.512695,4205.384766,4203.717773,4539.487305,4529.230957,4460.256348,4446.282227,0.0,2.0,35.0,,,,0.0,4.0,4.0,4.0,4.0,4.0,4.0,4.0,4.0,4.0,4.0,4.0,4.0,4.0,4.0,100.0,,,,,,,,,,,,,,,,,,,,,,,,,,,,,,,,,,,,,,,,,,,,,,,,,,,,,,,,,,,,,,,,,,,,,,,,,,,,,,,,,,,,,,,,,,,,,,,,,,,,,,,,,,,,,,,,,,,,,,,,,,,,,,,,,,,
1725618235.404567,1725618235.406592,103.0,0.0,4248.333496,4229.615234,4284.358887,4276.025879,4217.179688,4207.563965,4230.512695,4234.743652,4202.307617,4201.794922,4536.538574,4522.692383,4458.589844,4444.230957,0.0,2.0,35.0,,,,0.0,4.0,4.0,4.0,4.0,4.0,4.0,4.0,4.0,4.0,4.0,4.0,4.0,4.0,4.0,100.0,,,,,,,,,,,,,,,,,,,,,,,,,,,,,,,,,,,,,,,,,,,,,,,,,,,,,,,,,,,,,,,,,,,,,,,,,,,,,,,,,,,,,,,,,,,,,,,,,,,,,,,,,,,,,,,,,,,,,,,,,,,,,,,,,,,
1725618235.408471,1725618235.410496,104.0,0.0,4249.230957,4231.794922,4281.025879,4273.717773,4215.769043,4200.641113,4230.128418,4222.179688,4195.769043,4197.692383,4530.512695,4513.077148,4454.358887,4440.769043,0.0,2.0,35.0,,,,0.0,4.0,4.0,4.0,4.0,4.0,4.0,4.0,4.0,4.0,4.0,4.0,4.0,4.0,4.0,100.0,,,,,,,,,,,,,,,,,,,,,,,,,,,,,,,,,,,,,,,,,,,,,,,,,,,,,,,,,,,,,,,,,,,,,,,,,,,,,,,,,,,,,,,,,,,,,,,,,,,,,,,,,,,,,,,,,,,,,,,,,,,,,,,,,,,
1725618235.412376,1725618235.4145,105.0,0.0,4249.102539,4232.692383,4279.871582,4269.102539,4214.615234,4197.307617,4229.743652,4208.717773,4188.717773,4194.487305,4525.0,4505.128418,4448.974121,4437.94873,0.0,2.0,35.0,,,,0.0,4.0,4.0,4.0,4.0,4.0,4.0,4.0,4.0,4.0,4.0,4.0,4.0,4.0,4.0,100.0,,,,,,,,,,,,,,,,,,,,,,,,,,,,,,,,,,,,,,,,,,,,,,,,,,,,,,,,,,,,,,,,,,,,,,,,,,,,,,,,,,,,,,,,,,,,,,,,,,,,,,,,,,,,,,,,,,,,,,,,,,,,,,,,,,,
1725618235.41628,1725618235.418404,106.0,0.0,4247.692383,4230.769043,4280.769043,4264.615234,4214.871582,4198.717773,4228.974121,4200.641113,4183.846191,4194.358887,4522.94873,4502.179688,4445.128418,4437.307617,0.0,2.0,35.0,,,,0.0,4.0,4.0,4.0,4.0,4.0,4.0,4.0,4.0,4.0,4.0,4.0,4.0,4.0,4.0,100.0,,,,,,,,,,,,,,,,,,,,,,,,,,,,,,,,,,,,,,,,,,,,,,,,,,,,,,,,0.0,0.0,64.0,0.032682,1.0,0.0,,,,,,,,,,,,,,,,,,,,,,,,,,,,,,,,,,,,,,,,,,,,,,,,,,,,,,,,,,,,,,,,,,,,,,
1725618235.420184,1725618235.422308,107.0,0.0,4245.641113,4226.538574,4282.05127,4262.179688,4216.025879,4202.436035,4227.820313,4201.153809,4182.94873,4196.922852,4525.0,4503.717773,4444.871582,4439.102539,0.0,2.0,35.0,,,,0.0,4.0,4.0,4.0,4.0,4.0,4.0,4.0,4.0,4.0,4.0,4.0,4.0,4.0,4.0,100.0,,,,,,,,,,,,,,,,,,,,,,,,,,,,,,,,,,,,,,,,,,,,,,,,,,,,,,,,,,,,,,,,,,,,,,,,,,,,,,,,,,,,,,,,,,,,,,,,,,,,,,,,,,,,,,,,,,,,,,,,,,,,,,,,,,,
1725618235.424088,1725618235.426212,108.0,0.0,4243.846191,4222.563965,4282.436035,4262.436035,4217.179688,4204.871582,4226.666504,4208.205078,4185.512695,4199.487305,4528.461426,4506.666504,4448.077148,4441.922852,0.0,2.0,35.0,,,,0.0,4.0,4.0,4.0,4.0,4.0,4.0,4.0,4.0,4.0,4.0,4.0,4.0,4.0,4.0,100.0,,,,,,,,,,,,,,,,,,,,,,,,,,,,,,,,,,,,,,,,,,,,,,,,,,,,,,,,,,,,,,,,,,,,,,,,,,,,,,,,,,,,,,,,,,,,,,,,,,,,,,,,,,,,,,,,,,,,,,,,,,,,,,,,,,,
1725618235.427992,1725618235.430116,109.0,0.0,4243.717773,4221.922852,4281.794922,4264.871582,4217.692383,4204.102539,4226.282227,4216.025879,4189.102539,4199.230957,4530.0,4508.077148,4452.563965,4443.974121,0.0,2.0,35.0,,,,0.0,4.0,4.0,4.0,4.0,4.0,4.0,4.0,4.0,4.0,4.0,4.0,4.0,4.0,4.0,100.0,,,,,,,,,,,,,,,,,,,,,,,,,,,,,,,,,,,,,,,,,,,,,,,,,,,,,,,,,,,,,,,,,,,,,,,,,,,,,,,,,,,,,,,,,,,,,,,,,,,,,,,,,,,,,,,,,,,,,,,,,,,,,,,,,,,
1725618235.431896,1725618235.43392,110.0,0.0,4245.128418,4225.641113,4281.538574,4268.589844,4217.692383,4201.410156,4227.05127,4219.358887,4190.384766,4195.0,4528.205078,4507.563965,4455.512695,4444.743652,0.0,2.0,35.0,,,,0.0,4.0,4.0,4.0,4.0,4.0,4.0,4.0,4.0,4.0,4.0,4.0,4.0,4.0,4.0,100.0,,,,,,,,,,,,,,,,,,,,,,,,,,,,,,,,,,,,,,,,,,,,,,,,,,,,,,,,,,,,,,,,,,,,,,,,,,,,,,,,,,,,,,,,,,,,,,,,,,,,,,,,,,,,,,,,,,,,,,,,,,,,,,,,,,,
1725618235.4358,1725618235.437825,111.0,0.0,4247.692383,4232.05127,4283.077148,4272.307617,4217.692383,4199.743652,4228.205078,4216.794922,4188.461426,4188.333496,4524.358887,4506.922852,4455.769043,4444.230957,0.0,2.0,35.0,,,,0.0,4.0,4.0,4.0,4.0,4.0,4.0,4.0,4.0,4.0,4.0,4.0,4.0,4.0,4.0,100.0,,,,,,,,,,,,,,,,,,,,,,,,,,,,,,,,,,,,,,,,,,,,,,,,,,,,,,,,,,,,,,,,,,,,,,,,,,,,,,,,,,,,,,,,,,,,,,,,,,,,,,,,,,,,,,,,,,,,,,,,,,,,,,,,,,,
1725618235.439704,1725618235.441729,112.0,0.0,4249.743652,4237.563965,4286.282227,4274.743652,4217.94873,4201.282227,4229.102539,4211.666504,4185.128418,4182.820313,4521.922852,4508.077148,4454.102539,4442.94873,0.0,2.0,35.0,,,,0.0,4.0,4.0,4.0,4.0,4.0,4.0,4.0,4.0,4.0,4.0,4.0,4.0,4.0,4.0,100.0,,,,,,,,,,,,,,,,,,,,,,,,,,,,,,,,,,,,,,,,,,,,,,,,,,,,,,,,,,,,,,,,,,,,,,,,,,,,,,,,,,,,,,,,,,,,,,,,,,,,,,,,,,,,,,,,,,,,,,,,,,,,,,,,,,,
1725618235.443608,1725618235.445633,113.0,0.0,4250.0,4239.615234,4289.871582,4275.256348,4218.077148,4205.897461,4229.358887,4209.487305,4183.717773,4181.666504,4523.205078,4511.794922,4452.436035,4441.922852,0.0,2.0,35.0,,,,0.0,4.0,4.0,4.0,4.0,4.0,4.0,4.0,4.0,4.0,4.0,4.0,4.0,4.0,4.0,100.0,,,,,,,,,,,,,,,,,,,,,,,,,,,,,,,,,,,,,,,,,,,,,,,,,,,,,,,,,,,,,,,,,,,,,,,,,,,,,,,,,,,,,,,,,,,,,,,,,,,,,,,,,,,,,,,,,,,,,,,,,,,,,,,,,,,
1725618235.447513,1725618235.449537,114.0,0.0,4249.230957,4238.333496,4292.436035,4274.615234,4218.333496,4211.666504,4229.487305,4213.205078,4185.897461,4185.641113,4528.717773,4517.307617,4452.820313,4442.307617,0.0,2.0,35.0,,,,0.0,4.0,4.0,4.0,4.0,4.0,4.0,4.0,4.0,4.0,4.0,4.0,4.0,4.0,4.0,100.0,,,,,,,,,,,,,,,,,,,,,,,,,,,,,,,,,,,,,,,,,,,,,,,,,,,,,,,,0.0,0.0,64.0,0.032682,1.0,0.0,,,,,,,,,,,,,,,,,,,,,,,,,,,,,,,,,,,,,,,,,,,,,,,,,,,,,,,,,,,,,,,,,,,,,,
1725618235.451417,1725618235.453341,115.0,0.0,4249.615234,4235.897461,4293.461426,4274.230957,4218.974121,4216.282227,4229.615234,4221.282227,4191.153809,4192.820313,4536.794922,4522.692383,4456.153809,4444.743652,0.0,2.0,35.0,,,,0.0,4.0,4.0,4.0,4.0,4.0,4.0,4.0,4.0,4.0,4.0,4.0,4.0,4.0,4.0,100.0,,,,,,,,,,,,,,,,,,,,,,,,,,,,,,,,,,,,,,,,,,,,,,,,,,,,,,,,,,,,,,,,,,,,,,,,,,,,,,,,,,,,,,,,,,,,,,,,,,,,,,,,,,,,,,,,,,,,,,,,,,,,,,,,,,,
1725618235.455321,1725618235.457245,116.0,0.0,4252.436035,4234.871582,4293.589844,4275.384766,4220.0,4218.333496,4230.0,4229.358887,4196.666504,4199.871582,4545.384766,4526.922852,4461.794922,4449.230957,0.0,2.0,35.0,,,,0.0,4.0,4.0,4.0,4.0,4.0,4.0,4.0,4.0,4.0,4.0,4.0,4.0,4.0,4.0,100.0,,,,,,,,,,,,,,,,,,,,,,,,,,,,,,,,,,,,,,,,,,,,,,,,,,,,,,,,,,,,,,,,,,,,,,,,,,,,,,,,,,,,,,,,,,,,,,,,,,,,,,,,,,,,,,,,,,,,,,,,,,,,,,,,,,,
1725618235.459225,1725618235.461149,117.0,0.0,4257.179688,4236.410156,4293.717773,4277.436035,4220.769043,4217.563965,4230.641113,4233.717773,4200.0,4203.846191,4552.179688,4530.128418,4468.077148,4454.487305,0.0,2.0,35.0,,,,0.0,4.0,4.0,4.0,4.0,4.0,4.0,4.0,4.0,4.0,4.0,4.0,4.0,4.0,4.0,100.0,,,,,,,,,,,,,,,,,,,,,,,,,,,,,,,,,,,,,,,,,,,,,,,,,,,,,,,,,,,,,,,,,,,,,,,,,,,,,,,,,,,,,,,,,,,,,,,,,,,,,,,,,,,,,,,,,,,,,,,,,,,,,,,,,,,
1725618235.463129,1725618235.464953,118.0,0.0,4261.025879,4238.717773,4294.230957,4279.230957,4220.641113,4215.128418,4231.410156,4233.717773,4200.769043,4204.358887,4556.025879,4533.205078,4473.077148,4459.102539,0.0,2.0,35.0,,,,0.0,4.0,4.0,4.0,4.0,4.0,4.0,4.0,4.0,4.0,4.0,4.0,4.0,4.0,4.0,100.0,,,,,,,,,,,,,,,,,,,,,,,,,,,,,,,,,,,,,,,,,,,,,,,,,,,,,,,,,,,,,,,,,,,,,,,,,,,,,,,,,,,,,,,,,,,,,,,,,,,,,,,,,,,,,,,,,,,,,,,,,,,,,,,,,,,
1725618235.467033,1725618235.468858,119.0,0.0,4261.410156,4239.358887,4295.0,4279.743652,4220.0,4212.94873,4231.922852,4231.794922,4199.743652,4202.692383,4556.794922,4536.282227,4475.769043,4461.282227,0.0,2.0,35.0,,,,0.0,4.0,4.0,4.0,4.0,4.0,4.0,4.0,4.0,4.0,4.0,4.0,4.0,4.0,4.0,100.0,,,,,,,,,,,,,,,,,,,,,,,,,,,,,,,,,,,,,,,,,,,,,,,,,,,,,,,,,,,,,,,,,,,,,,,,,,,,,,,,,,,,,,,,,,,,,,,,,,,,,,,,,,,,,,,,,,,,,,,,,,,,,,,,,,,
1725618235.470937,1725618235.472762,120.0,0.0,4257.563965,4237.563965,4295.641113,4279.102539,4218.974121,4212.05127,4231.794922,4230.641113,4198.717773,4201.025879,4555.256348,4538.461426,4476.410156,4460.512695,0.0,2.0,35.0,,,,0.0,4.0,4.0,4.0,4.0,4.0,4.0,4.0,4.0,4.0,4.0,4.0,4.0,4.0,4.0,100.0,,,,,,,,,,,,,,,,,,,,,,,,,,,,,,,,,,,,,,,,,,,,,,,,,,,,,,,,,,,,,,,,,,,,,,,,,,,,,,,,,,,,,,,,,,,,,,,,,,,,,,,,,,,,,,,,,,,,,,,,,,,,,,,,,,,
1725618235.474841,1725618235.476766,121.0,0.0,4251.794922,4234.871582,4296.025879,4278.077148,4218.077148,4212.436035,4230.897461,4231.153809,4198.589844,4200.897461,4552.820313,4539.358887,4476.025879,4457.692383,0.0,2.0,35.0,,,,0.0,4.0,4.0,4.0,4.0,4.0,4.0,4.0,4.0,4.0,4.0,4.0,4.0,4.0,4.0,100.0,,,,,,,,,,,,,,,,,,,,,,,,,,,,,,,,,,,,,,,,,,,,,,,,,,,,,,,,,,,,,,,,,,,,,,,,,,,,,,,,,,,,,,,,,,,,,,,,,,,,,,,,,,,,,,,,,,,,,,,,,,,,,,,,,,,
1725618235.478746,1725618235.48067,122.0,0.0,4247.820313,4233.974121,4296.153809,4278.077148,4217.692383,4213.077148,4230.0,4232.563965,4199.487305,4202.179688,4551.282227,4539.487305,4475.769043,4455.256348,0.0,2.0,35.0,,,,0.0,4.0,4.0,4.0,4.0,4.0,4.0,4.0,4.0,4.0,4.0,4.0,4.0,4.0,4.0,100.0,,,,,,,,,,,,,,,,,,,,,,,,,,,,,,,,,,,,,,,,,,,,,,,,,,,,,,,,0.0,0.0,64.0,0.032682,1.0,0.0,,,,,,,,,,,,,,,,,,,,,,,,,,,,,,,,,,,,,,,,,,,,,,,,,,,,,,,,,,,,,,,,,,,,,,
1725618235.48265,1725618235.484574,123.0,0.0,4247.94873,4235.384766,4296.153809,4279.358887,4217.563965,4213.333496,4229.358887,4233.717773,4201.025879,4204.487305,4551.410156,4539.615234,4476.282227,4455.128418,0.0,2.0,35.0,,,,0.0,4.0,4.0,4.0,4.0,4.0,4.0,4.0,4.0,4.0,4.0,4.0,4.0,4.0,4.0,100.0,,,,,,,,,,,,,,,,,,,,,,,,,,,,,,,,,,,,,,,,,,,,,,,,,,,,,,,,,,,,,,,,,,,,,,,,,,,,,,,,,,,,,,,,,,,,,,,,,,,,,,,,,,,,,,,,,,,,,,,,,,,,,,,,,,,
1725618235.486554,1725618235.488478,124.0,0.0,4251.922852,4237.94873,4295.897461,4280.897461,4217.307617,4213.333496,4229.102539,4234.102539,4202.436035,4206.410156,4553.461426,4539.871582,4477.692383,4457.436035,0.0,2.0,35.0,,,,0.0,4.0,4.0,4.0,4.0,4.0,4.0,4.0,4.0,4.0,4.0,4.0,4.0,4.0,4.0,100.0,,,,,,,,,,,,,,,,,,,,,,,,,,,,,,,,,,,,,,,,,,,,,,,,,,,,,,,,,,,,,,,,,,,,,,,,,,,,,,,,,,,,,,,,,,,,,,,,,,,,,,,,,,,,,,,,,,,,,,,,,,,,,,,,,,,
1725618235.490458,1725618235.492482,125.0,0.0,4256.922852,4240.128418,4295.128418,4281.666504,4216.922852,4213.461426,4229.102539,4234.358887,4202.563965,4206.922852,4555.641113,4539.615234,4479.358887,4460.512695,0.0,2.0,35.0,,,,0.0,4.0,4.0,4.0,4.0,4.0,4.0,4.0,4.0,4.0,4.0,4.0,4.0,4.0,4.0,100.0,,,,,,,,,,,,,,,,,,,,,,,,,,,,,,,,,,,,,,,,,,,,,,,,,,,,,,,,,,,,,,,,,,,,,,,,,,,,,,,,,,,,,,,,,,,,,,,,,,,,,,,,,,,,,,,,,,,,,,,,,,,,,,,,,,,
1725618235.494362,1725618235.496386,126.0,0.0,4260.0,4241.794922,4294.487305,4281.025879,4216.538574,4213.846191,4229.102539,4235.128418,4201.794922,4205.641113,4556.666504,4538.717773,4480.512695,4462.307617,0.0,2.0,35.0,,,,0.0,4.0,4.0,4.0,4.0,4.0,4.0,4.0,4.0,4.0,4.0,4.0,4.0,4.0,4.0,100.0,,,,,,,,,,,,,,,,,,,,,,,,,,,,,,,,,,,,,,,,,,,,,,,,,,,,,,,,,,,,,,,,,,,,,,,,,,,,,,,,,,,,,,,,,,,,,,,,,,,,,,,,,,,,,,,,,,,,,,,,,,,,,,,,,,,
1725618235.498266,1725618235.50029,127.0,0.0,4260.384766,4243.333496,4294.743652,4280.256348,4216.794922,4214.230957,4228.974121,4236.538574,4200.897461,4203.333496,4555.256348,4537.94873,4480.384766,4462.179688,0.0,2.0,35.0,,,,0.0,4.0,4.0,4.0,4.0,4.0,4.0,4.0,4.0,4.0,4.0,4.0,4.0,4.0,4.0,100.0,,,,,,,,,,,,,,,,,,,,,,,,,,,,,,,,,,,,,,,,,,,,,,,,,,,,,,,,,,,,,,,,,,,,,,,,,,,,,,,,,,,,,,,,,,,,,,,,,,,,,,,,,,,,,,,,,,,,,,,,,,,,,,,,,,,
1725618235.50217,1725618235.504194,128.0,0.0,4259.871582,4245.0,4295.897461,4280.512695,4217.563965,4214.358887,4228.846191,4237.436035,4201.025879,4201.922852,4551.538574,4538.077148,4479.487305,4460.897461,2613.0,2.0,35.0,,,,0.0,4.0,4.0,4.0,4.0,4.0,4.0,4.0,4.0,4.0,4.0,4.0,4.0,4.0,4.0,100.0,,,,,,,,,,,,,,,,,,,,,,,,,,,,,,,,,,,,,,,,,,,,,,,,,,,,,,,,,,,,,,,,,,,,,,,,,,,,,,,,,,,,,,,,,,,,,,,,,,,,,,,,,,,,,,,,,,,,,,,,,,,,,,,,,,,
1725618235.506074,1725618235.508198,129.0,0.0,4260.256348,4246.538574,4297.307617,4282.179688,4218.717773,4214.358887,4228.974121,4235.897461,4202.05127,4202.563965,4546.666504,4538.717773,4478.717773,4459.743652,2571.0,2.0,35.0,,,,0.0,4.0,4.0,4.0,4.0,4.0,4.0,4.0,4.0,4.0,4.0,4.0,4.0,4.0,4.0,100.0,,,,,,,,,,,,,,,,,,,,,,,,,,,,,,,,,,,,,,,,,,,,,,,,,,,,,,,,,,,,,,,,,,,,,,,,,,,,,,,,,,,,,,,,,,,,,,,,,,,,,,,,,,,,,,,,,,,,,,,,,,,,,,,,,,,
1725618235.509978,1725618235.512102,130.0,0.0,4261.794922,4248.077148,4297.820313,4283.974121,4219.743652,4214.615234,4229.615234,4230.769043,4203.205078,4205.128418,4542.436035,4537.94873,4478.589844,4458.974121,2451.0,2.0,35.0,,,,0.0,4.0,4.0,4.0,4.0,4.0,4.0,4.0,4.0,4.0,4.0,4.0,4.0,4.0,4.0,100.0,,,,,,,,,,,,,,,,,1.0,0.0,0.0,,,,,,,,,,,,,,,,,,,,,,,,,,,,,,,,,,,,,0.0,0.0,1.0,0.0,1.0,0.0,3.885634,1.876266,0.732653,0.335691,0.119751,2.884675,1.302714,0.655186,0.259145,0.092957,3.128243,1.737017,0.54603,0.158605,0.08858,2.732351,1.17066,0.392402,0.248931,0.119508,0.669088,0.560087,0.580016,0.14348,0.083635,0.543967,0.394285,0.368803,0.050278,0.064579,0.622879,0.443012,0.358255,0.070026,0.0612,1.285411,0.642889,0.242689,0.422116,0.226371,1.270729,0.934386,0.680933,0.408018,0.063947,2.22094,0.900536,0.603316,0.509121,0.068244,2.904448,1.922287,0.582628,0.527054,0.152639,3.797333,2.894704,0.710238,0.744404,0.153927,3.47814,1.873651,0.953561,0.417245,0.124817,4.28987,2.287504,0.865543,0.44091,0.135436
1725618235.513883,1725618235.516007,131.0,0.0,4263.205078,4249.102539,4297.05127,4284.615234,4220.128418,4215.128418,4230.384766,4223.205078,4204.102539,4207.94873,4539.871582,4534.230957,4477.692383,4458.333496,2463.0,2.0,35.0,,,,0.0,4.0,4.0,4.0,4.0,4.0,4.0,4.0,4.0,4.0,4.0,4.0,4.0,4.0,4.0,100.0,,,,,,,,,,,,,,,,,,,,,,,,,,,,,,,,,,,,,,,,,,,,,,,,,,,,,,,,,,,,,,,,,,,,,,,,,,,,,,,,,,,,,,,,,,,,,,,,,,,,,,,,,,,,,,,,,,,,,,,,,,,,,,,,,,,
1725618235.517787,1725618235.520011,132.0,0.0,4262.820313,4248.974121,4295.256348,4283.717773,4219.615234,4215.641113,4231.153809,4216.410156,4204.358887,4208.974121,4538.974121,4528.205078,4474.615234,4457.307617,2426.0,2.0,35.0,,,,0.0,4.0,4.0,4.0,4.0,4.0,4.0,4.0,4.0,4.0,4.0,4.0,4.0,4.0,4.0,100.0,,,,,,,,,,,,,,,,,,,,,,,,,,,,,,,,,,,,,,,,,,,,,,,,,,,,,,,,,,,,,,,,,,,,,,,,,,,,,,,,,,,,,,,,,,,,,,,,,,,,,,,,,,,,,,,,,,,,,,,,,,,,,,,,,,,
1725618235.521691,1725618235.523915,133.0,0.0,4260.641113,4247.820313,4293.717773,4281.794922,4218.717773,4215.897461,4231.794922,4213.846191,4203.974121,4206.922852,4538.974121,4522.563965,4469.743652,4456.282227,2398.0,2.0,35.0,,,,0.0,4.0,4.0,4.0,4.0,4.0,4.0,4.0,4.0,4.0,4.0,4.0,4.0,4.0,4.0,100.0,,,,,,,,,,,,,,,,,,,,,,,,,,,,,,,,,,,,,,,,,,,,,,,,,,,,,,,,,,,,,,,,,,,,,,,,,,,,,,,,,,,,,,,,,,,,,,,,,,,,,,,,,,,,,,,,,,,,,,,,,,,,,,,,,,,
1725618235.525595,1725618235.527819,134.0,0.0,4257.94873,4246.666504,4292.820313,4280.0,4217.692383,4215.641113,4231.794922,4216.666504,4203.333496,4203.461426,4538.333496,4520.769043,4465.256348,4455.769043,2177.0,2.0,35.0,,,,0.0,4.0,4.0,4.0,4.0,4.0,4.0,4.0,4.0,4.0,4.0,4.0,4.0,4.0,4.0,100.0,,,,,,,,,,,,,,,,,,,,,,,,,,,,,,,,,,,,,,,,,,,,,,,,,,,,,,,,,,,,,,,,,,,,,,,,,,,,,,,,,,,,,,,,,,,,,,,,,,,,,,,,,,,,,,,,,,,,,,,,,,,,,,,,,,,
1725618235.529499,1725618235.531723,135.0,0.0,4256.410156,4246.153809,4292.820313,4279.102539,4217.179688,4215.769043,4231.025879,4223.077148,4202.820313,4201.666504,4537.692383,4523.974121,4463.717773,4456.153809,2488.0,2.0,35.0,,,,0.0,4.0,4.0,4.0,4.0,4.0,4.0,4.0,4.0,4.0,4.0,4.0,4.0,4.0,4.0,100.0,,,,,,,,,,,,,,,,,,,,,,,,,,,,,,,,,,,,,,,,,,,,,,,,,,,,,,,,,,,,,,,,,,,,,,,,,,,,,,,,,,,,,,,,,,,,,,,,,,,,,,,,,,,,,,,,,,,,,,,,,,,,,,,,,,,
1725618235.533403,1725618235.535627,136.0,0.0,4256.794922,4246.794922,4293.461426,4279.358887,4217.436035,4216.666504,4230.128418,4229.871582,4203.205078,4203.589844,4538.205078,4530.128418,4466.153809,4457.179688,2469.0,2.0,35.0,,,,0.0,4.0,4.0,4.0,4.0,4.0,4.0,4.0,4.0,4.0,4.0,4.0,4.0,4.0,4.0,100.0,,,,,,,,,,,,,,,,,,,,,,,,,,,,,,,,,,,,,,,,,,,,,,,,,,,,,,,,,,,,,,,,,,,,,,,,,,,,,,,,,,,,,,,,,,,,,,,,,,,,,,,,,,,,,,,,,,,,,,,,,,,,,,,,,,,
1725618235.537307,1725618235.539431,137.0,0.0,4258.461426,4248.077148,4294.358887,4280.384766,4218.205078,4218.461426,4230.0,4233.974121,4204.230957,4208.461426,4541.666504,4535.769043,4471.282227,4458.589844,2556.0,2.0,35.0,,,,0.0,4.0,4.0,4.0,4.0,4.0,4.0,4.0,4.0,4.0,4.0,4.0,4.0,4.0,4.0,100.0,,,,,,,,,,,,,,,,,,,,,,,,,,,,,,,,,,,,,,,,,,,,,,,,,,,,,,,,,,,,,,,,,,,,,,,,,,,,,,,,,,,,,,,,,,,,,,,,,,,,,,,,,,,,,,,,,,,,,,,,,,,,,,,,,,,
1725618235.541211,1725618235.543335,138.0,0.0,4260.512695,4248.589844,4295.256348,4281.410156,4219.102539,4220.0,4230.769043,4234.743652,4205.128418,4213.077148,4547.563965,4537.94873,4476.025879,4460.256348,2894.0,2.0,35.0,,,,0.0,4.0,4.0,4.0,4.0,4.0,4.0,4.0,4.0,4.0,4.0,4.0,4.0,4.0,4.0,100.0,,,,,,,,,,,,,,,,,,,,,,,,,,,,,,,,,,,,,,,,,,,,,,,,,,,,,,,,0.0,0.0,1.0,0.0,1.0,0.0,,,,,,,,,,,,,,,,,,,,,,,,,,,,,,,,,,,,,,,,,,,,,,,,,,,,,,,,,,,,,,,,,,,,,,
1725618235.545115,1725618235.547239,139.0,0.0,4262.179688,4248.077148,4295.897461,4282.436035,4219.358887,4220.512695,4231.794922,4233.077148,4205.0,4213.717773,4553.077148,4535.641113,4477.692383,4461.538574,3066.0,2.0,35.0,,,,0.0,4.0,4.0,4.0,4.0,4.0,4.0,4.0,4.0,4.0,4.0,4.0,4.0,4.0,4.0,100.0,,,,,,,,,,,,,,,,,,,,,,,,,,,,,,,,,,,,,,,,,,,,,,,,,,,,,,,,,,,,,,,,,,,,,,,,,,,,,,,,,,,,,,,,,,,,,,,,,,,,,,,,,,,,,,,,,,,,,,,,,,,,,,,,,,,
1725618235.549019,1725618235.551143,140.0,0.0,4262.820313,4246.922852,4295.897461,4282.563965,4218.974121,4219.230957,4231.538574,4230.897461,4203.717773,4209.358887,4554.487305,4529.871582,4475.897461,4461.794922,3423.0,2.0,35.0,,,,0.0,4.0,4.0,4.0,4.0,4.0,4.0,4.0,4.0,4.0,4.0,4.0,4.0,4.0,4.0,100.0,,,,,,,,,,,,,,,,,,,,,,,,,,,,,,,,,,,,,,,,,,,,,,,,,,,,,,,,,,,,,,,,,,,,,,,,,,,,,,,,,,,,,,,,,,,,,,,,,,,,,,,,,,,,,,,,,,,,,,,,,,,,,,,,,,,
1725618235.552924,1725618235.555048,141.0,0.0,4262.563965,4245.897461,4295.512695,4281.794922,4217.94873,4217.05127,4228.974121,4229.871582,4202.05127,4202.307617,4549.743652,4523.333496,4472.179688,4460.384766,3889.0,2.0,35.0,,,,0.0,4.0,4.0,4.0,4.0,4.0,4.0,4.0,4.0,4.0,4.0,4.0,4.0,4.0,4.0,100.0,,,,,,,,,,,,,,,,,,,,,,,,,,,,,,,,,,,,,,,,,,,,,,,,,,,,,,,,,,,,,,,,,,,,,,,,,,,,,,,,,,,,,,,,,,,,,,,,,,,,,,,,,,,,,,,,,,,,,,,,,,,,,,,,,,,
1725618235.556828,1725618235.558852,142.0,0.0,4262.307617,4245.769043,4294.871582,4280.384766,4217.05127,4215.256348,4224.487305,4230.256348,4201.153809,4196.538574,4541.538574,4519.358887,4469.358887,4457.94873,2894.0,2.0,35.0,,,,0.0,4.0,4.0,4.0,4.0,4.0,4.0,4.0,4.0,4.0,4.0,4.0,4.0,4.0,4.0,100.0,,,,,,,,,,,,,,,,,,,,,,,,,,,,,,,,,,,,,,,,,,,,,,,,,,,,,,,,,,,,,,,,,,,,,,,,,,,,,,,,,,,,,,,,,,,,,,,,,,,,,,,,,,,,,,,,,,,,,,,,,,,,,,,,,,,
1725618235.560732,1725618235.562756,143.0,0.0,4262.692383,4246.282227,4294.615234,4279.487305,4216.794922,4214.871582,4219.743652,4231.538574,4201.410156,4195.256348,4535.512695,4519.743652,4469.358887,4456.153809,3066.0,2.0,35.0,,,,0.0,4.0,4.0,4.0,4.0,4.0,4.0,4.0,4.0,4.0,4.0,4.0,4.0,4.0,4.0,100.0,,,,,,,,,,,,,,,,,,,,,,,,,,,,,,,,,,,,,,,,,,,,,,,,,,,,,,,,,,,,,,,,,,,,,,,,,,,,,,,,,,,,,,,,,,,,,,,,,,,,,,,,,,,,,,,,,,,,,,,,,,,,,,,,,,,
1725618235.564636,1725618235.56666,144.0,0.0,4263.846191,4247.179688,4295.128418,4279.743652,4217.179688,4215.512695,4217.179688,4233.077148,4202.307617,4198.077148,4536.410156,4524.615234,4472.05127,4456.538574,3423.0,2.0,35.0,,,,0.0,4.0,4.0,4.0,4.0,4.0,4.0,4.0,4.0,4.0,4.0,4.0,4.0,4.0,4.0,100.0,,,,,,,,,,,,,,,,,,,,,,,,,,,,,,,,,,,,,,,,,,,,,,,,,,,,,,,,,,,,,,,,,,,,,,,,,,,,,,,,,,,,,,,,,,,,,,,,,,,,,,,,,,,,,,,,,,,,,,,,,,,,,,,,,,,
1725618235.56854,1725618235.570464,145.0,0.0,4265.384766,4248.077148,4296.282227,4281.282227,4217.820313,4216.410156,4217.563965,4234.358887,4203.333496,4202.307617,4543.589844,4531.666504,4475.384766,4459.102539,3889.0,2.0,35.0,,,,0.0,4.0,4.0,4.0,4.0,4.0,4.0,4.0,4.0,4.0,4.0,4.0,4.0,4.0,4.0,100.0,,,,,,,,,,,,,,,,,,,,,,,,,,,,,,,,,,,,,,,,,,,,,,,,,,,,,,,,,,,,,,,,,,,,,,,,,,,,,,,,,,,,,,,,,,,,,,,,,,,,,,,,,,,,,,,,,,,,,,,,,,,,,,,,,,,
1725618235.572444,1725618235.574368,146.0,0.0,4266.538574,4249.102539,4297.436035,4283.717773,4218.333496,4217.05127,4219.871582,4235.0,4204.487305,4205.256348,4552.436035,4538.077148,4477.563965,4462.94873,2894.0,2.0,35.0,,,,0.0,4.0,4.0,4.0,4.0,4.0,4.0,4.0,4.0,4.0,4.0,4.0,4.0,4.0,4.0,100.0,,,,,,,,,,,,,,,,,,,,,,,,,,,,,,,,,,,,,,,,,,,,,,,,,,,,,,,,0.0,0.0,1.0,0.0,1.0,0.0,,,,,,,,,,,,,,,,,,,,,,,,,,,,,,,,,,,,,,,,,,,,,,,,,,,,,,,,,,,,,,,,,,,,,,
1725618235.576348,1725618235.578272,147.0,0.0,4266.794922,4249.615234,4298.077148,4285.897461,4218.461426,4217.307617,4222.307617,4234.743652,4205.512695,4205.641113,4557.563965,4541.538574,4477.94873,4465.641113,3066.0,2.0,35.0,,,,0.0,4.0,4.0,4.0,4.0,4.0,4.0,4.0,4.0,4.0,4.0,4.0,4.0,4.0,4.0,100.0,,,,,,,,,,,,,,,,,,,,,,,,,,,,,,,,,,,,,,,,,,,,,,,,,,,,,,,,,,,,,,,,,,,,,,,,,,,,,,,,,,,,,,,,,,,,,,,,,,,,,,,,,,,,,,,,,,,,,,,,,,,,,,,,,,,
1725618235.580252,1725618235.582276,148.0,0.0,4265.769043,4249.487305,4297.436035,4286.410156,4218.461426,4217.820313,4223.205078,4233.974121,4206.153809,4203.846191,4555.128418,4541.153809,4476.922852,4465.769043,3423.0,2.0,35.0,,,,0.0,4.0,4.0,4.0,4.0,4.0,4.0,4.0,4.0,4.0,4.0,4.0,4.0,4.0,4.0,100.0,,,,,,,,,,,,,,,,,,,,,,,,,,,,,,,,,,,,,,,,,,,,,,,,,,,,,,,,,,,,,,,,,,,,,,,,,,,,,,,,,,,,,,,,,,,,,,,,,,,,,,,,,,,,,,,,,,,,,,,,,,,,,,,,,,,
1725618235.584156,1725618235.58618,149.0,0.0,4264.615234,4248.461426,4295.897461,4285.0,4218.589844,4218.205078,4222.436035,4233.205078,4205.512695,4201.153809,4546.666504,4538.333496,4475.0,4463.461426,3889.0,2.0,35.0,,,,0.0,4.0,4.0,4.0,4.0,4.0,4.0,4.0,4.0,4.0,4.0,4.0,4.0,4.0,4.0,100.0,,,,,,,,,,,,,,,,,,,,,,,,,,,,,,,,,,,,,,,,,,,,,,,,,,,,,,,,,,,,,,,,,,,,,,,,,,,,,,,,,,,,,,,,,,,,,,,,,,,,,,,,,,,,,,,,,,,,,,,,,,,,,,,,,,,
1725618235.588061,1725618235.590085,150.0,0.0,4264.102539,4247.307617,4294.487305,4282.820313,4218.589844,4218.077148,4220.897461,4232.563965,4203.717773,4199.230957,4537.563965,4535.0,4472.692383,4460.256348,2894.0,2.0,35.0,,,,0.0,4.0,4.0,4.0,4.0,4.0,4.0,4.0,4.0,4.0,4.0,4.0,4.0,4.0,4.0,100.0,,,,,,,,,,,,,,,,,,,,,,,,,,,,,,,,,,,,,,,,,,,,,,,,,,,,,,,,,,,,,,,,,,,,,,,,,,,,,,,,,,,,,,,,,,,,,,,,,,,,,,,,,,,,,,,,,,,,,,,,,,,,,,,,,,,
1725618235.591965,1725618235.594089,151.0,0.0,4264.102539,4246.794922,4293.589844,4281.922852,4217.307617,4216.282227,4220.0,4231.922852,4202.307617,4199.743652,4533.717773,4533.205078,4471.025879,4457.94873,3066.0,2.0,35.0,,,,0.0,4.0,4.0,4.0,4.0,4.0,4.0,4.0,4.0,4.0,4.0,4.0,4.0,4.0,4.0,100.0,,,,,,,,,,,,,,,,,,,,,,,,,,,,,,,,,,,,,,,,,,,,,,,,,,,,,,,,,,,,,,,,,,,,,,,,,,,,,,,,,,,,,,,,,,,,,,,,,,,,,,,,,,,,,,,,,,,,,,,,,,,,,,,,,,,
1725618235.595869,1725618235.597993,152.0,0.0,4264.487305,4246.666504,4293.461426,4282.94873,4214.358887,4213.205078,4219.871582,4231.153809,4203.333496,4202.820313,4536.922852,4533.846191,4471.282227,4457.307617,3423.0,2.0,35.0,,,,0.0,4.0,4.0,4.0,4.0,4.0,4.0,4.0,4.0,4.0,4.0,4.0,4.0,4.0,4.0,100.0,,,,,,,,,,,,,,,,,,,,,,,,,,,,,,,,,,,,,,,,,,,,,,,,,,,,,,,,,,,,,,,,,,,,,,,,,,,,,,,,,,,,,,,,,,,,,,,,,,,,,,,,,,,,,,,,,,,,,,,,,,,,,,,,,,,
1725618235.599773,1725618235.601897,153.0,0.0,4264.743652,4246.538574,4293.974121,4285.384766,4210.384766,4210.512695,4219.871582,4230.641113,4207.179688,4207.307617,4544.487305,4536.666504,4473.461426,4458.333496,3889.0,2.0,35.0,,,,0.0,4.0,4.0,4.0,4.0,4.0,4.0,4.0,4.0,4.0,4.0,4.0,4.0,4.0,4.0,100.0,,,,,,,,,,,,,,,,,,,,,,,,,,,,,,,,,,,,,,,,,,,,,,,,,,,,,,,,,,,,,,,,,,,,,,,,,,,,,,,,,,,,,,,,,,,,,,,,,,,,,,,,,,,,,,,,,,,,,,,,,,,,,,,,,,,
1725618235.603677,1725618235.605801,154.0,0.0,4264.743652,4246.410156,4295.256348,4287.307617,4207.179688,4210.128418,4219.358887,4231.282227,4212.179688,4211.794922,4551.410156,4540.128418,4475.512695,4459.871582,2894.0,2.0,35.0,,,,0.0,4.0,4.0,4.0,4.0,4.0,4.0,4.0,4.0,4.0,4.0,4.0,4.0,4.0,4.0,100.0,,,,,,,,,,,,,,,,,,,,,,,,,,,,,,,,,,,,,,,,,,,,,,,,,,,,,,,,0.0,0.0,1.0,0.0,1.0,0.0,,,,,,,,,,,,,,,,,,,,,,,,,,,,,,,,,,,,,,,,,,,,,,,,,,,,,,,,,,,,,,,,,,,,,,
1725618235.607581,1725618235.609705,155.0,0.0,4264.358887,4246.025879,4296.666504,4287.563965,4206.794922,4212.436035,4218.077148,4232.94873,4215.384766,4214.358887,4554.487305,4541.666504,4475.384766,4460.897461,3066.0,2.0,35.0,,,,0.0,4.0,4.0,4.0,4.0,4.0,4.0,4.0,4.0,4.0,4.0,4.0,4.0,4.0,4.0,100.0,,,,,,,,,,,,,,,,,,,,,,,,,,,,,,,,,,,,,,,,,,,,,,,,,,,,,,,,,,,,,,,,,,,,,,,,,,,,,,,,,,,,,,,,,,,,,,,,,,,,,,,,,,,,,,,,,,,,,,,,,,,,,,,,,,,
1725618235.611485,1725618235.613509,156.0,0.0,4263.461426,4245.256348,4297.563965,4286.025879,4209.487305,4215.256348,4217.05127,4234.743652,4214.743652,4213.974121,4552.692383,4540.0,4471.922852,4461.025879,3423.0,2.0,35.0,,,,0.0,4.0,4.0,4.0,4.0,4.0,4.0,4.0,4.0,4.0,4.0,4.0,4.0,4.0,4.0,100.0,,,,,,,,,,,,,,,,,,,,,,,,,,,,,,,,,,,,,,,,,,,,,,,,,,,,,,,,,,,,,,,,,,,,,,,,,,,,,,,,,,,,,,,,,,,,,,,,,,,,,,,,,,,,,,,,,,,,,,,,,,,,,,,,,,,
1725618235.615389,1725618235.617413,157.0,0.0,4261.153809,4243.717773,4296.410156,4283.205078,4213.205078,4215.256348,4217.179688,4234.102539,4210.0,4210.897461,4546.794922,4535.128418,4466.538574,4460.256348,3889.0,2.0,35.0,,,,0.0,4.0,4.0,4.0,4.0,4.0,4.0,4.0,4.0,4.0,4.0,4.0,4.0,4.0,4.0,100.0,,,,,,,,,,,,,,,,,,,,,,,,,,,,,,,,,,,,,,,,,,,,,,,,,,,,,,,,,,,,,,,,,,,,,,,,,,,,,,,,,,,,,,,,,,,,,,,,,,,,,,,,,,,,,,,,,,,,,,,,,,,,,,,,,,,
1725618235.619293,1725618235.621317,158.0,0.0,4257.436035,4241.410156,4292.692383,4280.0,4214.358887,4210.769043,4218.077148,4229.230957,4203.461426,4206.410156,4538.717773,4528.846191,4461.282227,4458.077148,2894.0,2.0,35.0,,,,0.0,4.0,4.0,4.0,4.0,4.0,4.0,4.0,4.0,4.0,4.0,4.0,4.0,4.0,4.0,100.0,,,,,,,,,,,,,,,,,,,,,,,,,,,,,,,,,,,,,,,,,,,,,,,,,,,,,,,,,,,,,,,,,,,,,,,,,,,,,,,,,,,,,,,,,,,,,,,,,,,,,,,,,,,,,,,,,,,,,,,,,,,,,,,,,,,
1725618235.623197,1725618235.625321,159.0,0.0,4252.94873,4238.461426,4287.179688,4277.05127,4211.025879,4203.461426,4218.205078,4220.769043,4198.205078,4202.436035,4530.769043,4523.205078,4457.820313,4454.358887,3066.0,2.0,35.0,,,,0.0,4.0,4.0,4.0,4.0,4.0,4.0,4.0,4.0,4.0,4.0,4.0,4.0,4.0,4.0,100.0,,,,,,,,,,,,,,,,,,,,,,,,,,,,,,,,,,,,,,,,,,,,,,,,,,,,,,,,,,,,,,,,,,,,,,,,,,,,,,,,,,,,,,,,,,,,,,,,,,,,,,,,,,,,,,,,,,,,,,,,,,,,,,,,,,,
1725618235.627102,1725618235.629226,160.0,0.0,4249.487305,4235.256348,4282.179688,4274.358887,4205.0,4198.077148,4216.922852,4212.94873,4196.410156,4200.0,4525.256348,4520.0,4456.794922,4449.358887,3423.0,2.0,35.0,,,,0.0,4.0,4.0,4.0,4.0,4.0,4.0,4.0,4.0,4.0,4.0,4.0,4.0,4.0,4.0,100.0,,,,,,,,,,,,,,,,,,,,,,,,,,,,,,,,,,,,,,,,,,,,,,,,,,,,,,,,,,,,,,,,,,,,,,,,,,,,,,,,,,,,,,,,,,,,,,,,,,,,,,,,,,,,,,,,,,,,,,,,,,,,,,,,,,,
1725618235.631006,1725618235.63313,161.0,0.0,4248.205078,4233.077148,4279.615234,4272.563965,4201.153809,4198.205078,4215.512695,4210.897461,4198.077148,4199.358887,4523.717773,4520.384766,4457.05127,4445.0,3889.0,2.0,35.0,,,,0.0,4.0,4.0,4.0,4.0,4.0,4.0,4.0,4.0,4.0,4.0,4.0,4.0,4.0,4.0,100.0,,,,,,,,,,,,,,,,,,,,,,,,,,,,,,,,,,,,,,,,,,,,,,,,,,,,,,,,,,,,,,,,,,,,,,,,,,,,,,,,,,,,,,,,,,,,,,,,,,,,,,,,,,,,,,,,,,,,,,,,,,,,,,,,,,,
1725618235.63491,1725618235.637034,162.0,0.0,4249.230957,4232.179688,4280.0,4272.563965,4202.820313,4204.487305,4216.282227,4216.153809,4201.538574,4200.256348,4526.794922,4523.589844,4457.820313,4443.589844,2894.0,2.0,35.0,,,,0.0,4.0,4.0,4.0,4.0,4.0,4.0,4.0,4.0,4.0,4.0,4.0,4.0,4.0,4.0,100.0,,,,,,,,,,,,,,,,,1.0,0.0,0.0,,,,,,,,,,,,,,,,,,,,,,,,,,,,,,,,,,,,,0.0,0.0,1.0,0.0,1.0,0.0,3.84934,2.03847,0.770189,0.326415,0.110452,2.893409,1.409194,0.644829,0.248689,0.091427,3.101163,1.683308,0.581271,0.170793,0.085391,2.56291,1.139425,0.419027,0.242234,0.106133,0.565174,0.436226,0.452435,0.129013,0.074381,0.553215,0.446188,0.337781,0.058171,0.064339,0.569566,0.384522,0.285253,0.069328,0.0462,1.438155,0.649278,0.31926,0.385978,0.228607,1.447234,0.927341,0.600014,0.370285,0.060274,2.471762,1.00147,0.468319,0.450845,0.066268,3.051741,1.999009,0.589195,0.497832,0.140468,3.866104,2.843021,0.884768,0.72914,0.154439,3.507897,1.852919,0.787308,0.374883,0.112936,4.021832,2.313972,0.929338,0.434269,0.120816
1725618235.638814,1725618235.640938,163.0,0.0,4250.769043,4232.307617,4282.05127,4274.230957,4208.846191,4213.333496,4219.487305,4225.641113,4203.974121,4201.922852,4532.94873,4527.05127,4458.205078,4445.256348,3066.0,2.0,35.0,,,,0.0,4.0,4.0,4.0,4.0,4.0,4.0,4.0,4.0,4.0,4.0,4.0,4.0,4.0,4.0,100.0,,,,,,,,,,,,,,,,,,,,,,,,,,,,,,,,,,,,,,,,,,,,,,,,,,,,,,,,,,,,,,,,,,,,,,,,,,,,,,,,,,,,,,,,,,,,,,,,,,,,,,,,,,,,,,,,,,,,,,,,,,,,,,,,,,,
1725618235.642718,1725618235.644742,164.0,0.0,4250.512695,4232.307617,4283.333496,4276.922852,4214.487305,4219.358887,4223.333496,4233.205078,4204.102539,4203.205078,4538.717773,4528.077148,4458.333496,4447.820313,3423.0,2.0,35.0,,,,0.0,4.0,4.0,4.0,4.0,4.0,4.0,4.0,4.0,4.0,4.0,4.0,4.0,4.0,4.0,100.0,,,,,,,,,,,,,,,,,,,,,,,,,,,,,,,,,,,,,,,,,,,,,,,,,,,,,,,,,,,,,,,,,,,,,,,,,,,,,,,,,,,,,,,,,,,,,,,,,,,,,,,,,,,,,,,,,,,,,,,,,,,,,,,,,,,
1725618235.646622,1725618235.648646,165.0,0.0,4248.461426,4231.794922,4283.205078,4279.102539,4215.512695,4219.487305,4224.743652,4234.743652,4202.820313,4203.846191,4540.769043,4526.153809,4458.461426,4448.589844,3889.0,2.0,35.0,,,,0.0,4.0,4.0,4.0,4.0,4.0,4.0,4.0,4.0,4.0,4.0,4.0,4.0,4.0,4.0,100.0,,,,,,,,,,,,,,,,,,,,,,,,,,,,,,,,,,,,,,,,,,,,,,,,,,,,,,,,,,,,,,,,,,,,,,,,,,,,,,,,,,,,,,,,,,,,,,,,,,,,,,,,,,,,,,,,,,,,,,,,,,,,,,,,,,,
1725618235.650526,1725618235.65255,166.0,0.0,4246.538574,4231.538574,4282.307617,4280.128418,4211.538574,4215.384766,4223.333496,4229.871582,4202.179688,4203.717773,4539.230957,4523.333496,4459.230957,4447.307617,2894.0,2.0,35.0,,,,0.0,4.0,4.0,4.0,4.0,4.0,4.0,4.0,4.0,4.0,4.0,4.0,4.0,4.0,4.0,100.0,,,,,,,,,,,,,,,,,,,,,,,,,,,,,,,,,,,,,,,,,,,,,,,,,,,,,,,,,,,,,,,,,,,,,,,,,,,,,,,,,,,,,,,,,,,,,,,,,,,,,,,,,,,,,,,,,,,,,,,,,,,,,,,,,,,
1725618235.65443,1725618235.656454,167.0,0.0,4247.436035,4232.436035,4282.820313,4279.871582,4206.538574,4211.538574,4221.025879,4222.94873,4203.205078,4203.205078,4537.05127,4522.563965,4460.769043,4446.025879,3066.0,2.0,35.0,,,,0.0,4.0,4.0,4.0,4.0,4.0,4.0,4.0,4.0,4.0,4.0,4.0,4.0,4.0,4.0,100.0,,,,,,,,,,,,,,,,,,,,,,,,,,,,,,,,,,,,,,,,,,,,,,,,,,,,,,,,,,,,,,,,,,,,,,,,,,,,,,,,,,,,,,,,,,,,,,,,,,,,,,,,,,,,,,,,,,,,,,,,,,,,,,,,,,,
1725618235.658334,1725618235.660259,168.0,0.0,4251.794922,4234.743652,4285.512695,4279.102539,4204.871582,4211.410156,4220.641113,4218.461426,4205.256348,4202.692383,4536.794922,4524.743652,4462.563965,4447.05127,3423.0,2.0,35.0,,,,0.0,4.0,4.0,4.0,4.0,4.0,4.0,4.0,4.0,4.0,4.0,4.0,4.0,4.0,4.0,100.0,,,,,,,,,,,,,,,,,,,,,,,,,,,,,,,,,,,,,,,,,,,,,,,,,,,,,,,,,,,,,,,,,,,,,,,,,,,,,,,,,,,,,,,,,,,,,,,,,,,,,,,,,,,,,,,,,,,,,,,,,,,,,,,,,,,
1725618235.662238,1725618235.664163,169.0,0.0,4257.692383,4237.179688,4289.743652,4278.846191,4208.589844,4214.487305,4223.205078,4217.94873,4206.794922,4202.563965,4538.461426,4528.333496,4463.461426,4451.025879,3889.0,2.0,35.0,,,,0.0,4.0,4.0,4.0,4.0,4.0,4.0,4.0,4.0,4.0,4.0,4.0,4.0,4.0,4.0,100.0,,,,,,,,,,,,,,,,,,,,,,,,,,,,,,,,,,,,,,,,,,,,,,,,,,,,,,,,,,,,,,,,,,,,,,,,,,,,,,,,,,,,,,,,,,,,,,,,,,,,,,,,,,,,,,,,,,,,,,,,,,,,,,,,,,,
1725618235.666143,1725618235.668067,170.0,0.0,4261.538574,4238.717773,4293.589844,4279.358887,4214.487305,4216.538574,4226.922852,4219.615234,4206.666504,4202.820313,4539.743652,4530.384766,4462.692383,4455.512695,2894.0,2.0,35.0,,,,0.0,4.0,4.0,4.0,4.0,4.0,4.0,4.0,4.0,4.0,4.0,4.0,4.0,4.0,4.0,100.0,,,,,,,,,,,,,,,,,,,,,,,,,,,,,,,,,,,,,,,,,,,,,,,,,,,,,,,,0.0,0.0,1.0,0.0,1.0,0.0,,,,,,,,,,,,,,,,,,,,,,,,,,,,,,,,,,,,,,,,,,,,,,,,,,,,,,,,,,,,,,,,,,,,,,
1725618235.670047,1725618235.671971,171.0,0.0,4260.512695,4238.333496,4295.384766,4280.128418,4218.333496,4214.615234,4228.974121,4220.512695,4205.128418,4202.94873,4538.205078,4529.487305,4460.384766,4457.307617,3066.0,2.0,35.0,,,,0.0,4.0,4.0,4.0,4.0,4.0,4.0,4.0,4.0,4.0,4.0,4.0,4.0,4.0,4.0,100.0,,,,,,,,,,,,,,,,,,,,,,,,,,,,,,,,,,,,,,,,,,,,,,,,,,,,,,,,,,,,,,,,,,,,,,,,,,,,,,,,,,,,,,,,,,,,,,,,,,,,,,,,,,,,,,,,,,,,,,,,,,,,,,,,,,,
1725618235.673951,1725618235.675775,172.0,0.0,4255.256348,4236.794922,4295.0,4280.256348,4217.820313,4209.358887,4227.436035,4219.487305,4202.563965,4202.436035,4533.717773,4526.794922,4457.179688,4454.871582,3423.0,2.0,35.0,,,,0.0,4.0,4.0,4.0,4.0,4.0,4.0,4.0,4.0,4.0,4.0,4.0,4.0,4.0,4.0,100.0,,,,,,,,,,,,,,,,,,,,,,,,,,,,,,,,,,,,,,,,,,,,,,,,,,,,,,,,,,,,,,,,,,,,,,,,,,,,,,,,,,,,,,,,,,,,,,,,,,,,,,,,,,,,,,,,,,,,,,,,,,,,,,,,,,,
1725618235.677855,1725618235.679679,173.0,0.0,4248.974121,4235.0,4293.589844,4279.615234,4214.358887,4204.230957,4222.94873,4217.179688,4200.641113,4200.897461,4529.102539,4524.102539,4454.487305,4449.871582,3889.0,2.0,35.0,,,,0.0,4.0,4.0,4.0,4.0,4.0,4.0,4.0,4.0,4.0,4.0,4.0,4.0,4.0,4.0,100.0,,,,,,,,,,,,,,,,,,,,,,,,,,,,,,,,,,,,,,,,,,,,,,,,,,,,,,,,,,,,,,,,,,,,,,,,,,,,,,,,,,,,,,,,,,,,,,,,,,,,,,,,,,,,,,,,,,,,,,,,,,,,,,,,,,,
1725618235.681759,1725618235.683583,174.0,0.0,4245.769043,4234.102539,4292.307617,4278.717773,4211.666504,4203.333496,4218.461426,4215.256348,4200.128418,4199.358887,4528.333496,4522.692383,4453.846191,4446.025879,2894.0,2.0,35.0,,,,0.0,4.0,4.0,4.0,4.0,4.0,4.0,4.0,4.0,4.0,4.0,4.0,4.0,4.0,4.0,100.0,,,,,,,,,,,,,,,,,,,,,,,,,,,,,,,,,,,,,,,,,,,,,,,,,,,,,,,,,,,,,,,,,,,,,,,,,,,,,,,,,,,,,,,,,,,,,,,,,,,,,,,,,,,,,,,,,,,,,,,,,,,,,,,,,,,
1725618235.685663,1725618235.687587,175.0,0.0,4247.436035,4234.102539,4291.666504,4278.333496,4212.179688,4207.179688,4216.666504,4214.615234,4201.025879,4198.974121,4532.563965,4522.179688,4455.897461,4446.153809,3066.0,2.0,35.0,,,,0.0,4.0,4.0,4.0,4.0,4.0,4.0,4.0,4.0,4.0,4.0,4.0,4.0,4.0,4.0,100.0,,,,,,,,,,,,,,,,,,,,,,,,,,,,,,,,,,,,,,,,,,,,,,,,,,,,,,,,,,,,,,,,,,,,,,,,,,,,,,,,,,,,,,,,,,,,,,,,,,,,,,,,,,,,,,,,,,,,,,,,,,,,,,,,,,,
1725618235.689567,1725618235.691491,176.0,0.0,4252.692383,4234.487305,4291.666504,4278.846191,4215.384766,4213.205078,4217.94873,4215.256348,4201.794922,4199.871582,4538.333496,4521.794922,4459.102539,4450.256348,3423.0,2.0,35.0,,,,0.0,4.0,4.0,4.0,4.0,4.0,4.0,4.0,4.0,4.0,4.0,4.0,4.0,4.0,4.0,100.0,,,,,,,,,,,,,,,,,,,,,,,,,,,,,,,,,,,,,,,,,,,,,,,,,,,,,,,,,,,,,,,,,,,,,,,,,,,,,,,,,,,,,,,,,,,,,,,,,,,,,,,,,,,,,,,,,,,,,,,,,,,,,,,,,,,
1725618235.693471,1725618235.695396,177.0,0.0,4258.717773,4235.512695,4292.05127,4279.230957,4218.333496,4217.179688,4220.512695,4216.666504,4200.769043,4201.666504,4541.282227,4521.922852,4461.666504,4455.769043,3889.0,2.0,35.0,,,,0.0,4.0,4.0,4.0,4.0,4.0,4.0,4.0,4.0,4.0,4.0,4.0,4.0,4.0,4.0,100.0,,,,,,,,,,,,,,,,,,,,,,,,,,,,,,,,,,,,,,,,,,,,,,,,,,,,,,,,,,,,,,,,,,,,,,,,,,,,,,,,,,,,,,,,,,,,,,,,,,,,,,,,,,,,,,,,,,,,,,,,,,,,,,,,,,,
1725618235.697375,1725618235.6994,178.0,0.0,4262.820313,4237.692383,4293.205078,4279.102539,4218.717773,4217.05127,4221.922852,4219.230957,4198.333496,4202.94873,4540.128418,4523.461426,4462.307617,4459.743652,2894.0,2.0,35.0,,,,0.0,4.0,4.0,4.0,4.0,4.0,4.0,4.0,4.0,4.0,4.0,4.0,4.0,4.0,4.0,100.0,,,,,,,,,,,,,,,,,,,,,,,,,,,,,,,,,,,,,,,,,,,,,,,,,,,,,,,,0.0,0.0,1.0,0.0,1.0,0.0,,,,,,,,,,,,,,,,,,,,,,,,,,,,,,,,,,,,,,,,,,,,,,,,,,,,,,,,,,,,,,,,,,,,,,
1725618235.70128,1725618235.703304,179.0,0.0,4263.846191,4240.897461,4294.871582,4278.589844,4216.666504,4213.974121,4221.025879,4223.589844,4196.282227,4202.563965,4538.205078,4527.307617,4461.922852,4461.025879,3066.0,2.0,35.0,,,,0.0,4.0,4.0,4.0,4.0,4.0,4.0,4.0,4.0,4.0,4.0,4.0,4.0,4.0,4.0,100.0,,,,,,,,,,,,,,,,,,,,,,,,,,,,,,,,,,,,,,,,,,,,,,,,,,,,,,,,,,,,,,,,,,,,,,,,,,,,,,,,,,,,,,,,,,,,,,,,,,,,,,,,,,,,,,,,,,,,,,,,,,,,,,,,,,,
1725618235.705184,1725618235.707208,180.0,0.0,4262.820313,4243.974121,4296.410156,4278.333496,4214.358887,4211.153809,4219.230957,4228.846191,4196.538574,4201.410156,4539.487305,4533.077148,4462.692383,4460.897461,3423.0,2.0,35.0,,,,0.0,4.0,4.0,4.0,4.0,4.0,4.0,4.0,4.0,4.0,4.0,4.0,4.0,4.0,4.0,100.0,,,,,,,,,,,,,,,,,,,,,,,,,,,,,,,,,,,,,,,,,,,,,,,,,,,,,,,,,,,,,,,,,,,,,,,,,,,,,,,,,,,,,,,,,,,,,,,,,,,,,,,,,,,,,,,,,,,,,,,,,,,,,,,,,,,
1725618235.709088,1725618235.711112,181.0,0.0,4261.538574,4246.153809,4297.436035,4278.717773,4213.717773,4210.769043,4218.846191,4233.077148,4198.589844,4201.153809,4544.615234,4538.589844,4465.897461,4460.641113,3889.0,2.0,35.0,,,,0.0,4.0,4.0,4.0,4.0,4.0,4.0,4.0,4.0,4.0,4.0,4.0,4.0,4.0,4.0,100.0,,,,,,,,,,,,,,,,,,,,,,,,,,,,,,,,,,,,,,,,,,,,,,,,,,,,,,,,,,,,,,,,,,,,,,,,,,,,,,,,,,,,,,,,,,,,,,,,,,,,,,,,,,,,,,,,,,,,,,,,,,,,,,,,,,,
1725618235.712992,1725618235.715116,182.0,0.0,4261.794922,4246.794922,4297.563965,4279.743652,4214.487305,4213.077148,4220.256348,4234.102539,4200.897461,4203.461426,4550.512695,4541.410156,4470.512695,4461.025879,2894.0,2.0,35.0,,,,0.0,4.0,4.0,4.0,4.0,4.0,4.0,4.0,4.0,4.0,4.0,4.0,4.0,4.0,4.0,100.0,,,,,,,,,,,,,,,,,,,,,,,,,,,,,,,,,,,,,,,,,,,,,,,,,,,,,,,,,,,,,,,,,,,,,,,,,,,,,,,,,,,,,,,,,,,,,,,,,,,,,,,,,,,,,,,,,,,,,,,,,,,,,,,,,,,
1725618235.716896,1725618235.71902,183.0,0.0,4263.846191,4246.153809,4297.563965,4281.282227,4215.641113,4215.769043,4222.179688,4231.922852,4201.922852,4208.205078,4553.077148,4541.025879,4474.487305,4461.538574,3066.0,2.0,35.0,,,,0.0,4.0,4.0,4.0,4.0,4.0,4.0,4.0,4.0,4.0,4.0,4.0,4.0,4.0,4.0,100.0,,,,,,,,,,,,,,,,,,,,,,,,,,,,,,,,,,,,,,,,,,,,,,,,,,,,,,,,,,,,,,,,,,,,,,,,,,,,,,,,,,,,,,,,,,,,,,,,,,,,,,,,,,,,,,,,,,,,,,,,,,,,,,,,,,,
1725618235.7208,1725618235.722924,184.0,0.0,4266.153809,4245.128418,4298.077148,4282.436035,4216.794922,4216.922852,4222.563965,4229.358887,4202.179688,4213.461426,4550.641113,4539.487305,4476.025879,4461.666504,3423.0,2.0,35.0,,,,0.0,4.0,4.0,4.0,4.0,4.0,4.0,4.0,4.0,4.0,4.0,4.0,4.0,4.0,4.0,100.0,,,,,,,,,,,,,,,,,,,,,,,,,,,,,,,,,,,,,,,,,,,,,,,,,,,,,,,,,,,,,,,,,,,,,,,,,,,,,,,,,,,,,,,,,,,,,,,,,,,,,,,,,,,,,,,,,,,,,,,,,,,,,,,,,,,
1725618235.724704,1725618235.726828,185.0,0.0,4266.153809,4244.230957,4298.589844,4282.820313,4217.563965,4216.025879,4221.282227,4229.102539,4202.94873,4215.897461,4544.743652,4539.102539,4474.230957,4461.666504,3889.0,2.0,35.0,,,,0.0,4.0,4.0,4.0,4.0,4.0,4.0,4.0,4.0,4.0,4.0,4.0,4.0,4.0,4.0,100.0,,,,,,,,,,,,,,,,,,,,,,,,,,,,,,,,,,,,,,,,,,,,,,,,,,,,,,,,,,,,,,,,,,,,,,,,,,,,,,,,,,,,,,,,,,,,,,,,,,,,,,,,,,,,,,,,,,,,,,,,,,,,,,,,,,,
1725618235.728608,1725618235.730832,186.0,0.0,4262.179688,4242.820313,4298.333496,4282.05127,4217.820313,4214.358887,4219.102539,4231.153809,4203.846191,4213.461426,4539.102539,4539.615234,4470.0,4461.153809,2894.0,2.0,35.0,,,,0.0,4.0,4.0,4.0,4.0,4.0,4.0,4.0,4.0,4.0,4.0,4.0,4.0,4.0,4.0,100.0,,,,,,,,,,,,,,,,,,,,,,,,,,,,,,,,,,,,,,,,,,,,,,,,,,,,,,,,0.0,0.0,1.0,0.0,1.0,0.0,,,,,,,,,,,,,,,,,,,,,,,,,,,,,,,,,,,,,,,,,,,,,,,,,,,,,,,,,,,,,,,,,,,,,,
1725618235.732512,1725618235.734736,187.0,0.0,4255.384766,4239.743652,4296.794922,4280.256348,4217.307617,4213.461426,4217.179688,4233.205078,4203.846191,4207.179688,4536.025879,4538.205078,4464.871582,4460.128418,3066.0,2.0,35.0,,,,0.0,4.0,4.0,4.0,4.0,4.0,4.0,4.0,4.0,4.0,4.0,4.0,4.0,4.0,4.0,100.0,,,,,,,,,,,,,,,,,,,,,,,,,,,,,,,,,,,,,,,,,,,,,,,,,,,,,,,,,,,,,,,,,,,,,,,,,,,,,,,,,,,,,,,,,,,,,,,,,,,,,,,,,,,,,,,,,,,,,,,,,,,,,,,,,,,
1725618235.736416,1725618235.73864,188.0,0.0,4249.615234,4235.897461,4294.230957,4278.589844,4215.897461,4213.461426,4216.538574,4232.820313,4202.820313,4201.025879,4535.897461,4533.461426,4460.769043,4458.205078,3423.0,2.0,35.0,,,,0.0,4.0,4.0,4.0,4.0,4.0,4.0,4.0,4.0,4.0,4.0,4.0,4.0,4.0,4.0,100.0,,,,,,,,,,,,,,,,,,,,,,,,,,,,,,,,,,,,,,,,,,,,,,,,,,,,,,,,,,,,,,,,,,,,,,,,,,,,,,,,,,,,,,,,,,,,,,,,,,,,,,,,,,,,,,,,,,,,,,,,,,,,,,,,,,,
1725618235.740321,1725618235.742544,189.0,0.0,4248.077148,4233.333496,4292.05127,4278.205078,4213.974121,4213.205078,4217.563965,4230.769043,4202.05127,4199.358887,4537.05127,4528.077148,4460.0,4456.538574,3889.0,2.0,35.0,,,,0.0,4.0,4.0,4.0,4.0,4.0,4.0,4.0,4.0,4.0,4.0,4.0,4.0,4.0,4.0,100.0,,,,,,,,,,,,,,,,,,,,,,,,,,,,,,,,,,,,,,,,,,,,,,,,,,,,,,,,,,,,,,,,,,,,,,,,,,,,,,,,,,,,,,,,,,,,,,,,,,,,,,,,,,,,,,,,,,,,,,,,,,,,,,,,,,,
1725618235.744225,1725618235.746449,190.0,0.0,4251.538574,4234.487305,4291.538574,4278.974121,4212.94873,4212.692383,4219.743652,4229.358887,4203.205078,4203.077148,4538.205078,4526.153809,4462.820313,4456.153809,2894.0,2.0,35.0,,,,0.0,4.0,4.0,4.0,4.0,4.0,4.0,4.0,4.0,4.0,4.0,4.0,4.0,4.0,4.0,100.0,,,,,,,,,,,,,,,,,,,,,,,,,,,,,,,,,,,,,,,,,,,,,,,,,,,,,,,,,,,,,,,,,,,,,,,,,,,,,,,,,,,,,,,,,,,,,,,,,,,,,,,,,,,,,,,,,,,,,,,,,,,,,,,,,,,
1725618235.748129,1725618235.750253,191.0,0.0,4256.794922,4239.358887,4293.205078,4280.512695,4213.461426,4212.94873,4221.538574,4230.769043,4206.410156,4209.487305,4538.974121,4530.128418,4467.820313,4457.820313,3066.0,2.0,35.0,,,,0.0,4.0,4.0,4.0,4.0,4.0,4.0,4.0,4.0,4.0,4.0,4.0,4.0,4.0,4.0,100.0,,,,,,,,,,,,,,,,,,,,,,,,,,,,,,,,,,,,,,,,,,,,,,,,,,,,,,,,,,,,,,,,,,,,,,,,,,,,,,,,,,,,,,,,,,,,,,,,,,,,,,,,,,,,,,,,,,,,,,,,,,,,,,,,,,,
1725618235.752033,1725618235.754157,192.0,0.0,4259.871582,4245.512695,4296.025879,4281.922852,4215.641113,4214.871582,4221.794922,4233.846191,4210.128418,4215.128418,4539.102539,4537.307617,4471.922852,4460.512695,3423.0,2.0,35.0,,,,0.0,4.0,4.0,4.0,4.0,4.0,4.0,4.0,4.0,4.0,4.0,4.0,4.0,4.0,4.0,100.0,,,,,,,,,,,,,,,,,,,,,,,,,,,,,,,,,,,,,,,,,,,,,,,,,,,,,,,,,,,,,,,,,,,,,,,,,,,,,,,,,,,,,,,,,,,,,,,,,,,,,,,,,,,,,,,,,,,,,,,,,,,,,,,,,,,
1725618235.755937,1725618235.758061,193.0,0.0,4258.589844,4249.230957,4298.205078,4282.436035,4217.692383,4217.820313,4220.512695,4234.871582,4212.05127,4217.692383,4538.717773,4542.05127,4472.94873,4462.05127,3889.0,2.0,35.0,,,,0.0,4.0,4.0,4.0,4.0,4.0,4.0,4.0,4.0,4.0,4.0,4.0,4.0,4.0,4.0,100.0,,,,,,,,,,,,,,,,,,,,,,,,,,,,,,,,,,,,,,,,,,,,,,,,,,,,,,,,,,,,,,,,,,,,,,,,,,,,,,,,,,,,,,,,,,,,,,,,,,,,,,,,,,,,,,,,,,,,,,,,,,,,,,,,,,,
1725618235.759841,1725618235.761965,194.0,0.0,4253.846191,4248.077148,4298.077148,4281.666504,4217.307617,4218.974121,4218.846191,4231.538574,4210.897461,4216.794922,4537.94873,4540.256348,4470.128418,4460.641113,2894.0,2.0,35.0,,,,0.0,4.0,4.0,4.0,4.0,4.0,4.0,4.0,4.0,4.0,4.0,4.0,4.0,4.0,4.0,100.0,1.0,100.0,4.0,4.0,4.0,4.0,4.0,4.0,4.0,4.0,4.0,4.0,4.0,4.0,4.0,4.0,1.0,0.0,0.0,1.0,0.371766,-7.539844,-10.39919,-2.43768,1.0,0.527585,-0.585104,-1.073072,-0.028006,1.0,0.271771,2.930605,1.256274,7.417097,0.131963,1.0,0.37643,24.808709,-19.074118,91.062823,1.0,0.223424,0.122559,0.065913,0.250997,1.0,0.492088,3.08186,-16.819912,23.292561,1.0,0.351103,0.351103,0.0,1.0,0.0,0.0,1.0,0.0,1.0,0.0,3.755891,2.168828,0.843224,0.344636,0.102172,2.788011,1.542401,0.656702,0.268661,0.095749,2.958057,1.622653,0.62322,0.208185,0.079912,2.28293,1.190309,0.505509,0.264938,0.098548,0.465276,0.343221,0.367058,0.131601,0.063755,0.585765,0.497333,0.303612,0.067811,0.067304,0.526073,0.331185,0.231909,0.078144,0.037141,1.640806,0.703093,0.436542,0.377178,0.23653,1.593074,1.000252,0.575516,0.373224,0.062458,2.771377,1.294186,0.412586,0.432076,0.067799,3.306625,2.277752,0.714038,0.543642,0.137931,4.116323,3.119853,1.152762,0.753255,0.153026,3.600989,2.05392,0.732671,0.372144,0.102537,3.819483,2.469261,1.046475,0.46382,0.104798
1725618235.763745,1725618235.765769,195.0,0.0,4248.461426,4242.692383,4294.871582,4279.871582,4213.717773,4216.410156,4218.077148,4224.487305,4207.05127,4213.846191,4536.922852,4532.307617,4464.743652,4456.153809,3066.0,2.0,35.0,,,,0.0,4.0,4.0,4.0,4.0,4.0,4.0,4.0,4.0,4.0,4.0,4.0,4.0,4.0,4.0,100.0,,,,,,,,,,,,,,,,,,,,,,,,,,,,,,,,,,,,,,,,,,,,,,,,,,,,,,,,,,,,,,,,,,,,,,,,,,,,,,,,,,,,,,,,,,,,,,,,,,,,,,,,,,,,,,,,,,,,,,,,,,,,,,,,,,,
1725618235.767649,1725618235.769673,196.0,0.0,4244.871582,4236.153809,4289.358887,4277.563965,4208.461426,4210.641113,4218.333496,4217.692383,4202.820313,4211.282227,4535.769043,4523.205078,4459.358887,4450.384766,3423.0,2.0,35.0,,,,0.0,4.0,4.0,4.0,4.0,4.0,4.0,4.0,4.0,4.0,4.0,4.0,4.0,4.0,4.0,100.0,,,,,,,,,,,,,,,,,,,,,,,,,,,,,,,,,,,,,,,,,,,,,,,,,,,,,,,,,,,,,,,,,,,,,,,,,,,,,,,,,,,,,,,,,,,,,,,,,,,,,,,,,,,,,,,,,,,,,,,,,,,,,,,,,,,
1725618235.771553,1725618235.773578,197.0,0.0,4244.102539,4231.538574,4283.589844,4275.769043,4204.487305,4204.358887,4219.102539,4214.102539,4200.384766,4210.256348,4535.0,4518.077148,4456.153809,4445.512695,3889.0,2.0,35.0,,,,0.0,4.0,4.0,4.0,4.0,4.0,4.0,4.0,4.0,4.0,4.0,4.0,4.0,4.0,4.0,100.0,,,,,,,,,,,,,,,,,,,,,,,,,,,,,,,,,,,,,,,,,,,,,,,,,,,,,,,,,,,,,,,,,,,,,,,,,,,,,,,,,,,,,,,,,,,,,,,,,,,,,,,,,,,,,,,,,,,,,,,,,,,,,,,,,,,
1725618235.775458,1725618235.777482,198.0,0.0,4245.641113,4230.512695,4279.615234,4275.0,4203.974121,4201.282227,4219.743652,4214.487305,4200.512695,4210.512695,4535.0,4518.205078,4456.025879,4442.94873,2894.0,2.0,35.0,,,,0.0,4.0,4.0,4.0,4.0,4.0,4.0,4.0,4.0,4.0,4.0,4.0,4.0,4.0,4.0,100.0,,,,,,,,,,,,,,,,,,,,,,,,,,,,,,,,,,,,,,,,,,,,,,,,,,,,,,,,,,,,,,,,,,,,,,,,,,,,,,,,,,,,,,,,,,,,,,,,,,,,,,,,,,,,,,,,,,,,,,,,,,,,,,,,,,,
1725618235.779362,1725618235.781286,199.0,0.0,4248.077148,4232.05127,4278.461426,4275.897461,4207.179688,4203.077148,4220.256348,4216.794922,4201.922852,4210.897461,4535.897461,4521.410156,4458.461426,4442.820313,3066.0,2.0,35.0,,,,0.0,4.0,4.0,4.0,4.0,4.0,4.0,4.0,4.0,4.0,4.0,4.0,4.0,4.0,4.0,100.0,,,,,,,,,,,,,,,,,,,,,,,,,,,,,,,,,,,,,,,,,,,,,,,,,,,,,,,,,,,,,,,,,,,,,,,,,,,,,,,,,,,,,,,,,,,,,,,,,,,,,,,,,,,,,,,,,,,,,,,,,,,,,,,,,,,
1725618235.783266,1725618235.78519,200.0,0.0,4250.128418,4234.230957,4280.512695,4278.205078,4212.179688,4208.461426,4220.128418,4218.589844,4202.692383,4210.512695,4537.436035,4524.230957,4461.794922,4444.871582,3423.0,2.0,35.0,,,,0.0,4.0,4.0,4.0,4.0,4.0,4.0,4.0,4.0,4.0,4.0,4.0,4.0,4.0,4.0,100.0,,,,,,,,,,,,,,,,,,,,,,,,,,,,,,,,,,,,,,,,,,,,,,,,,,,,,,,,,,,,,,,,,,,,,,,,,,,,,,,,,,,,,,,,,,,,,,,,,,,,,,,,,,,,,,,,,,,,,,,,,,,,,,,,,,,
1725618235.78717,1725618235.789094,201.0,0.0,4250.897461,4235.641113,4284.615234,4280.512695,4216.282227,4213.846191,4219.102539,4219.487305,4202.05127,4209.743652,4538.589844,4525.512695,4464.615234,4448.717773,3889.0,2.0,35.0,,,,0.0,4.0,4.0,4.0,4.0,4.0,4.0,4.0,4.0,4.0,4.0,4.0,4.0,4.0,4.0,100.0,,,,,,,,,,,,,,,,,,,,,,,,,,,,,,,,,,,,,,,,,,,,,,,,,,,,,,,,,,,,,,,,,,,,,,,,,,,,,,,,,,,,,,,,,,,,,,,,,,,,,,,,,,,,,,,,,,,,,,,,,,,,,,,,,,,
1725618235.791074,1725618235.793098,202.0,0.0,4250.641113,4236.410156,4289.230957,4281.538574,4216.922852,4216.410156,4217.692383,4220.897461,4200.897461,4208.974121,4539.102539,4526.666504,4466.410156,4453.077148,2894.0,2.0,35.0,,,,0.0,4.0,4.0,4.0,4.0,4.0,4.0,4.0,4.0,4.0,4.0,4.0,4.0,4.0,4.0,100.0,,,,,,,,,,,,,,,,,,,,,,,,,,,,,,,,,,,,,,,,,,,,,,,,,,,,,,,,0.0,0.0,1.0,0.0,1.0,0.0,,,,,,,,,,,,,,,,,,,,,,,,,,,,,,,,,,,,,,,,,,,,,,,,,,,,,,,,,,,,,,,,,,,,,,
1725618235.794978,1725618235.797002,203.0,0.0,4250.0,4237.94873,4292.692383,4281.153809,4214.358887,4215.769043,4217.179688,4223.461426,4200.769043,4208.717773,4539.230957,4529.743652,4466.922852,4456.410156,3066.0,2.0,35.0,,,,0.0,4.0,4.0,4.0,4.0,4.0,4.0,4.0,4.0,4.0,4.0,4.0,4.0,4.0,4.0,100.0,,,,,,,,,,,,,,,,,,,,,,,,,,,,,,,,,,,,,,,,,,,,,,,,,,,,,,,,,,,,,,,,,,,,,,,,,,,,,,,,,,,,,,,,,,,,,,,,,,,,,,,,,,,,,,,,,,,,,,,,,,,,,,,,,,,
1725618235.798882,1725618235.800906,204.0,0.0,4249.615234,4241.153809,4294.230957,4280.512695,4211.025879,4213.974121,4218.974121,4226.410156,4202.05127,4209.358887,4539.358887,4534.871582,4466.153809,4457.692383,3423.0,2.0,35.0,,,,0.0,4.0,4.0,4.0,4.0,4.0,4.0,4.0,4.0,4.0,4.0,4.0,4.0,4.0,4.0,100.0,,,,,,,,,,,,,,,,,,,,,,,,,,,,,,,,,,,,,,,,,,,,,,,,,,,,,,,,,,,,,,,,,,,,,,,,,,,,,,,,,,,,,,,,,,,,,,,,,,,,,,,,,,,,,,,,,,,,,,,,,,,,,,,,,,,
1725618235.802786,1725618235.80491,205.0,0.0,4250.128418,4245.128418,4294.358887,4281.153809,4210.128418,4213.205078,4223.205078,4227.820313,4203.461426,4211.282227,4539.871582,4539.358887,4464.358887,4456.922852,3889.0,2.0,35.0,,,,0.0,4.0,4.0,4.0,4.0,4.0,4.0,4.0,4.0,4.0,4.0,4.0,4.0,4.0,4.0,100.0,,,,,,,,,,,,,,,,,,,,,,,,,,,,,,,,,,,,,,,,,,,,,,,,,,,,,,,,,,,,,,,,,,,,,,,,,,,,,,,,,,,,,,,,,,,,,,,,,,,,,,,,,,,,,,,,,,,,,,,,,,,,,,,,,,,
1725618235.80669,1725618235.808814,206.0,0.0,4251.666504,4247.179688,4294.102539,4283.333496,4212.692383,4214.487305,4228.205078,4227.692383,4203.717773,4214.487305,4540.384766,4540.641113,4462.05127,4455.384766,2894.0,2.0,35.0,,,,0.0,4.0,4.0,4.0,4.0,4.0,4.0,4.0,4.0,4.0,4.0,4.0,4.0,4.0,4.0,100.0,,,,,,,,,,,,,,,,,,,,,,,,,,,,,,,,,,,,,,,,,,,,,,,,,,,,,,,,,,,,,,,,,,,,,,,,,,,,,,,,,,,,,,,,,,,,,,,,,,,,,,,,,,,,,,,,,,,,,,,,,,,,,,,,,,,
1725618235.810594,1725618235.812718,207.0,0.0,4253.974121,4245.512695,4294.358887,4285.897461,4216.666504,4216.666504,4230.897461,4226.922852,4202.94873,4217.692383,4540.256348,4537.94873,4460.256348,4454.615234,3066.0,2.0,35.0,,,,0.0,4.0,4.0,4.0,4.0,4.0,4.0,4.0,4.0,4.0,4.0,4.0,4.0,4.0,4.0,100.0,,,,,,,,,,,,,,,,,,,,,,,,,,,,,,,,,,,,,,,,,,,,,,,,,,,,,,,,,,,,,,,,,,,,,,,,,,,,,,,,,,,,,,,,,,,,,,,,,,,,,,,,,,,,,,,,,,,,,,,,,,,,,,,,,,,
1725618235.814499,1725618235.816623,208.0,0.0,4255.128418,4240.641113,4294.871582,4287.179688,4218.333496,4217.94873,4229.230957,4227.179688,4202.436035,4218.461426,4539.358887,4532.563965,4460.0,4455.256348,3423.0,2.0,35.0,,,,0.0,4.0,4.0,4.0,4.0,4.0,4.0,4.0,4.0,4.0,4.0,4.0,4.0,4.0,4.0,100.0,,,,,,,,,,,,,,,,,,,,,,,,,,,,,,,,,,,,,,,,,,,,,,,,,,,,,,,,,,,,,,,,,,,,,,,,,,,,,,,,,,,,,,,,,,,,,,,,,,,,,,,,,,,,,,,,,,,,,,,,,,,,,,,,,,,
1725618235.818403,1725618235.820627,209.0,0.0,4254.102539,4235.256348,4294.615234,4286.153809,4215.512695,4217.307617,4223.717773,4228.077148,4202.820313,4215.0,4537.563965,4526.666504,4461.153809,4455.897461,3889.0,2.0,35.0,,,,0.0,4.0,4.0,4.0,4.0,4.0,4.0,4.0,4.0,4.0,4.0,4.0,4.0,4.0,4.0,100.0,,,,,,,,,,,,,,,,,,,,,,,,,,,,,,,,,,,,,,,,,,,,,,,,,,,,,,,,,,,,,,,,,,,,,,,,,,,,,,,,,,,,,,,,,,,,,,,,,,,,,,,,,,,,,,,,,,,,,,,,,,,,,,,,,,,
1725618235.822307,1725618235.824531,210.0,0.0,4251.025879,4232.179688,4293.205078,4283.333496,4209.358887,4215.512695,4217.692383,4227.692383,4203.717773,4208.846191,4535.641113,4522.563965,4462.307617,4454.871582,2894.0,2.0,35.0,,,,0.0,4.0,4.0,4.0,4.0,4.0,4.0,4.0,4.0,4.0,4.0,4.0,4.0,4.0,4.0,100.0,,,,,,,,,,,,,,,,,,,,,,,,,,,,,,,,,,,,,,,,,,,,,,,,,,,,,,,,0.0,0.0,1.0,0.0,1.0,0.0,,,,,,,,,,,,,,,,,,,,,,,,,,,,,,,,,,,,,,,,,,,,,,,,,,,,,,,,,,,,,,,,,,,,,,
1725618235.826211,1725618235.828435,211.0,0.0,4248.589844,4232.307617,4291.153809,4280.641113,4203.846191,4214.102539,4214.743652,4224.871582,4203.974121,4203.717773,4534.358887,4521.922852,4462.307617,4451.410156,3066.0,2.0,35.0,,,,0.0,4.0,4.0,4.0,4.0,4.0,4.0,4.0,4.0,4.0,4.0,4.0,4.0,4.0,4.0,100.0,,,,,,,,,,,,,,,,,,,,,,,,,,,,,,,,,,,,,,,,,,,,,,,,,,,,,,,,,,,,,,,,,,,,,,,,,,,,,,,,,,,,,,,,,,,,,,,,,,,,,,,,,,,,,,,,,,,,,,,,,,,,,,,,,,,
1725618235.830115,1725618235.832339,212.0,0.0,4248.589844,4234.487305,4289.615234,4280.0,4201.922852,4213.974121,4216.025879,4221.025879,4203.077148,4202.692383,4534.871582,4525.0,4461.025879,4447.179688,3423.0,2.0,35.0,,,,0.0,4.0,4.0,4.0,4.0,4.0,4.0,4.0,4.0,4.0,4.0,4.0,4.0,4.0,4.0,100.0,,,,,,,,,,,,,,,,,,,,,,,,,,,,,,,,,,,,,,,,,,,,,,,,,,,,,,,,,,,,,,,,,,,,,,,,,,,,,,,,,,,,,,,,,,,,,,,,,,,,,,,,,,,,,,,,,,,,,,,,,,,,,,,,,,,
1725618235.834019,1725618235.836343,213.0,0.0,4250.641113,4236.153809,4289.615234,4281.538574,4204.615234,4214.615234,4219.487305,4219.615234,4201.666504,4206.025879,4536.666504,4530.384766,4460.0,4445.128418,3889.0,2.0,35.0,,,,0.0,4.0,4.0,4.0,4.0,4.0,4.0,4.0,4.0,4.0,4.0,4.0,4.0,4.0,4.0,100.0,,,,,,,,,,,,,,,,,,,,,,,,,,,,,,,,,,,,,,,,,,,,,,,,,,,,,,,,,,,,,,,,,,,,,,,,,,,,,,,,,,,,,,,,,,,,,,,,,,,,,,,,,,,,,,,,,,,,,,,,,,,,,,,,,,,
1725618235.837923,1725618235.840247,214.0,0.0,4252.692383,4236.025879,4290.641113,4283.333496,4209.743652,4215.256348,4221.666504,4222.820313,4200.641113,4210.384766,4538.461426,4535.0,4460.256348,4447.307617,2894.0,2.0,35.0,,,,0.0,4.0,4.0,4.0,4.0,4.0,4.0,4.0,4.0,4.0,4.0,4.0,4.0,4.0,4.0,100.0,,,,,,,,,,,,,,,,,,,,,,,,,,,,,,,,,,,,,,,,,,,,,,,,,,,,,,,,,,,,,,,,,,,,,,,,,,,,,,,,,,,,,,,,,,,,,,,,,,,,,,,,,,,,,,,,,,,,,,,,,,,,,,,,,,,
1725618235.841827,1725618235.844151,215.0,0.0,4253.077148,4234.743652,4291.922852,4283.461426,4214.743652,4215.641113,4220.512695,4228.846191,4200.641113,4212.563965,4538.333496,4536.666504,4461.666504,4452.436035,3066.0,2.0,35.0,,,,0.0,4.0,4.0,4.0,4.0,4.0,4.0,4.0,4.0,4.0,4.0,4.0,4.0,4.0,4.0,100.0,,,,,,,,,,,,,,,,,,,,,,,,,,,,,,,,,,,,,,,,,,,,,,,,,,,,,,,,,,,,,,,,,,,,,,,,,,,,,,,,,,,,,,,,,,,,,,,,,,,,,,,,,,,,,,,,,,,,,,,,,,,,,,,,,,,
1725618235.845731,1725618235.848055,216.0,0.0,4252.563965,4233.974121,4292.692383,4282.05127,4217.307617,4215.769043,4217.94873,4233.205078,4201.666504,4211.666504,4536.282227,4534.871582,4463.717773,4457.179688,3423.0,2.0,35.0,,,,0.0,4.0,4.0,4.0,4.0,4.0,4.0,4.0,4.0,4.0,4.0,4.0,4.0,4.0,4.0,100.0,,,,,,,,,,,,,,,,,,,,,,,,,,,,,,,,,,,,,,,,,,,,,,,,,,,,,,,,,,,,,,,,,,,,,,,,,,,,,,,,,,,,,,,,,,,,,,,,,,,,,,,,,,,,,,,,,,,,,,,,,,,,,,,,,,,
1725618235.849635,1725618235.851959,217.0,0.0,4252.94873,4234.615234,4293.205078,4281.025879,4216.922852,4215.769043,4216.794922,4232.436035,4202.692383,4208.717773,4534.615234,4530.769043,4465.0,4458.589844,3889.0,2.0,35.0,,,,0.0,4.0,4.0,4.0,4.0,4.0,4.0,4.0,4.0,4.0,4.0,4.0,4.0,4.0,4.0,100.0,,,,,,,,,,,,,,,,,,,,,,,,,,,,,,,,,,,,,,,,,,,,,,,,,,,,,,,,,,,,,,,,,,,,,,,,,,,,,,,,,,,,,,,,,,,,,,,,,,,,,,,,,,,,,,,,,,,,,,,,,,,,,,,,,,,
1725618235.85354,1725618235.855763,218.0,0.0,4254.871582,4236.153809,4293.589844,4282.179688,4214.871582,4215.769043,4219.230957,4226.922852,4202.820313,4205.384766,4534.871582,4526.410156,4465.384766,4456.538574,2894.0,2.0,35.0,,,,0.0,4.0,4.0,4.0,4.0,4.0,4.0,4.0,4.0,4.0,4.0,4.0,4.0,4.0,4.0,100.0,,,,,,,,,,,,,,,,,,,,,,,,,,,,,,,,,,,,,,,,,,,,,,,,,,,,,,,,0.0,0.0,1.0,0.0,1.0,0.0,,,,,,,,,,,,,,,,,,,,,,,,,,,,,,,,,,,,,,,,,,,,,,,,,,,,,,,,,,,,,,,,,,,,,,
1725618235.857444,1725618235.859668,219.0,0.0,4256.922852,4237.307617,4293.717773,4285.256348,4213.589844,4215.769043,4223.717773,4220.384766,4201.666504,4202.94873,4536.538574,4523.717773,4465.0,4453.461426,3066.0,2.0,35.0,,,,0.0,4.0,4.0,4.0,4.0,4.0,4.0,4.0,4.0,4.0,4.0,4.0,4.0,4.0,4.0,100.0,,,,,,,,,,,,,,,,,,,,,,,,,,,,,,,,,,,,,,,,,,,,,,,,,,,,,,,,,,,,,,,,,,,,,,,,,,,,,,,,,,,,,,,,,,,,,,,,,,,,,,,,,,,,,,,,,,,,,,,,,,,,,,,,,,,
1725618235.861348,1725618235.863572,220.0,0.0,4257.436035,4237.05127,4293.077148,4288.589844,4214.230957,4215.641113,4227.05127,4216.282227,4199.615234,4201.922852,4537.05127,4523.205078,4464.102539,4452.307617,3423.0,2.0,35.0,,,,0.0,4.0,4.0,4.0,4.0,4.0,4.0,4.0,4.0,4.0,4.0,4.0,4.0,4.0,4.0,100.0,,,,,,,,,,,,,,,,,,,,,,,,,,,,,,,,,,,,,,,,,,,,,,,,,,,,,,,,,,,,,,,,,,,,,,,,,,,,,,,,,,,,,,,,,,,,,,,,,,,,,,,,,,,,,,,,,,,,,,,,,,,,,,,,,,,
1725618235.865252,1725618235.867476,221.0,0.0,4255.256348,4235.641113,4291.410156,4289.487305,4215.512695,4215.384766,4227.307617,4215.641113,4197.820313,4201.794922,4533.717773,4523.974121,4462.94873,4453.846191,3889.0,2.0,35.0,,,,0.0,4.0,4.0,4.0,4.0,4.0,4.0,4.0,4.0,4.0,4.0,4.0,4.0,4.0,4.0,100.0,,,,,,,,,,,,,,,,,,,,,,,,,,,,,,,,,,,,,,,,,,,,,,,,,,,,,,,,,,,,,,,,,,,,,,,,,,,,,,,,,,,,,,,,,,,,,,,,,,,,,,,,,,,,,,,,,,,,,,,,,,,,,,,,,,,
1725618235.869156,1725618235.87128,222.0,0.0,4251.666504,4234.230957,4288.974121,4287.307617,4215.256348,4215.0,4224.743652,4216.922852,4197.05127,4201.538574,4527.436035,4524.615234,4461.666504,4456.538574,2894.0,2.0,35.0,,,,0.0,4.0,4.0,4.0,4.0,4.0,4.0,4.0,4.0,4.0,4.0,4.0,4.0,4.0,4.0,100.0,,,,,,,,,,,,,,,,,,,,,,,,,,,,,,,,,,,,,,,,,,,,,,,,,,,,,,,,,,,,,,,,,,,,,,,,,,,,,,,,,,,,,,,,,,,,,,,,,,,,,,,,,,,,,,,,,,,,,,,,,,,,,,,,,,,
1725618235.87306,1725618235.875184,223.0,0.0,4249.102539,4233.589844,4285.897461,4283.333496,4212.05127,4214.615234,4221.666504,4217.436035,4197.436035,4201.153809,4522.179688,4524.230957,4460.769043,4458.205078,3066.0,2.0,35.0,,,,0.0,4.0,4.0,4.0,4.0,4.0,4.0,4.0,4.0,4.0,4.0,4.0,4.0,4.0,4.0,100.0,,,,,,,,,,,,,,,,,,,,,,,,,,,,,,,,,,,,,,,,,,,,,,,,,,,,,,,,,,,,,,,,,,,,,,,,,,,,,,,,,,,,,,,,,,,,,,,,,,,,,,,,,,,,,,,,,,,,,,,,,,,,,,,,,,,
1725618235.876964,1725618235.879088,224.0,0.0,4248.717773,4233.846191,4282.820313,4279.615234,4207.563965,4214.358887,4219.871582,4216.153809,4198.077148,4201.153809,4522.179688,4523.077148,4461.153809,4458.205078,3423.0,2.0,35.0,,,,0.0,4.0,4.0,4.0,4.0,4.0,4.0,4.0,4.0,4.0,4.0,4.0,4.0,4.0,4.0,100.0,,,,,,,,,,,,,,,,,,,,,,,,,,,,,,,,,,,,,,,,,,,,,,,,,,,,,,,,,,,,,,,,,,,,,,,,,,,,,,,,,,,,,,,,,,,,,,,,,,,,,,,,,,,,,,,,,,,,,,,,,,,,,,,,,,,
1725618235.880869,1725618235.882992,225.0,0.0,4250.128418,4234.615234,4281.025879,4277.820313,4204.487305,4214.743652,4219.487305,4214.358887,4198.077148,4202.179688,4528.077148,4522.436035,4462.94873,4457.563965,3889.0,2.0,35.0,,,,0.0,4.0,4.0,4.0,4.0,4.0,4.0,4.0,4.0,4.0,4.0,4.0,4.0,4.0,4.0,100.0,,,,,,,,,,,,,,,,,,,,,,,,,,,,,,,,,,,,,,,,,,,,,,,,,,,,,,,,,,,,,,,,,,,,,,,,,,,,,,,,,,,,,,,,,,,,,,,,,,,,,,,,,,,,,,,,,,,,,,,,,,,,,,,,,,,
1725618235.884773,1725618235.886797,226.0,0.0,4251.794922,4235.128418,4281.666504,4277.820313,4204.615234,4215.384766,4219.615234,4213.974121,4197.563965,4203.846191,4536.538574,4522.94873,4465.641113,4457.436035,2894.0,2.0,35.0,,,,0.0,4.0,4.0,4.0,4.0,4.0,4.0,4.0,4.0,4.0,4.0,4.0,4.0,4.0,4.0,100.0,,,,,,,,,,,,,,,,,1.0,0.0,0.0,,,,,,,,,,,,,,,,,,,,,,,,,,,,,,,,,,,,,0.0,0.0,1.0,0.0,1.0,0.0,3.548929,2.247672,0.94701,0.394926,0.097758,2.63776,1.693547,0.691816,0.320939,0.105301,2.696252,1.590607,0.669418,0.268252,0.074403,1.97229,1.322441,0.636193,0.318182,0.099997,0.392896,0.286444,0.336311,0.153143,0.054714,0.624824,0.542646,0.273881,0.079348,0.074948,0.519229,0.290864,0.213995,0.095861,0.035528,1.832525,0.857856,0.574274,0.402922,0.252676,1.657993,1.170421,0.615822,0.426776,0.07175,3.004082,1.772818,0.458109,0.467756,0.075554,3.532763,2.763121,0.952414,0.677592,0.14712,4.364603,3.784847,1.481251,0.826708,0.154351,3.661252,2.521027,0.81411,0.421758,0.097437,3.621911,2.748376,1.20535,0.53486,0.091691
1725618235.888677,1725618235.890701,227.0,0.0,4252.05127,4235.384766,4284.743652,4278.589844,4207.563965,4216.025879,4219.230957,4215.897461,4197.307617,4204.743652,4541.666504,4524.230957,4467.307617,4457.692383,3066.0,2.0,35.0,,,,0.0,4.0,4.0,4.0,4.0,4.0,4.0,4.0,4.0,4.0,4.0,4.0,4.0,4.0,4.0,100.0,,,,,,,,,,,,,,,,,,,,,,,,,,,,,,,,,,,,,,,,,,,,,,,,,,,,,,,,,,,,,,,,,,,,,,,,,,,,,,,,,,,,,,,,,,,,,,,,,,,,,,,,,,,,,,,,,,,,,,,,,,,,,,,,,,,
1725618235.892581,1725618235.894605,228.0,0.0,4250.512695,4235.128418,4288.461426,4279.102539,4211.025879,4216.410156,4218.717773,4218.846191,4197.820313,4203.974121,4539.615234,4525.384766,4466.282227,4456.794922,3423.0,2.0,35.0,,,,0.0,4.0,4.0,4.0,4.0,4.0,4.0,4.0,4.0,4.0,4.0,4.0,4.0,4.0,4.0,100.0,,,,,,,,,,,,,,,,,,,,,,,,,,,,,,,,,,,,,,,,,,,,,,,,,,,,,,,,,,,,,,,,,,,,,,,,,,,,,,,,,,,,,,,,,,,,,,,,,,,,,,,,,,,,,,,,,,,,,,,,,,,,,,,,,,,
1725618235.896485,1725618235.898409,229.0,0.0,4248.333496,4234.358887,4290.128418,4278.846191,4212.692383,4216.538574,4218.461426,4220.897461,4198.461426,4202.179688,4531.282227,4525.512695,4462.179688,4453.461426,3889.0,2.0,35.0,,,,0.0,4.0,4.0,4.0,4.0,4.0,4.0,4.0,4.0,4.0,4.0,4.0,4.0,4.0,4.0,100.0,,,,,,,,,,,,,,,,,,,,,,,,,,,,,,,,,,,,,,,,,,,,,,,,,,,,,,,,,,,,,,,,,,,,,,,,,,,,,,,,,,,,,,,,,,,,,,,,,,,,,,,,,,,,,,,,,,,,,,,,,,,,,,,,,,,
1725618235.900389,1725618235.902313,230.0,0.0,4246.922852,4233.333496,4288.717773,4278.077148,4211.538574,4216.282227,4218.717773,4220.641113,4198.333496,4200.512695,4522.307617,4525.0,4457.436035,4448.461426,2894.0,2.0,35.0,,,,0.0,4.0,4.0,4.0,4.0,4.0,4.0,4.0,4.0,4.0,4.0,4.0,4.0,4.0,4.0,100.0,,,,,,,,,,,,,,,,,,,,,,,,,,,,,,,,,,,,,,,,,,,,,,,,,,,,,,,,,,,,,,,,,,,,,,,,,,,,,,,,,,,,,,,,,,,,,,,,,,,,,,,,,,,,,,,,,,,,,,,,,,,,,,,,,,,
1725618235.904293,1725618235.906217,231.0,0.0,4246.922852,4232.307617,4285.256348,4277.563965,4207.94873,4215.641113,4218.846191,4218.205078,4197.05127,4199.871582,4518.846191,4524.358887,4455.384766,4444.487305,3066.0,2.0,35.0,,,,0.0,4.0,4.0,4.0,4.0,4.0,4.0,4.0,4.0,4.0,4.0,4.0,4.0,4.0,4.0,100.0,,,,,,,,,,,,,,,,,,,,,,,,,,,,,,,,,,,,,,,,,,,,,,,,,,,,,,,,,,,,,,,,,,,,,,,,,,,,,,,,,,,,,,,,,,,,,,,,,,,,,,,,,,,,,,,,,,,,,,,,,,,,,,,,,,,
1725618235.908197,1725618235.910221,232.0,0.0,4248.077148,4231.922852,4282.436035,4277.692383,4203.205078,4214.743652,4218.461426,4215.128418,4195.512695,4200.0,4523.333496,4523.974121,4458.333496,4444.615234,3423.0,2.0,35.0,,,,0.0,4.0,4.0,4.0,4.0,4.0,4.0,4.0,4.0,4.0,4.0,4.0,4.0,4.0,4.0,100.0,,,,,,,,,,,,,,,,,,,,,,,,,,,,,,,,,,,,,,,,,,,,,,,,,,,,,,,,,,,,,,,,,,,,,,,,,,,,,,,,,,,,,,,,,,,,,,,,,,,,,,,,,,,,,,,,,,,,,,,,,,,,,,,,,,,
1725618235.912101,1725618235.914125,233.0,0.0,4249.230957,4232.05127,4282.820313,4278.205078,4199.743652,4214.102539,4217.94873,4212.94873,4194.743652,4200.512695,4532.692383,4523.846191,4465.512695,4449.102539,3889.0,2.0,35.0,,,,0.0,4.0,4.0,4.0,4.0,4.0,4.0,4.0,4.0,4.0,4.0,4.0,4.0,4.0,4.0,100.0,,,,,,,,,,,,,,,,,,,,,,,,,,,,,,,,,,,,,,,,,,,,,,,,,,,,,,,,,,,,,,,,,,,,,,,,,,,,,,,,,,,,,,,,,,,,,,,,,,,,,,,,,,,,,,,,,,,,,,,,,,,,,,,,,,,
1725618235.916005,1725618235.918029,234.0,0.0,4250.256348,4232.563965,4286.666504,4278.717773,4198.974121,4214.487305,4218.461426,4212.692383,4195.384766,4201.153809,4540.769043,4524.615234,4473.077148,4455.512695,2894.0,2.0,35.0,,,,0.0,4.0,4.0,4.0,4.0,4.0,4.0,4.0,4.0,4.0,4.0,4.0,4.0,4.0,4.0,100.0,,,,,,,,,,,,,,,,,,,,,,,,,,,,,,,,,,,,,,,,,,,,,,,,,,,,,,,,0.0,0.0,1.0,0.0,1.0,0.0,,,,,,,,,,,,,,,,,,,,,,,,,,,,,,,,,,,,,,,,,,,,,,,,,,,,,,,,,,,,,,,,,,,,,,
1725618235.91991,1725618235.921933,235.0,0.0,4251.282227,4233.333496,4292.307617,4278.974121,4201.410156,4215.641113,4221.282227,4214.230957,4197.179688,4201.666504,4543.205078,4526.282227,4477.179688,4460.641113,3066.0,2.0,35.0,,,,0.0,4.0,4.0,4.0,4.0,4.0,4.0,4.0,4.0,4.0,4.0,4.0,4.0,4.0,4.0,100.0,,,,,,,,,,,,,,,,,,,,,,,,,,,,,,,,,,,,,,,,,,,,,,,,,,,,,,,,,,,,,,,,,,,,,,,,,,,,,,,,,,,,,,,,,,,,,,,,,,,,,,,,,,,,,,,,,,,,,,,,,,,,,,,,,,,
1725618235.923814,1725618235.925937,236.0,0.0,4252.307617,4233.717773,4296.666504,4279.102539,4205.897461,4217.307617,4225.769043,4216.282227,4199.102539,4201.794922,4540.128418,4527.692383,4475.769043,4462.307617,3423.0,2.0,35.0,,,,0.0,4.0,4.0,4.0,4.0,4.0,4.0,4.0,4.0,4.0,4.0,4.0,4.0,4.0,4.0,100.0,,,,,,,,,,,,,,,,,,,,,,,,,,,,,,,,,,,,,,,,,,,,,,,,,,,,,,,,,,,,,,,,,,,,,,,,,,,,,,,,,,,,,,,,,,,,,,,,,,,,,,,,,,,,,,,,,,,,,,,,,,,,,,,,,,,
1725618235.927718,1725618235.929842,237.0,0.0,4252.692383,4233.717773,4297.692383,4279.102539,4210.512695,4218.333496,4230.256348,4217.436035,4200.384766,4201.153809,4535.256348,4528.333496,4470.512695,4460.897461,3889.0,2.0,35.0,,,,0.0,4.0,4.0,4.0,4.0,4.0,4.0,4.0,4.0,4.0,4.0,4.0,4.0,4.0,4.0,100.0,,,,,,,,,,,,,,,,,,,,,,,,,,,,,,,,,,,,,,,,,,,,,,,,,,,,,,,,,,,,,,,,,,,,,,,,,,,,,,,,,,,,,,,,,,,,,,,,,,,,,,,,,,,,,,,,,,,,,,,,,,,,,,,,,,,
1725618235.931622,1725618235.933746,238.0,0.0,4251.538574,4233.333496,4295.384766,4279.102539,4213.846191,4218.333496,4232.692383,4217.436035,4200.512695,4200.256348,4532.563965,4527.820313,4464.871582,4458.077148,2894.0,2.0,35.0,,,,0.0,4.0,4.0,4.0,4.0,4.0,4.0,4.0,4.0,4.0,4.0,4.0,4.0,4.0,4.0,100.0,,,,,,,,,,,,,,,,,,,,,,,,,,,,,,,,,,,,,,,,,,,,,,,,,,,,,,,,,,,,,,,,,,,,,,,,,,,,,,,,,,,,,,,,,,,,,,,,,,,,,,,,,,,,,,,,,,,,,,,,,,,,,,,,,,,
1725618235.935526,1725618235.93765,239.0,0.0,4249.615234,4232.94873,4291.410156,4278.846191,4215.384766,4217.563965,4232.692383,4217.05127,4199.871582,4199.743652,4533.461426,4527.179688,4461.538574,4456.153809,3066.0,2.0,35.0,,,,0.0,4.0,4.0,4.0,4.0,4.0,4.0,4.0,4.0,4.0,4.0,4.0,4.0,4.0,4.0,100.0,,,,,,,,,,,,,,,,,,,,,,,,,,,,,,,,,,,,,,,,,,,,,,,,,,,,,,,,,,,,,,,,,,,,,,,,,,,,,,,,,,,,,,,,,,,,,,,,,,,,,,,,,,,,,,,,,,,,,,,,,,,,,,,,,,,
1725618235.93943,1725618235.941654,240.0,0.0,4248.077148,4232.692383,4288.205078,4278.717773,4215.512695,4216.538574,4231.282227,4217.179688,4199.358887,4199.743652,4537.05127,4527.05127,4461.025879,4456.025879,3423.0,2.0,35.0,,,,0.0,4.0,4.0,4.0,4.0,4.0,4.0,4.0,4.0,4.0,4.0,4.0,4.0,4.0,4.0,100.0,,,,,,,,,,,,,,,,,,,,,,,,,,,,,,,,,,,,,,,,,,,,,,,,,,,,,,,,,,,,,,,,,,,,,,,,,,,,,,,,,,,,,,,,,,,,,,,,,,,,,,,,,,,,,,,,,,,,,,,,,,,,,,,,,,,
1725618235.943334,1725618235.945558,241.0,0.0,4247.692383,4232.820313,4287.563965,4278.846191,4214.487305,4216.153809,4229.871582,4218.461426,4199.487305,4200.128418,4540.384766,4527.307617,4462.436035,4457.692383,3889.0,2.0,35.0,,,,0.0,4.0,4.0,4.0,4.0,4.0,4.0,4.0,4.0,4.0,4.0,4.0,4.0,4.0,4.0,100.0,,,,,,,,,,,,,,,,,,,,,,,,,,,,,,,,,,,,,,,,,,,,,,,,,,,,,,,,,,,,,,,,,,,,,,,,,,,,,,,,,,,,,,,,,,,,,,,,,,,,,,,,,,,,,,,,,,,,,,,,,,,,,,,,,,,
1725618235.947238,1725618235.949462,242.0,0.0,4248.461426,4233.461426,4289.102539,4278.974121,4213.461426,4216.538574,4229.871582,4220.128418,4199.871582,4200.769043,4540.769043,4527.692383,4463.974121,4459.743652,2894.0,2.0,35.0,,,,0.0,4.0,4.0,4.0,4.0,4.0,4.0,4.0,4.0,4.0,4.0,4.0,4.0,4.0,4.0,100.0,,,,,,,,,,,,,,,,,,,,,,,,,,,,,,,,,,,,,,,,,,,,,,,,,,,,,,,,0.0,0.0,1.0,0.0,1.0,0.0,,,,,,,,,,,,,,,,,,,,,,,,,,,,,,,,,,,,,,,,,,,,,,,,,,,,,,,,,,,,,,,,,,,,,,
1725618235.951142,1725618235.953366,243.0,0.0,4249.358887,4234.230957,4291.282227,4279.102539,4213.589844,4216.922852,4230.897461,4220.641113,4200.128418,4201.538574,4537.820313,4527.307617,4464.487305,4460.641113,3066.0,2.0,35.0,,,,0.0,4.0,4.0,4.0,4.0,4.0,4.0,4.0,4.0,4.0,4.0,4.0,4.0,4.0,4.0,100.0,,,,,,,,,,,,,,,,,,,,,,,,,,,,,,,,,,,,,,,,,,,,,,,,,,,,,,,,,,,,,,,,,,,,,,,,,,,,,,,,,,,,,,,,,,,,,,,,,,,,,,,,,,,,,,,,,,,,,,,,,,,,,,,,,,,
1725618235.955047,1725618235.95727,244.0,0.0,4249.743652,4234.743652,4292.436035,4278.974121,4214.871582,4216.666504,4232.179688,4219.487305,4200.128418,4202.307617,4532.563965,4526.153809,4463.846191,4459.358887,3423.0,2.0,35.0,,,,0.0,4.0,4.0,4.0,4.0,4.0,4.0,4.0,4.0,4.0,4.0,4.0,4.0,4.0,4.0,100.0,,,,,,,,,,,,,,,,,,,,,,,,,,,,,,,,,,,,,,,,,,,,,,,,,,,,,,,,,,,,,,,,,,,,,,,,,,,,,,,,,,,,,,,,,,,,,,,,,,,,,,,,,,,,,,,,,,,,,,,,,,,,,,,,,,,
1725618235.958951,1725618235.961074,245.0,0.0,4249.230957,4234.615234,4291.666504,4278.974121,4216.538574,4215.897461,4232.94873,4217.692383,4200.0,4202.820313,4527.179688,4523.974121,4462.436035,4455.512695,3889.0,2.0,35.0,,,,0.0,4.0,4.0,4.0,4.0,4.0,4.0,4.0,4.0,4.0,4.0,4.0,4.0,4.0,4.0,100.0,,,,,,,,,,,,,,,,,,,,,,,,,,,,,,,,,,,,,,,,,,,,,,,,,,,,,,,,,,,,,,,,,,,,,,,,,,,,,,,,,,,,,,,,,,,,,,,,,,,,,,,,,,,,,,,,,,,,,,,,,,,,,,,,,,,
1725618235.962855,1725618235.964979,246.0,0.0,4247.820313,4234.230957,4289.230957,4278.846191,4217.436035,4215.0,4233.077148,4216.794922,4200.256348,4203.077148,4523.461426,4521.282227,4460.897461,4450.256348,2894.0,2.0,35.0,,,,0.0,4.0,4.0,4.0,4.0,4.0,4.0,4.0,4.0,4.0,4.0,4.0,4.0,4.0,4.0,100.0,,,,,,,,,,,,,,,,,,,,,,,,,,,,,,,,,,,,,,,,,,,,,,,,,,,,,,,,,,,,,,,,,,,,,,,,,,,,,,,,,,,,,,,,,,,,,,,,,,,,,,,,,,,,,,,,,,,,,,,,,,,,,,,,,,,
1725618235.966759,1725618235.968883,247.0,0.0,4246.282227,4233.974121,4286.025879,4278.717773,4216.922852,4214.487305,4232.820313,4217.307617,4201.410156,4203.461426,4521.922852,4518.974121,4459.871582,4445.384766,3066.0,2.0,35.0,,,,0.0,4.0,4.0,4.0,4.0,4.0,4.0,4.0,4.0,4.0,4.0,4.0,4.0,4.0,4.0,100.0,,,,,,,,,,,,,,,,,,,,,,,,,,,,,,,,,,,,,,,,,,,,,,,,,,,,,,,,,,,,,,,,,,,,,,,,,,,,,,,,,,,,,,,,,,,,,,,,,,,,,,,,,,,,,,,,,,,,,,,,,,,,,,,,,,,
1725618235.970663,1725618235.972787,248.0,0.0,4245.384766,4234.102539,4283.846191,4278.461426,4216.153809,4214.871582,4233.077148,4218.333496,4202.820313,4204.487305,4522.692383,4518.077148,4459.871582,4442.307617,3423.0,2.0,35.0,,,,0.0,4.0,4.0,4.0,4.0,4.0,4.0,4.0,4.0,4.0,4.0,4.0,4.0,4.0,4.0,100.0,,,,,,,,,,,,,,,,,,,,,,,,,,,,,,,,,,,,,,,,,,,,,,,,,,,,,,,,,,,,,,,,,,,,,,,,,,,,,,,,,,,,,,,,,,,,,,,,,,,,,,,,,,,,,,,,,,,,,,,,,,,,,,,,,,,
1725618235.974567,1725618235.976591,249.0,0.0,4246.025879,4234.487305,4284.230957,4278.205078,4216.153809,4215.769043,4233.846191,4218.717773,4203.461426,4205.897461,4524.871582,4518.974121,4460.769043,4441.794922,3889.0,2.0,35.0,,,,0.0,4.0,4.0,4.0,4.0,4.0,4.0,4.0,4.0,4.0,4.0,4.0,4.0,4.0,4.0,100.0,,,,,,,,,,,,,,,,,,,,,,,,,,,,,,,,,,,,,,,,,,,,,,,,,,,,,,,,,,,,,,,,,,,,,,,,,,,,,,,,,,,,,,,,,,,,,,,,,,,,,,,,,,,,,,,,,,,,,,,,,,,,,,,,,,,
1725618235.978471,1725618235.980495,250.0,0.0,4247.563965,4234.615234,4287.179688,4278.333496,4216.922852,4216.922852,4234.743652,4218.461426,4202.436035,4205.897461,4526.410156,4521.153809,4462.179688,4443.333496,2894.0,2.0,35.0,,,,0.0,4.0,4.0,4.0,4.0,4.0,4.0,4.0,4.0,4.0,4.0,4.0,4.0,4.0,4.0,100.0,,,,,,,,,,,,,,,,,,,,,,,,,,,,,,,,,,,,,,,,,,,,,,,,,,,,,,,,0.0,0.0,1.0,0.0,1.0,0.0,,,,,,,,,,,,,,,,,,,,,,,,,,,,,,,,,,,,,,,,,,,,,,,,,,,,,,,,,,,,,,,,,,,,,,
1725618235.982375,1725618235.984399,251.0,0.0,4249.102539,4234.487305,4291.282227,4278.846191,4217.94873,4217.692383,4235.512695,4218.589844,4200.769043,4203.589844,4526.153809,4523.205078,4463.461426,4445.897461,3066.0,2.0,35.0,,,,0.0,4.0,4.0,4.0,4.0,4.0,4.0,4.0,4.0,4.0,4.0,4.0,4.0,4.0,4.0,100.0,,,,,,,,,,,,,,,,,,,,,,,,,,,,,,,,,,,,,,,,,,,,,,,,,,,,,,,,,,,,,,,,,,,,,,,,,,,,,,,,,,,,,,,,,,,,,,,,,,,,,,,,,,,,,,,,,,,,,,,,,,,,,,,,,,,
1725618235.986279,1725618235.988303,252.0,0.0,4249.871582,4234.230957,4294.230957,4280.256348,4218.077148,4218.077148,4235.897461,4220.384766,4200.256348,4199.871582,4525.256348,4524.358887,4464.102539,4448.461426,3423.0,2.0,35.0,,,,0.0,4.0,4.0,4.0,4.0,4.0,4.0,4.0,4.0,4.0,4.0,4.0,4.0,4.0,4.0,100.0,,,,,,,,,,,,,,,,,,,,,,,,,,,,,,,,,,,,,,,,,,,,,,,,,,,,,,,,,,,,,,,,,,,,,,,,,,,,,,,,,,,,,,,,,,,,,,,,,,,,,,,,,,,,,,,,,,,,,,,,,,,,,,,,,,,
1725618235.990183,1725618235.992107,253.0,0.0,4250.384766,4234.230957,4294.743652,4282.05127,4217.692383,4217.820313,4236.025879,4224.615234,4202.307617,4197.692383,4525.512695,4524.615234,4463.846191,4451.025879,3889.0,2.0,35.0,,,,0.0,4.0,4.0,4.0,4.0,4.0,4.0,4.0,4.0,4.0,4.0,4.0,4.0,4.0,4.0,100.0,,,,,,,,,,,,,,,,,,,,,,,,,,,,,,,,,,,,,,,,,,,,,,,,,,,,,,,,,,,,,,,,,,,,,,,,,,,,,,,,,,,,,,,,,,,,,,,,,,,,,,,,,,,,,,,,,,,,,,,,,,,,,,,,,,,
1725618235.994088,1725618235.996012,254.0,0.0,4251.153809,4234.871582,4293.589844,4283.461426,4217.05127,4217.307617,4236.025879,4230.256348,4206.666504,4199.102539,4528.077148,4524.358887,4463.077148,4453.974121,2894.0,2.0,35.0,,,,0.0,4.0,4.0,4.0,4.0,4.0,4.0,4.0,4.0,4.0,4.0,4.0,4.0,4.0,4.0,100.0,,,,,,,,,,,,,,,,,,,,,,,,,,,,,,,,,,,,,,,,,,,,,,,,,,,,,,,,,,,,,,,,,,,,,,,,,,,,,,,,,,,,,,,,,,,,,,,,,,,,,,,,,,,,,,,,,,,,,,,,,,,,,,,,,,,
1725618235.997992,1725618235.999916,255.0,0.0,4252.307617,4235.512695,4292.820313,4283.589844,4216.410156,4216.666504,4236.153809,4234.358887,4210.769043,4204.102539,4531.538574,4524.615234,4462.307617,4457.179688,35.0,2.0,35.0,,,,0.0,4.0,4.0,4.0,4.0,4.0,4.0,4.0,4.0,4.0,4.0,4.0,4.0,4.0,4.0,100.0,,,,,,,,,,,,,,,,,,,,,,,,,,,,,,,,,,,,,,,,,,,,,,,,,,,,,,,,,,,,,,,,,,,,,,,,,,,,,,,,,,,,,,,,,,,,,,,,,,,,,,,,,,,,,,,,,,,,,,,,,,,,,,,,,,,
1725618236.001896,1725618236.00372,0.0,0.0,4253.589844,4236.153809,4293.717773,4282.820313,4216.025879,4216.410156,4236.538574,4234.743652,4212.563965,4210.128418,4533.846191,4525.384766,4462.05127,4460.0,2613.0,2.0,35.0,,,,0.0,4.0,4.0,4.0,4.0,4.0,4.0,4.0,4.0,4.0,4.0,4.0,4.0,4.0,4.0,100.0,,,,,,,,,,,,,,,,,,,,,,,,,,,,,,,,,,,,,,,,,,,,,,,,,,,,,,,,,,,,,,,,,,,,,,,,,,,,,,,,,,,,,,,,,,,,,,,,,,,,,,,,,,,,,,,,,,,,,,,,,,,,,,,,,,,
1725618236.0058,1725618236.007624,1.0,0.0,4254.230957,4236.538574,4295.384766,4282.563965,4216.666504,4216.666504,4236.666504,4230.897461,4211.153809,4213.461426,4533.974121,4526.666504,4462.820313,4461.025879,2571.0,2.0,35.0,,,,0.0,4.0,4.0,4.0,4.0,4.0,4.0,4.0,4.0,4.0,4.0,4.0,4.0,4.0,4.0,100.0,,,,,,,,,,,,,,,,,,,,,,,,,,,,,,,,,,,,,,,,,,,,,,,,,,,,,,,,,,,,,,,,,,,,,,,,,,,,,,,,,,,,,,,,,,,,,,,,,,,,,,,,,,,,,,,,,,,,,,,,,,,,,,,,,,,
1725618236.009704,1725618236.011528,2.0,0.0,4254.102539,4236.538574,4295.512695,4283.589844,4217.820313,4217.179688,4236.410156,4225.0,4207.307617,4212.05127,4532.179688,4527.307617,4463.461426,4459.743652,2451.0,2.0,35.0,,,,0.0,4.0,4.0,4.0,4.0,4.0,4.0,4.0,4.0,4.0,4.0,4.0,4.0,4.0,4.0,100.0,,,,,,,,,,,,,,,,,1.0,0.0,0.0,,,,,,,,,,,,,,,,,,,,,,,,,,,,,,,,,,,,,0.0,0.0,1.0,0.0,1.0,0.0,3.212674,2.237901,1.044714,0.461621,0.097909,2.475274,1.815026,0.725114,0.388148,0.116054,2.339899,1.573981,0.703981,0.334423,0.070157,1.67783,1.476421,0.764908,0.381749,0.107922,0.360676,0.257876,0.34281,0.184135,0.050355,0.649805,0.573769,0.251098,0.093096,0.087894,0.554253,0.262751,0.228354,0.116621,0.039945,1.943708,1.129136,0.699268,0.450754,0.276491,1.633695,1.383498,0.68834,0.50709,0.085853,3.104036,2.293311,0.570158,0.537359,0.090918,3.607086,3.307695,1.236099,0.859775,0.168572,4.435857,4.64931,1.788146,0.919574,0.161762,3.678022,3.122537,0.977602,0.503642,0.098737,3.396128,3.035053,1.353415,0.621657,0.083929
1725618236.013608,1725618236.015532,3.0,0.0,4252.820313,4235.641113,4292.820313,4284.871582,4218.333496,4217.692383,4235.512695,4219.358887,4202.179688,4206.025879,4528.846191,4526.282227,4462.307617,4455.897461,2464.0,2.0,35.0,,,,0.0,4.0,4.0,4.0,4.0,4.0,4.0,4.0,4.0,4.0,4.0,4.0,4.0,4.0,4.0,100.0,,,,,,,,,,,,,,,,,,,,,,,,,,,,,,,,,,,,,,,,,,,,,,,,,,,,,,,,,,,,,,,,,,,,,,,,,,,,,,,,,,,,,,,,,,,,,,,,,,,,,,,,,,,,,,,,,,,,,,,,,,,,,,,,,,,
1725618236.017512,1725618236.019436,4.0,0.0,4250.512695,4233.461426,4288.333496,4284.230957,4216.922852,4217.179688,4234.230957,4215.769043,4197.179688,4198.077148,4523.974121,4522.820313,4457.94873,4450.0,2426.0,2.0,35.0,,,,0.0,4.0,4.0,4.0,4.0,4.0,4.0,4.0,4.0,4.0,4.0,4.0,4.0,4.0,4.0,100.0,,,,,,,,,,,,,,,,,,,,,,,,,,,,,,,,,,,,,,,,,,,,,,,,,,,,,,,,,,,,,,,,,,,,,,,,,,,,,,,,,,,,,,,,,,,,,,,,,,,,,,,,,,,,,,,,,,,,,,,,,,,,,,,,,,,
1725618236.021416,1725618236.02334,5.0,0.0,4246.794922,4229.871582,4283.846191,4280.256348,4212.820313,4215.769043,4232.94873,4214.230957,4192.563965,4190.769043,4517.307617,4516.794922,4450.256348,4442.692383,2399.0,2.0,35.0,,,,0.0,4.0,4.0,4.0,4.0,4.0,4.0,4.0,4.0,4.0,4.0,4.0,4.0,4.0,4.0,100.0,,,,,,,,,,,,,,,,,,,,,,,,,,,,,,,,,,,,,,,,,,,,,,,,,,,,,,,,,,,,,,,,,,,,,,,,,,,,,,,,,,,,,,,,,,,,,,,,,,,,,,,,,,,,,,,,,,,,,,,,,,,,,,,,,,,
1725618236.02532,1725618236.027244,6.0,0.0,4242.436035,4225.769043,4280.641113,4273.461426,4207.307617,4214.230957,4231.666504,4213.589844,4188.717773,4185.897461,4509.230957,4509.358887,4441.282227,4435.641113,2177.0,2.0,35.0,,,,0.0,4.0,4.0,4.0,4.0,4.0,4.0,4.0,4.0,4.0,4.0,4.0,4.0,4.0,4.0,100.0,,,,,,,,,,,,,,,,,,,,,,,,,,,,,,,,,,,,,,,,,,,,,,,,,,,,,,,,,,,,,,,,,,,,,,,,,,,,,,,,,,,,,,,,,,,,,,,,,,,,,,,,,,,,,,,,,,,,,,,,,,,,,,,,,,,
1725618236.029225,1725618236.031248,7.0,0.0,4238.333496,4221.794922,4278.333496,4266.282227,4202.692383,4213.461426,4229.487305,4212.820313,4185.384766,4182.436035,4500.769043,4501.666504,4432.692383,4430.0,2493.0,2.0,35.0,,,,0.0,4.0,4.0,4.0,4.0,4.0,4.0,4.0,4.0,4.0,4.0,4.0,4.0,4.0,4.0,100.0,,,,,,,,,,,,,,,,,,,,,,,,,,,,,,,,,,,,,,,,,,,,,,,,,,,,,,,,,,,,,,,,,,,,,,,,,,,,,,,,,,,,,,,,,,,,,,,,,,,,,,,,,,,,,,,,,,,,,,,,,,,,,,,,,,,
1725618236.033129,1725618236.035152,8.0,0.0,4234.487305,4217.94873,4275.256348,4261.282227,4199.743652,4214.102539,4225.897461,4211.794922,4182.436035,4178.333496,4492.94873,4494.743652,4425.512695,4426.282227,2469.0,2.0,35.0,,,,0.0,4.0,4.0,4.0,4.0,4.0,4.0,4.0,4.0,4.0,4.0,4.0,4.0,4.0,4.0,100.0,,,,,,,,,,,,,,,,,,,,,,,,,,,,,,,,,,,,,,,,,,,,,,,,,,,,,,,,,,,,,,,,,,,,,,,,,,,,,,,,,,,,,,,,,,,,,,,,,,,,,,,,,,,,,,,,,,,,,,,,,,,,,,,,,,,
1725618236.037033,1725618236.039057,9.0,0.0,4230.512695,4213.589844,4270.641113,4258.974121,4198.205078,4215.641113,4220.897461,4211.922852,4180.128418,4172.692383,4487.05127,4490.0,4419.230957,4423.717773,2556.0,2.0,35.0,,,,0.0,4.0,4.0,4.0,4.0,4.0,4.0,4.0,4.0,4.0,4.0,4.0,4.0,4.0,4.0,100.0,,,,,,,,,,,,,,,,,,,,,,,,,,,,,,,,,,,,,,,,,,,,,,,,,,,,,,,,,,,,,,,,,,,,,,,,,,,,,,,,,,,,,,,,,,,,,,,,,,,,,,,,,,,,,,,,,,,,,,,,,,,,,,,,,,,
1725618236.040937,1725618236.042961,10.0,0.0,4226.410156,4209.358887,4265.641113,4258.717773,4196.922852,4216.922852,4216.153809,4214.743652,4179.487305,4166.922852,4485.0,4489.102539,4414.102539,4421.666504,2899.0,2.0,35.0,,,,0.0,4.0,4.0,4.0,4.0,4.0,4.0,4.0,4.0,4.0,4.0,4.0,4.0,4.0,4.0,100.0,,,,,,,,,,,,,,,,,,,,,,,,,,,,,,,,,,,,,,,,,,,,,,,,,,,,,,,,0.0,0.0,1.0,0.0,1.0,0.0,,,,,,,,,,,,,,,,,,,,,,,,,,,,,,,,,,,,,,,,,,,,,,,,,,,,,,,,,,,,,,,,,,,,,,
1725618236.044841,1725618236.046965,11.0,0.0,4223.717773,4206.538574,4263.205078,4259.358887,4196.025879,4217.05127,4213.846191,4221.282227,4181.922852,4164.743652,4488.589844,4493.589844,4411.922852,4420.897461,3066.0,2.0,35.0,,,,0.0,4.0,4.0,4.0,4.0,4.0,4.0,4.0,4.0,4.0,4.0,4.0,4.0,4.0,4.0,100.0,,,,,,,,,,,,,,,,,,,,,,,,,,,,,,,,,,,,,,,,,,,,,,,,,,,,,,,,,,,,,,,,,,,,,,,,,,,,,,,,,,,,,,,,,,,,,,,,,,,,,,,,,,,,,,,,,,,,,,,,,,,,,,,,,,,
1725618236.048745,1725618236.050869,12.0,0.0,4224.487305,4207.179688,4266.153809,4261.410156,4196.410156,4216.538574,4215.769043,4231.794922,4188.077148,4169.102539,4498.077148,4503.974121,4415.256348,4423.333496,3416.0,2.0,35.0,,,,0.0,4.0,4.0,4.0,4.0,4.0,4.0,4.0,4.0,4.0,4.0,4.0,4.0,4.0,4.0,100.0,,,,,,,,,,,,,,,,,,,,,,,,,,,,,,,,,,,,,,,,,,,,,,,,,,,,,,,,,,,,,,,,,,,,,,,,,,,,,,,,,,,,,,,,,,,,,,,,,,,,,,,,,,,,,,,,,,,,,,,,,,,,,,,,,,,
1725618236.052649,1725618236.054773,13.0,0.0,4230.128418,4212.307617,4274.615234,4265.769043,4199.358887,4217.436035,4221.538574,4244.358887,4197.307617,4180.128418,4511.410156,4518.333496,4425.641113,4430.512695,3886.0,2.0,35.0,,,,0.0,4.0,4.0,4.0,4.0,4.0,4.0,4.0,4.0,4.0,4.0,4.0,4.0,4.0,4.0,100.0,,,,,,,,,,,,,,,,,,,,,,,,,,,,,,,,,,,,,,,,,,,,,,,,,,,,,,,,,,,,,,,,,,,,,,,,,,,,,,,,,,,,,,,,,,,,,,,,,,,,,,,,,,,,,,,,,,,,,,,,,,,,,,,,,,,
1725618236.056553,1725618236.058677,14.0,0.0,4240.384766,4220.897461,4285.641113,4273.077148,4205.128418,4220.897461,4228.589844,4255.128418,4208.461426,4194.358887,4525.512695,4533.077148,4441.025879,4442.05127,2899.0,2.0,35.0,,,,0.0,4.0,4.0,4.0,4.0,4.0,4.0,4.0,4.0,4.0,4.0,4.0,4.0,4.0,4.0,100.0,,,,,,,,,,,,,,,,,,,,,,,,,,,,,,,,,,,,,,,,,,,,,,,,,,,,,,,,,,,,,,,,,,,,,,,,,,,,,,,,,,,,,,,,,,,,,,,,,,,,,,,,,,,,,,,,,,,,,,,,,,,,,,,,,,,
1725618236.060457,1725618236.062581,15.0,0.0,4251.922852,4230.0,4295.128418,4281.538574,4212.05127,4225.769043,4233.974121,4259.743652,4218.717773,4207.563965,4537.307617,4543.974121,4456.025879,4455.384766,3066.0,2.0,35.0,,,,0.0,4.0,4.0,4.0,4.0,4.0,4.0,4.0,4.0,4.0,4.0,4.0,4.0,4.0,4.0,100.0,,,,,,,,,,,,,,,,,,,,,,,,,,,,,,,,,,,,,,,,,,,,,,,,,,,,,,,,,,,,,,,,,,,,,,,,,,,,,,,,,,,,,,,,,,,,,,,,,,,,,,,,,,,,,,,,,,,,,,,,,,,,,,,,,,,
1725618236.064361,1725618236.066385,16.0,0.0,4260.897461,4236.922852,4300.256348,4288.333496,4217.692383,4229.615234,4236.410156,4256.153809,4225.641113,4216.666504,4544.871582,4548.974121,4465.769043,4465.769043,3416.0,2.0,35.0,,,,0.0,4.0,4.0,4.0,4.0,4.0,4.0,4.0,4.0,4.0,4.0,4.0,4.0,4.0,4.0,100.0,,,,,,,,,,,,,,,,,,,,,,,,,,,,,,,,,,,,,,,,,,,,,,,,,,,,,,,,,,,,,,,,,,,,,,,,,,,,,,,,,,,,,,,,,,,,,,,,,,,,,,,,,,,,,,,,,,,,,,,,,,,,,,,,,,,
1725618236.068266,1725618236.070289,17.0,0.0,4264.102539,4239.615234,4300.897461,4290.897461,4220.128418,4230.128418,4236.794922,4245.641113,4226.666504,4220.641113,4546.666504,4547.94873,4468.205078,4469.487305,3886.0,2.0,35.0,,,,0.0,4.0,4.0,4.0,4.0,4.0,4.0,4.0,4.0,4.0,4.0,4.0,4.0,4.0,4.0,100.0,,,,,,,,,,,,,,,,,,,,,,,,,,,,,,,,,,,,,,,,,,,,,,,,,,,,,,,,,,,,,,,,,,,,,,,,,,,,,,,,,,,,,,,,,,,,,,,,,,,,,,,,,,,,,,,,,,,,,,,,,,,,,,,,,,,
1725618236.07217,1725618236.074194,18.0,0.0,4261.025879,4238.461426,4298.333496,4288.846191,4219.358887,4226.922852,4236.282227,4231.410156,4221.922852,4220.641113,4542.94873,4542.436035,4465.0,4466.153809,2899.0,2.0,35.0,,,,0.0,4.0,4.0,4.0,4.0,4.0,4.0,4.0,4.0,4.0,4.0,4.0,4.0,4.0,4.0,100.0,,,,,,,,,,,,,,,,,,,,,,,,,,,,,,,,,,,,,,,,,,,,,,,,,,,,,,,,0.0,0.0,1.0,0.0,1.0,0.0,,,,,,,,,,,,,,,,,,,,,,,,,,,,,,,,,,,,,,,,,,,,,,,,,,,,,,,,,,,,,,,,,,,,,,
1725618236.076074,1725618236.078098,19.0,0.0,4254.358887,4235.769043,4294.743652,4284.487305,4217.05127,4221.666504,4235.897461,4217.563965,4213.846191,4218.205078,4535.641113,4534.358887,4460.897461,4458.333496,3066.0,2.0,35.0,,,,0.0,4.0,4.0,4.0,4.0,4.0,4.0,4.0,4.0,4.0,4.0,4.0,4.0,4.0,4.0,100.0,,,,,,,,,,,,,,,,,,,,,,,,,,,,,,,,,,,,,,,,,,,,,,,,,,,,,,,,,,,,,,,,,,,,,,,,,,,,,,,,,,,,,,,,,,,,,,,,,,,,,,,,,,,,,,,,,,,,,,,,,,,,,,,,,,,
1725618236.079978,1725618236.081902,20.0,0.0,4248.461426,4233.846191,4291.025879,4280.769043,4215.128418,4217.307617,4235.769043,4206.922852,4206.538574,4215.384766,4528.717773,4525.897461,4459.358887,4450.641113,3416.0,2.0,35.0,,,,0.0,4.0,4.0,4.0,4.0,4.0,4.0,4.0,4.0,4.0,4.0,4.0,4.0,4.0,4.0,100.0,,,,,,,,,,,,,,,,,,,,,,,,,,,,,,,,,,,,,,,,,,,,,,,,,,,,,,,,,,,,,,,,,,,,,,,,,,,,,,,,,,,,,,,,,,,,,,,,,,,,,,,,,,,,,,,,,,,,,,,,,,,,,,,,,,,
1725618236.083882,1725618236.085806,21.0,0.0,4246.282227,4233.461426,4287.05127,4279.358887,4214.230957,4215.641113,4235.641113,4201.153809,4202.05127,4213.077148,4525.128418,4518.846191,4461.153809,4446.538574,3886.0,2.0,35.0,,,,0.0,4.0,4.0,4.0,4.0,4.0,4.0,4.0,4.0,4.0,4.0,4.0,4.0,4.0,4.0,100.0,,,,,,,,,,,,,,,,,,,,,,,,,,,,,,,,,,,,,,,,,,,,,,,,,,,,,,,,,,,,,,,,,,,,,,,,,,,,,,,,,,,,,,,,,,,,,,,,,,,,,,,,,,,,,,,,,,,,,,,,,,,,,,,,,,,
1725618236.087786,1725618236.08971,22.0,0.0,4247.436035,4233.717773,4283.205078,4278.974121,4214.102539,4216.282227,4234.743652,4200.128418,4200.641113,4211.153809,4524.487305,4514.487305,4464.102539,4446.025879,2899.0,2.0,35.0,,,,0.0,4.0,4.0,4.0,4.0,4.0,4.0,4.0,4.0,4.0,4.0,4.0,4.0,4.0,4.0,100.0,,,,,,,,,,,,,,,,,,,,,,,,,,,,,,,,,,,,,,,,,,,,,,,,,,,,,,,,,,,,,,,,,,,,,,,,,,,,,,,,,,,,,,,,,,,,,,,,,,,,,,,,,,,,,,,,,,,,,,,,,,,,,,,,,,,
1725618236.09169,1725618236.093514,23.0,0.0,4249.615234,4233.717773,4280.769043,4277.692383,4213.846191,4217.179688,4233.461426,4202.436035,4200.769043,4209.487305,4525.384766,4513.589844,4465.384766,4446.538574,3066.0,2.0,35.0,,,,0.0,4.0,4.0,4.0,4.0,4.0,4.0,4.0,4.0,4.0,4.0,4.0,4.0,4.0,4.0,100.0,,,,,,,,,,,,,,,,,,,,,,,,,,,,,,,,,,,,,,,,,,,,,,,,,,,,,,,,,,,,,,,,,,,,,,,,,,,,,,,,,,,,,,,,,,,,,,,,,,,,,,,,,,,,,,,,,,,,,,,,,,,,,,,,,,,
1725618236.095594,1725618236.097418,24.0,0.0,4250.897461,4233.205078,4281.153809,4275.256348,4213.205078,4217.05127,4232.179688,4206.410156,4201.153809,4208.846191,4526.794922,4515.641113,4464.487305,4446.410156,3416.0,2.0,35.0,,,,0.0,4.0,4.0,4.0,4.0,4.0,4.0,4.0,4.0,4.0,4.0,4.0,4.0,4.0,4.0,100.0,,,,,,,,,,,,,,,,,,,,,,,,,,,,,,,,,,,,,,,,,,,,,,,,,,,,,,,,,,,,,,,,,,,,,,,,,,,,,,,,,,,,,,,,,,,,,,,,,,,,,,,,,,,,,,,,,,,,,,,,,,,,,,,,,,,
1725618236.099498,1725618236.101322,25.0,0.0,4250.769043,4232.820313,4284.487305,4272.94873,4212.820313,4215.897461,4232.307617,4210.641113,4201.282227,4210.256348,4529.487305,4519.358887,4462.436035,4445.641113,3886.0,2.0,35.0,,,,0.0,4.0,4.0,4.0,4.0,4.0,4.0,4.0,4.0,4.0,4.0,4.0,4.0,4.0,4.0,100.0,,,,,,,,,,,,,,,,,,,,,,,,,,,,,,,,,,,,,,,,,,,,,,,,,,,,,,,,,,,,,,,,,,,,,,,,,,,,,,,,,,,,,,,,,,,,,,,,,,,,,,,,,,,,,,,,,,,,,,,,,,,,,,,,,,,
1725618236.103403,1725618236.105227,26.0,0.0,4249.871582,4233.205078,4288.974121,4272.436035,4213.077148,4214.743652,4234.102539,4213.974121,4200.641113,4213.205078,4533.846191,4522.820313,4461.153809,4446.025879,2899.0,2.0,35.0,,,,0.0,4.0,4.0,4.0,4.0,4.0,4.0,4.0,4.0,4.0,4.0,4.0,4.0,4.0,4.0,100.0,,,,,,,,,,,,,,,,,,,,,,,,,,,,,,,,,,,,,,,,,,,,,,,,,,,,,,,,0.0,0.0,1.0,0.0,1.0,0.0,,,,,,,,,,,,,,,,,,,,,,,,,,,,,,,,,,,,,,,,,,,,,,,,,,,,,,,,,,,,,,,,,,,,,,
1725618236.107307,1725618236.109031,27.0,0.0,4248.461426,4233.846191,4292.179688,4273.846191,4213.974121,4214.743652,4236.153809,4216.025879,4199.871582,4215.641113,4538.077148,4524.743652,4461.410156,4448.077148,3066.0,2.0,35.0,,,,0.0,4.0,4.0,4.0,4.0,4.0,4.0,4.0,4.0,4.0,4.0,4.0,4.0,4.0,4.0,100.0,,,,,,,,,,,,,,,,,,,,,,,,,,,,,,,,,,,,,,,,,,,,,,,,,,,,,,,,,,,,,,,,,,,,,,,,,,,,,,,,,,,,,,,,,,,,,,,,,,,,,,,,,,,,,,,,,,,,,,,,,,,,,,,,,,,
1725618236.111211,1725618236.112935,28.0,0.0,4247.563965,4233.974121,4292.179688,4276.282227,4214.871582,4215.897461,4236.538574,4216.922852,4199.743652,4215.897461,4539.358887,4525.0,4462.692383,4450.897461,3416.0,2.0,35.0,,,,0.0,4.0,4.0,4.0,4.0,4.0,4.0,4.0,4.0,4.0,4.0,4.0,4.0,4.0,4.0,100.0,,,,,,,,,,,,,,,,,,,,,,,,,,,,,,,,,,,,,,,,,,,,,,,,,,,,,,,,,,,,,,,,,,,,,,,,,,,,,,,,,,,,,,,,,,,,,,,,,,,,,,,,,,,,,,,,,,,,,,,,,,,,,,,,,,,
1725618236.115115,1725618236.116839,29.0,0.0,4248.461426,4233.461426,4289.615234,4278.589844,4215.128418,4217.179688,4235.128418,4217.05127,4200.769043,4213.461426,4536.282227,4524.487305,4463.589844,4453.205078,3886.0,2.0,35.0,,,,0.0,4.0,4.0,4.0,4.0,4.0,4.0,4.0,4.0,4.0,4.0,4.0,4.0,4.0,4.0,100.0,,,,,,,,,,,,,,,,,,,,,,,,,,,,,,,,,,,,,,,,,,,,,,,,,,,,,,,,,,,,,,,,,,,,,,,,,,,,,,,,,,,,,,,,,,,,,,,,,,,,,,,,,,,,,,,,,,,,,,,,,,,,,,,,,,,
1725618236.119019,1725618236.120843,30.0,0.0,4251.282227,4232.820313,4287.179688,4279.743652,4214.871582,4217.820313,4233.717773,4217.05127,4202.05127,4209.871582,4530.384766,4523.974121,4463.461426,4454.358887,2899.0,2.0,35.0,,,,0.0,4.0,4.0,4.0,4.0,4.0,4.0,4.0,4.0,4.0,4.0,4.0,4.0,4.0,4.0,100.0,,,,,,,,,,,,,,,,,,,,,,,,,,,,,,,,,,,,,,,,,,,,,,,,,,,,,,,,,,,,,,,,,,,,,,,,,,,,,,,,,,,,,,,,,,,,,,,,,,,,,,,,,,,,,,,,,,,,,,,,,,,,,,,,,,,
1725618236.122923,1725618236.124747,31.0,0.0,4255.256348,4232.436035,4287.436035,4279.871582,4214.743652,4217.563965,4234.487305,4217.94873,4202.563965,4206.794922,4525.128418,4523.846191,4462.05127,4454.871582,3066.0,2.0,35.0,,,,0.0,4.0,4.0,4.0,4.0,4.0,4.0,4.0,4.0,4.0,4.0,4.0,4.0,4.0,4.0,100.0,,,,,,,,,,,,,,,,,,,,,,,,,,,,,,,,,,,,,,,,,,,,,,,,,,,,,,,,,,,,,,,,,,,,,,,,,,,,,,,,,,,,,,,,,,,,,,,,,,,,,,,,,,,,,,,,,,,,,,,,,,,,,,,,,,,
1725618236.126827,1725618236.128651,32.0,0.0,4258.205078,4232.692383,4290.512695,4279.743652,4214.743652,4217.179688,4237.436035,4219.615234,4201.922852,4205.0,4523.461426,4523.717773,4459.871582,4455.384766,0.0,2.0,35.0,,,,0.0,4.0,4.0,4.0,4.0,4.0,4.0,4.0,4.0,4.0,4.0,4.0,4.0,4.0,4.0,100.0,,,,,,,,,,,,,,,,,,,,,,,,,,,,,,,,,,,,,,,,,,,,,,,,,,,,,,,,,,,,,,,,,,,,,,,,,,,,,,,,,,,,,,,,,,,,,,,,,,,,,,,,,,,,,,,,,,,,,,,,,,,,,,,,,,,
1725618236.130731,1725618236.132555,33.0,0.0,4259.102539,4233.333496,4294.615234,4280.128418,4215.128418,4217.307617,4241.025879,4221.153809,4201.794922,4204.615234,4525.769043,4523.717773,4457.692383,4455.897461,0.0,2.0,35.0,,,,0.0,4.0,4.0,4.0,4.0,4.0,4.0,4.0,4.0,4.0,4.0,4.0,4.0,4.0,4.0,100.0,,,,,,,,,,,,,,,,,,,,,,,,,,,,,,,,,,,,,,,,,,,,,,,,,,,,,,,,,,,,,,,,,,,,,,,,,,,,,,,,,,,,,,,,,,,,,,,,,,,,,,,,,,,,,,,,,,,,,,,,,,,,,,,,,,,
1725618236.134635,1725618236.136559,34.0,0.0,4258.589844,4234.358887,4297.05127,4281.282227,4215.769043,4218.077148,4243.077148,4222.179688,4204.230957,4205.769043,4531.025879,4525.256348,4457.05127,4456.922852,0.0,2.0,35.0,,,,0.0,4.0,4.0,4.0,4.0,4.0,4.0,4.0,4.0,4.0,4.0,4.0,4.0,4.0,4.0,100.0,,,,,,,,,,,,,,,,,1.0,0.0,0.0,,,,,,,,,,,,,,,,,,,,,,,,,,,,,,,,,,,,,0.0,0.0,1.0,0.0,1.0,0.0,2.780714,2.097566,1.080361,0.514685,0.10132,2.292741,1.837233,0.72133,0.444069,0.122702,1.948645,1.537022,0.70418,0.383093,0.067289,1.409011,1.56471,0.83744,0.42509,0.115809,0.363786,0.238204,0.355197,0.209409,0.053052,0.642242,0.581111,0.232967,0.108733,0.104712,0.606241,0.23897,0.258263,0.132663,0.047339,1.932148,1.480411,0.779378,0.496179,0.302479,1.53305,1.546682,0.739401,0.567862,0.099816,3.036554,2.654354,0.677414,0.595826,0.112593,3.457723,3.689145,1.455456,1.011686,0.200461,4.225864,5.381364,1.97348,0.979789,0.175509,3.624343,3.598484,1.119809,0.574074,0.105229,3.137378,3.152264,1.420052,0.678751,0.081499
1725618236.138539,1725618236.140463,35.0,0.0,4257.820313,4235.512695,4297.179688,4282.436035,4216.538574,4218.846191,4242.307617,4223.974121,4208.846191,4208.717773,4537.179688,4528.974121,4458.461426,4458.589844,0.0,2.0,35.0,,,,0.0,4.0,4.0,4.0,4.0,4.0,4.0,4.0,4.0,4.0,4.0,4.0,4.0,4.0,4.0,100.0,,,,,,,,,,,,,,,,,,,,,,,,,,,,,,,,,,,,,,,,,,,,,,,,,,,,,,,,,,,,,,,,,,,,,,,,,,,,,,,,,,,,,,,,,,,,,,,,,,,,,,,,,,,,,,,,,,,,,,,,,,,,,,,,,,,
1725618236.142444,1725618236.144368,36.0,0.0,4257.563965,4236.282227,4295.641113,4282.94873,4217.179688,4219.358887,4239.102539,4228.461426,4213.589844,4212.307617,4542.179688,4534.871582,4461.538574,4460.769043,0.0,2.0,35.0,,,,0.0,4.0,4.0,4.0,4.0,4.0,4.0,4.0,4.0,4.0,4.0,4.0,4.0,4.0,4.0,100.0,,,,,,,,,,,,,,,,,,,,,,,,,,,,,,,,,,,,,,,,,,,,,,,,,,,,,,,,,,,,,,,,,,,,,,,,,,,,,,,,,,,,,,,,,,,,,,,,,,,,,,,,,,,,,,,,,,,,,,,,,,,,,,,,,,,
1725618236.146348,1725618236.148272,37.0,0.0,4257.563965,4236.282227,4293.846191,4282.436035,4217.307617,4219.230957,4235.384766,4235.0,4216.410156,4215.0,4544.615234,4540.641113,4464.871582,4462.179688,0.0,2.0,35.0,,,,0.0,4.0,4.0,4.0,4.0,4.0,4.0,4.0,4.0,4.0,4.0,4.0,4.0,4.0,4.0,100.0,,,,,,,,,,,,,,,,,,,,,,,,,,,,,,,,,,,,,,,,,,,,,,,,,,,,,,,,,,,,,,,,,,,,,,,,,,,,,,,,,,,,,,,,,,,,,,,,,,,,,,,,,,,,,,,,,,,,,,,,,,,,,,,,,,,
1725618236.150252,1725618236.152276,38.0,0.0,4257.307617,4235.769043,4292.820313,4281.153809,4216.794922,4218.589844,4233.205078,4239.102539,4215.769043,4215.0,4543.589844,4543.077148,4466.153809,4462.05127,0.0,2.0,35.0,,,,0.0,4.0,4.0,4.0,4.0,4.0,4.0,4.0,4.0,4.0,4.0,4.0,4.0,4.0,4.0,100.0,,,,,,,,,,,,,,,,,,,,,,,,,,,,,,,,,,,,,,,,,,,,,,,,,,,,,,,,,,,,,,,,,,,,,,,,,,,,,,,,,,,,,,,,,,,,,,,,,,,,,,,,,,,,,,,,,,,,,,,,,,,,,,,,,,,
1725618236.154156,1725618236.15618,39.0,0.0,4256.282227,4235.0,4292.820313,4280.128418,4215.512695,4217.692383,4233.461426,4236.025879,4211.666504,4211.538574,4538.846191,4539.743652,4464.871582,4460.0,0.0,2.0,35.0,,,,0.0,4.0,4.0,4.0,4.0,4.0,4.0,4.0,4.0,4.0,4.0,4.0,4.0,4.0,4.0,100.0,,,,,,,,,,,,,,,,,,,,,,,,,,,,,,,,,,,,,,,,,,,,,,,,,,,,,,,,,,,,,,,,,,,,,,,,,,,,,,,,,,,,,,,,,,,,,,,,,,,,,,,,,,,,,,,,,,,,,,,,,,,,,,,,,,,
1725618236.15806,1725618236.160084,40.0,0.0,4253.846191,4233.974121,4293.461426,4280.0,4214.102539,4217.179688,4235.384766,4224.487305,4205.256348,4206.282227,4531.282227,4531.153809,4461.794922,4456.282227,0.0,2.0,35.0,,,,0.0,4.0,4.0,4.0,4.0,4.0,4.0,4.0,4.0,4.0,4.0,4.0,4.0,4.0,4.0,100.0,,,,,,,,,,,,,,,,,,,,,,,,,,,,,,,,,,,,,,,,,,,,,,,,,,,,,,,,,,,,,,,,,,,,,,,,,,,,,,,,,,,,,,,,,,,,,,,,,,,,,,,,,,,,,,,,,,,,,,,,,,,,,,,,,,,
1725618236.161964,1725618236.163988,41.0,0.0,4250.769043,4233.077148,4293.717773,4280.512695,4213.077148,4216.922852,4237.05127,4208.461426,4197.94873,4201.538574,4523.205078,4520.0,4458.461426,4451.922852,0.0,2.0,35.0,,,,0.0,4.0,4.0,4.0,4.0,4.0,4.0,4.0,4.0,4.0,4.0,4.0,4.0,4.0,4.0,100.0,,,,,,,,,,,,,,,,,,,,,,,,,,,,,,,,,,,,,,,,,,,,,,,,,,,,,,,,,,,,,,,,,,,,,,,,,,,,,,,,,,,,,,,,,,,,,,,,,,,,,,,,,,,,,,,,,,,,,,,,,,,,,,,,,,,
1725618236.165868,1725618236.167892,42.0,0.0,4248.589844,4232.94873,4292.692383,4281.025879,4213.077148,4216.922852,4237.05127,4194.743652,4191.666504,4198.846191,4517.179688,4510.512695,4456.153809,4447.563965,0.0,2.0,35.0,,,,0.0,4.0,4.0,4.0,4.0,4.0,4.0,4.0,4.0,4.0,4.0,4.0,4.0,4.0,4.0,100.0,,,,,,,,,,,,,,,,,,,,,,,,,,,,,,,,,,,,,,,,,,,,,,,,,,,,,,,,0.0,0.0,1.0,0.0,1.0,0.0,,,,,,,,,,,,,,,,,,,,,,,,,,,,,,,,,,,,,,,,,,,,,,,,,,,,,,,,,,,,,,,,,,,,,,
1725618236.169772,1725618236.171696,43.0,0.0,4249.102539,4234.615234,4290.256348,4280.641113,4214.358887,4216.666504,4236.025879,4188.589844,4187.179688,4198.461426,4515.384766,4505.384766,4455.128418,4444.230957,0.0,2.0,35.0,,,,0.0,4.0,4.0,4.0,4.0,4.0,4.0,4.0,4.0,4.0,4.0,4.0,4.0,4.0,4.0,100.0,,,,,,,,,,,,,,,,,,,,,,,,,,,,,,,,,,,,,,,,,,,,,,,,,,,,,,,,,,,,,,,,,,,,,,,,,,,,,,,,,,,,,,,,,,,,,,,,,,,,,,,,,,,,,,,,,,,,,,,,,,,,,,,,,,,
1725618236.173676,1725618236.1756,44.0,0.0,4252.179688,4238.205078,4287.563965,4279.230957,4216.538574,4216.025879,4235.897461,4190.0,4184.615234,4199.358887,4517.436035,4505.384766,4454.871582,4442.94873,0.0,2.0,35.0,,,,0.0,4.0,4.0,4.0,4.0,4.0,4.0,4.0,4.0,4.0,4.0,4.0,4.0,4.0,4.0,100.0,,,,,,,,,,,,,,,,,,,,,,,,,,,,,,,,,,,,,,,,,,,,,,,,,,,,,,,,,,,,,,,,,,,,,,,,,,,,,,,,,,,,,,,,,,,,,,,,,,,,,,,,,,,,,,,,,,,,,,,,,,,,,,,,,,,
1725618236.17758,1725618236.179504,45.0,0.0,4256.025879,4242.563965,4285.897461,4277.692383,4218.846191,4215.256348,4238.205078,4195.641113,4184.102539,4200.384766,4521.410156,4509.487305,4455.384766,4444.102539,0.0,2.0,35.0,,,,0.0,4.0,4.0,4.0,4.0,4.0,4.0,4.0,4.0,4.0,4.0,4.0,4.0,4.0,4.0,100.0,,,,,,,,,,,,,,,,,,,,,,,,,,,,,,,,,,,,,,,,,,,,,,,,,,,,,,,,,,,,,,,,,,,,,,,,,,,,,,,,,,,,,,,,,,,,,,,,,,,,,,,,,,,,,,,,,,,,,,,,,,,,,,,,,,,
1725618236.181485,1725618236.183409,46.0,0.0,4258.717773,4246.282227,4285.897461,4277.307617,4220.0,4214.615234,4242.307617,4200.897461,4185.384766,4200.769043,4524.615234,4515.769043,4456.410156,4446.666504,0.0,2.0,35.0,,,,0.0,4.0,4.0,4.0,4.0,4.0,4.0,4.0,4.0,4.0,4.0,4.0,4.0,4.0,4.0,100.0,,,,,,,,,,,,,,,,,,,,,,,,,,,,,,,,,,,,,,,,,,,,,,,,,,,,,,,,,,,,,,,,,,,,,,,,,,,,,,,,,,,,,,,,,,,,,,,,,,,,,,,,,,,,,,,,,,,,,,,,,,,,,,,,,,,
1725618236.185389,1725618236.187213,47.0,0.0,4258.974121,4248.333496,4287.179688,4278.589844,4219.487305,4214.615234,4245.769043,4203.461426,4188.333496,4200.384766,4525.641113,4521.666504,4458.077148,4449.230957,0.0,2.0,35.0,,,,0.0,4.0,4.0,4.0,4.0,4.0,4.0,4.0,4.0,4.0,4.0,4.0,4.0,4.0,4.0,100.0,,,,,,,,,,,,,,,,,,,,,,,,,,,,,,,,,,,,,,,,,,,,,,,,,,,,,,,,,,,,,,,,,,,,,,,,,,,,,,,,,,,,,,,,,,,,,,,,,,,,,,,,,,,,,,,,,,,,,,,,,,,,,,,,,,,
1725618236.189293,1725618236.191117,48.0,0.0,4257.179688,4248.333496,4288.333496,4280.769043,4217.692383,4215.0,4245.897461,4204.102539,4192.179688,4200.128418,4524.102539,4524.615234,4459.615234,4450.512695,0.0,2.0,35.0,,,,0.0,4.0,4.0,4.0,4.0,4.0,4.0,4.0,4.0,4.0,4.0,4.0,4.0,4.0,4.0,100.0,,,,,,,,,,,,,,,,,,,,,,,,,,,,,,,,,,,,,,,,,,,,,,,,,,,,,,,,,,,,,,,,,,,,,,,,,,,,,,,,,,,,,,,,,,,,,,,,,,,,,,,,,,,,,,,,,,,,,,,,,,,,,,,,,,,
1725618236.193197,1725618236.195021,49.0,0.0,4253.974121,4247.436035,4287.563965,4282.05127,4215.641113,4215.769043,4242.692383,4205.0,4195.769043,4200.384766,4521.410156,4523.205078,4460.128418,4450.256348,0.0,2.0,35.0,,,,0.0,4.0,4.0,4.0,4.0,4.0,4.0,4.0,4.0,4.0,4.0,4.0,4.0,4.0,4.0,100.0,,,,,,,,,,,,,,,,,,,,,,,,,,,,,,,,,,,,,,,,,,,,,,,,,,,,,,,,,,,,,,,,,,,,,,,,,,,,,,,,,,,,,,,,,,,,,,,,,,,,,,,,,,,,,,,,,,,,,,,,,,,,,,,,,,,
1725618236.197101,1725618236.198825,50.0,0.0,4250.384766,4246.538574,4284.743652,4281.282227,4214.743652,4216.282227,4238.333496,4208.077148,4198.461426,4201.025879,4520.256348,4518.717773,4458.974121,4449.358887,0.0,2.0,35.0,,,,0.0,4.0,4.0,4.0,4.0,4.0,4.0,4.0,4.0,4.0,4.0,4.0,4.0,4.0,4.0,100.0,,,,,,,,,,,,,,,,,,,,,,,,,,,,,,,,,,,,,,,,,,,,,,,,,,,,,,,,0.0,0.0,1.0,0.0,1.0,0.0,,,,,,,,,,,,,,,,,,,,,,,,,,,,,,,,,,,,,,,,,,,,,,,,,,,,,,,,,,,,,,,,,,,,,,
1725618236.201005,1725618236.202729,51.0,0.0,4247.94873,4246.410156,4281.153809,4279.487305,4215.256348,4216.025879,4235.256348,4212.94873,4200.384766,4201.410156,4522.563965,4514.102539,4457.05127,4449.358887,0.0,2.0,35.0,,,,0.0,4.0,4.0,4.0,4.0,4.0,4.0,4.0,4.0,4.0,4.0,4.0,4.0,4.0,4.0,100.0,,,,,,,,,,,,,,,,,,,,,,,,,,,,,,,,,,,,,,,,,,,,,,,,,,,,,,,,,,,,,,,,,,,,,,,,,,,,,,,,,,,,,,,,,,,,,,,,,,,,,,,,,,,,,,,,,,,,,,,,,,,,,,,,,,,
1725618236.204909,1725618236.206633,52.0,0.0,4247.820313,4246.538574,4278.717773,4278.077148,4216.666504,4215.641113,4235.384766,4217.05127,4201.794922,4201.282227,4527.692383,4512.179688,4455.897461,4450.641113,0.0,2.0,35.0,,,,0.0,4.0,4.0,4.0,4.0,4.0,4.0,4.0,4.0,4.0,4.0,4.0,4.0,4.0,4.0,100.0,,,,,,,,,,,,,,,,,,,,,,,,,,,,,,,,,,,,,,,,,,,,,,,,,,,,,,,,,,,,,,,,,,,,,,,,,,,,,,,,,,,,,,,,,,,,,,,,,,,,,,,,,,,,,,,,,,,,,,,,,,,,,,,,,,,
1725618236.208813,1725618236.210537,53.0,0.0,4250.256348,4246.282227,4278.589844,4278.589844,4218.077148,4215.512695,4238.589844,4218.333496,4202.692383,4200.384766,4532.563965,4513.717773,4456.794922,4452.692383,0.0,2.0,35.0,,,,0.0,4.0,4.0,4.0,4.0,4.0,4.0,4.0,4.0,4.0,4.0,4.0,4.0,4.0,4.0,100.0,,,,,,,,,,,,,,,,,,,,,,,,,,,,,,,,,,,,,,,,,,,,,,,,,,,,,,,,,,,,,,,,,,,,,,,,,,,,,,,,,,,,,,,,,,,,,,,,,,,,,,,,,,,,,,,,,,,,,,,,,,,,,,,,,,,
1725618236.212717,1725618236.214342,54.0,0.0,4254.358887,4245.384766,4280.769043,4280.512695,4218.846191,4216.282227,4242.820313,4216.538574,4202.563965,4199.230957,4534.743652,4517.436035,4459.230957,4455.0,0.0,2.0,35.0,,,,0.0,4.0,4.0,4.0,4.0,4.0,4.0,4.0,4.0,4.0,4.0,4.0,4.0,4.0,4.0,100.0,,,,,,,,,,,,,,,,,,,,,,,,,,,,,,,,,,,,,,,,,,,,,,,,,,,,,,,,,,,,,,,,,,,,,,,,,,,,,,,,,,,,,,,,,,,,,,,,,,,,,,,,,,,,,,,,,,,,,,,,,,,,,,,,,,,
1725618236.216622,1725618236.218246,55.0,0.0,4258.333496,4244.871582,4284.102539,4282.563965,4218.846191,4217.563965,4246.153809,4214.487305,4201.410156,4198.974121,4534.230957,4521.282227,4461.153809,4457.436035,0.0,2.0,35.0,,,,0.0,4.0,4.0,4.0,4.0,4.0,4.0,4.0,4.0,4.0,4.0,4.0,4.0,4.0,4.0,100.0,,,,,,,,,,,,,,,,,,,,,,,,,,,,,,,,,,,,,,,,,,,,,,,,,,,,,,,,,,,,,,,,,,,,,,,,,,,,,,,,,,,,,,,,,,,,,,,,,,,,,,,,,,,,,,,,,,,,,,,,,,,,,,,,,,,
1725618236.220526,1725618236.22215,56.0,0.0,4260.897461,4245.512695,4287.436035,4283.589844,4218.205078,4218.461426,4247.179688,4215.0,4200.256348,4200.128418,4533.205078,4524.358887,4460.128418,4459.743652,0.0,2.0,35.0,,,,0.0,4.0,4.0,4.0,4.0,4.0,4.0,4.0,4.0,4.0,4.0,4.0,4.0,4.0,4.0,100.0,,,,,,,,,,,,,,,,,,,,,,,,,,,,,,,,,,,,,,,,,,,,,,,,,,,,,,,,,,,,,,,,,,,,,,,,,,,,,,,,,,,,,,,,,,,,,,,,,,,,,,,,,,,,,,,,,,,,,,,,,,,,,,,,,,,
1725618236.22443,1725618236.226154,57.0,0.0,4261.794922,4246.794922,4289.230957,4283.205078,4217.563965,4218.461426,4246.153809,4218.461426,4200.0,4202.436035,4533.333496,4527.05127,4455.769043,4461.282227,0.0,2.0,35.0,,,,0.0,4.0,4.0,4.0,4.0,4.0,4.0,4.0,4.0,4.0,4.0,4.0,4.0,4.0,4.0,100.0,,,,,,,,,,,,,,,,,,,,,,,,,,,,,,,,,,,,,,,,,,,,,,,,,,,,,,,,,,,,,,,,,,,,,,,,,,,,,,,,,,,,,,,,,,,,,,,,,,,,,,,,,,,,,,,,,,,,,,,,,,,,,,,,,,,
1725618236.228334,1725618236.230058,58.0,0.0,4260.641113,4247.179688,4288.974121,4282.05127,4217.307617,4217.307617,4243.589844,4221.794922,4199.871582,4203.205078,4534.871582,4528.589844,4449.871582,4461.025879,0.0,2.0,35.0,,,,0.0,4.0,4.0,4.0,4.0,4.0,4.0,4.0,4.0,4.0,4.0,4.0,4.0,4.0,4.0,100.0,,,,,,,,,,,,,,,,,,,,,,,,,,,,,,,,,,,,,,,,,,,,,,,,,,,,,,,,0.0,0.0,1.0,0.0,1.0,0.0,,,,,,,,,,,,,,,,,,,,,,,,,,,,,,,,,,,,,,,,,,,,,,,,,,,,,,,,,,,,,,,,,,,,,,
1725618236.232238,1725618236.233962,59.0,0.0,4257.692383,4245.256348,4286.666504,4280.512695,4217.436035,4215.512695,4240.512695,4221.025879,4198.205078,4200.0,4535.897461,4527.563965,4445.256348,4458.333496,0.0,2.0,35.0,,,,0.0,4.0,4.0,4.0,4.0,4.0,4.0,4.0,4.0,4.0,4.0,4.0,4.0,4.0,4.0,100.0,,,,,,,,,,,,,,,,,,,,,,,,,,,,,,,,,,,,,,,,,,,,,,,,,,,,,,,,,,,,,,,,,,,,,,,,,,,,,,,,,,,,,,,,,,,,,,,,,,,,,,,,,,,,,,,,,,,,,,,,,,,,,,,,,,,
1725618236.236142,1725618236.237966,60.0,0.0,4253.589844,4241.025879,4283.333496,4279.102539,4217.820313,4213.846191,4237.820313,4215.0,4194.230957,4193.205078,4534.230957,4523.077148,4443.461426,4453.461426,0.0,2.0,35.0,,,,0.0,4.0,4.0,4.0,4.0,4.0,4.0,4.0,4.0,4.0,4.0,4.0,4.0,4.0,4.0,100.0,,,,,,,,,,,,,,,,,,,,,,,,,,,,,,,,,,,,,,,,,,,,,,,,,,,,,,,,,,,,,,,,,,,,,,,,,,,,,,,,,,,,,,,,,,,,,,,,,,,,,,,,,,,,,,,,,,,,,,,,,,,,,,,,,,,
1725618236.240046,1725618236.24187,61.0,0.0,4249.615234,4236.153809,4280.0,4277.563965,4218.077148,4212.94873,4236.538574,4206.538574,4188.589844,4186.282227,4529.358887,4516.538574,4443.589844,4447.94873,0.0,2.0,35.0,,,,0.0,4.0,4.0,4.0,4.0,4.0,4.0,4.0,4.0,4.0,4.0,4.0,4.0,4.0,4.0,100.0,,,,,,,,,,,,,,,,,,,,,,,,,,,,,,,,,,,,,,,,,,,,,,,,,,,,,,,,,,,,,,,,,,,,,,,,,,,,,,,,,,,,,,,,,,,,,,,,,,,,,,,,,,,,,,,,,,,,,,,,,,,,,,,,,,,
1725618236.24395,1725618236.245774,62.0,0.0,4247.179688,4233.077148,4277.563965,4275.897461,4217.94873,4212.94873,4237.307617,4201.153809,4184.358887,4183.589844,4524.102539,4511.410156,4443.846191,4443.846191,0.0,2.0,35.0,,,,0.0,4.0,4.0,4.0,4.0,4.0,4.0,4.0,4.0,4.0,4.0,4.0,4.0,4.0,4.0,100.0,,,,,,,,,,,,,,,,,,,,,,,,,,,,,,,,,,,,,,,,,,,,,,,,,,,,,,,,,,,,,,,,,,,,,,,,,,,,,,,,,,,,,,,,,,,,,,,,,,,,,,,,,,,,,,,,,,,,,,,,,,,,,,,,,,,
1725618236.247854,1725618236.249678,63.0,0.0,4246.922852,4232.94873,4277.05127,4274.230957,4217.692383,4213.589844,4239.743652,4202.563965,4184.230957,4186.794922,4522.05127,4510.769043,4443.333496,4442.820313,0.0,2.0,35.0,,,,0.0,4.0,4.0,4.0,4.0,4.0,4.0,4.0,4.0,4.0,4.0,4.0,4.0,4.0,4.0,100.0,,,,,,,,,,,,,,,,,,,,,,,,,,,,,,,,,,,,,,,,,,,,,,,,,,,,,,,,,,,,,,,,,,,,,,,,,,,,,,,,,,,,,,,,,,,,,,,,,,,,,,,,,,,,,,,,,,,,,,,,,,,,,,,,,,,
1725618236.251758,1725618236.253583,64.0,0.0,4248.077148,4234.871582,4279.358887,4273.589844,4217.307617,4214.230957,4242.820313,4209.871582,4188.589844,4193.333496,4525.384766,4514.743652,4442.692383,4444.487305,0.0,2.0,35.0,,,,0.0,4.0,4.0,4.0,4.0,4.0,4.0,4.0,4.0,4.0,4.0,4.0,4.0,4.0,4.0,100.0,,,,,,,,,,,,,,,,,,,,,,,,,,,,,,,,,,,,,,,,,,,,,,,,,,,,,,,,,,,,,,,,,,,,,,,,,,,,,,,,,,,,,,,,,,,,,,,,,,,,,,,,,,,,,,,,,,,,,,,,,,,,,,,,,,,
1725618236.255663,1725618236.257587,65.0,0.0,4249.743652,4236.794922,4283.205078,4273.846191,4217.436035,4213.974121,4245.512695,4217.436035,4195.128418,4198.461426,4532.307617,4520.384766,4442.307617,4447.05127,0.0,2.0,35.0,,,,0.0,4.0,4.0,4.0,4.0,4.0,4.0,4.0,4.0,4.0,4.0,4.0,4.0,4.0,4.0,100.0,,,,,,,,,,,,,,,,,,,,,,,,,,,,,,,,,,,,,,,,,,,,,,,,,,,,,,,,,,,,,,,,,,,,,,,,,,,,,,,,,,,,,,,,,,,,,,,,,,,,,,,,,,,,,,,,,,,,,,,,,,,,,,,,,,,
1725618236.259567,1725618236.261491,66.0,0.0,4250.897461,4237.307617,4285.512695,4274.487305,4218.077148,4212.94873,4246.410156,4219.358887,4199.487305,4198.205078,4537.820313,4522.94873,4442.436035,4447.94873,0.0,2.0,35.0,,,,0.0,4.0,4.0,4.0,4.0,4.0,4.0,4.0,4.0,4.0,4.0,4.0,4.0,4.0,4.0,100.0,1.0,100.0,4.0,4.0,4.0,4.0,4.0,4.0,4.0,4.0,4.0,4.0,4.0,4.0,4.0,4.0,1.0,0.0,0.0,,,,,,,,,,,,,,,,,,,,,,,,,,,,,,,,,,,,,0.0,0.0,1.0,0.0,1.0,0.0,2.312733,1.830341,1.017725,0.526707,0.105924,2.058709,1.713909,0.660802,0.465773,0.121256,1.585844,1.448703,0.664047,0.395776,0.0658,1.14968,1.520135,0.822918,0.423142,0.117185,0.394074,0.213739,0.351019,0.217164,0.063163,0.596942,0.559795,0.215182,0.123609,0.121611,0.646999,0.210795,0.285322,0.138281,0.054904,1.793611,1.820801,0.81222,0.521517,0.32144,1.367233,1.583752,0.739157,0.569529,0.108414,2.778293,2.719418,0.717969,0.605067,0.136454,3.086283,3.757222,1.524969,1.065984,0.23826,3.71858,5.691256,1.974387,0.968564,0.192133,3.456555,3.759253,1.155088,0.594907,0.114961,2.82492,3.000838,1.373352,0.671517,0.08381
1725618236.263471,1725618236.265395,67.0,0.0,4250.897461,4236.282227,4283.974121,4274.358887,4218.717773,4211.794922,4245.0,4213.846191,4198.333496,4192.692383,4537.692383,4519.102539,4442.179688,4446.025879,0.0,2.0,35.0,,,,0.0,4.0,4.0,4.0,4.0,4.0,4.0,4.0,4.0,4.0,4.0,4.0,4.0,4.0,4.0,100.0,,,,,,,,,,,,,,,,,,,,,,,,,,,,,,,,,,,,,,,,,,,,,,,,,,,,,,,,,,,,,,,,,,,,,,,,,,,,,,,,,,,,,,,,,,,,,,,,,,,,,,,,,,,,,,,,,,,,,,,,,,,,,,,,,,,
1725618236.267375,1725618236.269299,68.0,0.0,4249.487305,4234.871582,4278.717773,4272.820313,4218.846191,4211.666504,4242.05127,4204.230957,4192.307617,4185.512695,4531.538574,4510.384766,4440.897461,4442.563965,0.0,2.0,35.0,,,,0.0,4.0,4.0,4.0,4.0,4.0,4.0,4.0,4.0,4.0,4.0,4.0,4.0,4.0,4.0,100.0,,,,,,,,,,,,,,,,,,,,,,,,,,,,,,,,,,,,,,,,,,,,,,,,,,,,,,,,,,,,,,,,,,,,,,,,,,,,,,,,,,,,,,,,,,,,,,,,,,,,,,,,,,,,,,,,,,,,,,,,,,,,,,,,,,,
1725618236.271279,1725618236.273103,69.0,0.0,4247.307617,4233.974121,4272.436035,4270.128418,4218.333496,4213.077148,4239.102539,4196.282227,4185.641113,4181.666504,4523.717773,4502.179688,4438.974121,4439.743652,0.0,2.0,35.0,,,,0.0,4.0,4.0,4.0,4.0,4.0,4.0,4.0,4.0,4.0,4.0,4.0,4.0,4.0,4.0,100.0,,,,,,,,,,,,,,,,,,,,,,,,,,,,,,,,,,,,,,,,,,,,,,,,,,,,,,,,,,,,,,,,,,,,,,,,,,,,,,,,,,,,,,,,,,,,,,,,,,,,,,,,,,,,,,,,,,,,,,,,,,,,,,,,,,,
