Timestamp,OriginalTimestamp,EEG.Counter,EEG.Interpolated,EEG.AF3,EEG.F7,EEG.F3,EEG.FC5,EEG.T7,EEG.P7,EEG.O1,EEG.O2,EEG.P8,EEG.T8,EEG.FC6,EEG.F4,EEG.F8,EEG.AF4,EEG.RawCq,EEG.Battery,EEG.BatteryPercent,MarkerIndex,MarkerType,MarkerValueInt,EEG.MarkerHardware,CQ.AF3,CQ.F7,CQ.F3,CQ.FC5,CQ.T7,CQ.P7,CQ.O1,CQ.O2,CQ.P8,CQ.T8,CQ.FC6,CQ.F4,CQ.F8,CQ.AF4,CQ.Overall,EQ.SampleRateQuality,EQ.OVERALL,EQ.AF3,EQ.F7,EQ.F3,EQ.FC5,EQ.T7,EQ.P7,EQ.O1,EQ.O2,EQ.P8,EQ.T8,EQ.FC6,EQ.F4,EQ.F8,EQ.AF4,MC.Action,MC.ActionPower,MC.IsActive,PM.Attention.IsActive,PM.Attention.Scaled,PM.Attention.Raw,PM.Attention.Min,PM.Attention.Max,PM.Engagement.IsActive,PM.Engagement.Scaled,PM.Engagement.Raw,PM.Engagement.Min,PM.Engagement.Max,PM.Excitement.IsActive,PM.Excitement.Scaled,PM.Excitement.Raw,PM.Excitement.Min,PM.Excitement.Max,PM.LongTermExcitement,PM.Stress.IsActive,PM.Stress.Scaled,PM.Stress.Raw,PM.Stress.Min,PM.Stress.Max,PM.Relaxation.IsActive,PM.Relaxation.Scaled,PM.Relaxation.Raw,PM.Relaxation.Min,PM.Relaxation.Max,PM.Interest.IsActive,PM.Interest.Scaled,PM.Interest.Raw,PM.Interest.Min,PM.Interest.Max,PM.Focus.IsActive,PM.Focus.Scaled,PM.Focus.Raw,PM.Focus.Min,PM.Focus.Max,FE.BlinkWink,FE.HorizontalEyesDirection,FE.UpperFaceAction,FE.UpperFaceActionPower,FE.LowerFaceAction,FE.LowerFaceActionPower,POW.AF3.Theta,POW.AF3.Alpha,POW.AF3.BetaL,POW.AF3.BetaH,POW.AF3.Gamma,POW.F7.Theta,POW.F7.Alpha,POW.F7.BetaL,POW.F7.BetaH,POW.F7.Gamma,POW.F3.Theta,POW.F3.Alpha,POW.F3.BetaL,POW.F3.BetaH,POW.F3.Gamma,POW.FC5.Theta,POW.FC5.Alpha,POW.FC5.BetaL,POW.FC5.BetaH,POW.FC5.Gamma,POW.T7.Theta,POW.T7.Alpha,POW.T7.BetaL,POW.T7.BetaH,POW.T7.Gamma,POW.P7.Theta,POW.P7.Alpha,POW.P7.BetaL,POW.P7.BetaH,POW.P7.Gamma,POW.O1.Theta,POW.O1.Alpha,POW.O1.BetaL,POW.O1.BetaH,POW.O1.Gamma,POW.O2.Theta,POW.O2.Alpha,POW.O2.BetaL,POW.O2.BetaH,POW.O2.Gamma,POW.P8.Theta,POW.P8.Alpha,POW.P8.BetaL,POW.P8.BetaH,POW.P8.Gamma,POW.T8.Theta,POW.T8.Alpha,POW.T8.BetaL,POW.T8.BetaH,POW.T8.Gamma,POW.FC6.Theta,POW.FC6.Alpha,POW.FC6.BetaL,POW.FC6.BetaH,POW.FC6.Gamma,POW.F4.Theta,POW.F4.Alpha,POW.F4.BetaL,POW.F4.BetaH,POW.F4.Gamma,POW.F8.Theta,POW.F8.Alpha,POW.F8.BetaL,POW.F8.BetaH,POW.F8.Gamma,POW.AF4.Theta,POW.AF4.Alpha,POW.AF4.BetaL,POW.AF4.BetaH,POW.AF4.Gamma
1725618194.157682,1725618194.157433,34.0,0.0,4260.128418,4234.102539,4285.0,4289.871582,4216.410156,4218.333496,4223.205078,4211.922852,4213.846191,4213.717773,4540.0,4538.717773,4381.282227,4458.589844,0.0,2.0,36.0,3.0,1.0,1.0,0.0,4.0,4.0,4.0,4.0,4.0,4.0,4.0,4.0,4.0,4.0,4.0,4.0,4.0,4.0,100.0,,,,,,,,,,,,,,,,,1.0,0.0,0.0,,,,,,,,,,,,,,,,,,,,,,,,,,,,,,,,,,,,,0.0,0.0,1.0,0.0,1.0,0.0,1.790645,1.447951,0.466594,0.459958,0.059816,1.801037,1.278509,0.669602,0.336332,0.085428,2.074443,2.079202,0.655767,0.335667,0.088228,1.746469,1.121411,0.415457,0.210007,0.057344,1.056123,0.637394,0.174861,0.111121,0.037231,0.743954,0.423968,0.177597,0.133129,0.052132,0.572176,0.533315,0.150857,0.110673,0.051829,0.788957,2.167848,0.507759,0.283781,0.243396,0.947964,1.119226,0.677509,0.286712,0.068735,1.34323,1.692497,0.785246,0.414878,0.139274,3.423072,2.827614,1.146455,0.465552,0.188559,4.442877,3.87772,1.074598,0.847639,0.16416,2.39184,2.47521,1.082048,0.344436,0.121519,2.697904,2.496378,0.807296,0.478199,0.109296
1725618194.161586,1725618194.161337,35.0,0.0,4260.641113,4234.102539,4285.384766,4289.230957,4216.410156,4221.410156,4219.358887,4213.717773,4213.589844,4213.333496,4537.436035,4538.077148,4377.307617,4457.05127,0.0,2.0,36.0,,,,0.0,4.0,4.0,4.0,4.0,4.0,4.0,4.0,4.0,4.0,4.0,4.0,4.0,4.0,4.0,100.0,,,,,,,,,,,,,,,,,,,,,,,,,,,,,,,,,,,,,,,,,,,,,,,,,,,,,,,,,,,,,,,,,,,,,,,,,,,,,,,,,,,,,,,,,,,,,,,,,,,,,,,,,,,,,,,,,,,,,,,,,,,,,,,,,,,
1725618194.165491,1725618194.165341,36.0,0.0,4262.820313,4236.282227,4287.820313,4290.256348,4216.410156,4224.102539,4219.230957,4215.769043,4213.717773,4213.846191,4536.922852,4540.0,4373.717773,4456.794922,0.0,2.0,36.0,,,,0.0,4.0,4.0,4.0,4.0,4.0,4.0,4.0,4.0,4.0,4.0,4.0,4.0,4.0,4.0,100.0,,,,,,,,,,,,,,,,,,,,,,,,,,,,,,,,,,,,,,,,,,,,,,,,,,,,,,,,,,,,,,,,,,,,,,,,,,,,,,,,,,,,,,,,,,,,,,,,,,,,,,,,,,,,,,,,,,,,,,,,,,,,,,,,,,,
1725618194.169395,1725618194.169245,37.0,0.0,4265.641113,4239.871582,4291.153809,4292.692383,4216.410156,4225.256348,4223.333496,4216.922852,4214.102539,4215.0,4538.974121,4542.563965,4372.820313,4458.461426,0.0,2.0,36.0,,,,0.0,4.0,4.0,4.0,4.0,4.0,4.0,4.0,4.0,4.0,4.0,4.0,4.0,4.0,4.0,100.0,,,,,,,,,,,,,,,,,,,,,,,,,,,,,,,,,,,,,,,,,,,,,,,,,,,,,,,,,,,,,,,,,,,,,,,,,,,,,,,,,,,,,,,,,,,,,,,,,,,,,,,,,,,,,,,,,,,,,,,,,,,,,,,,,,,
1725618194.173299,1725618194.173149,38.0,0.0,4268.077148,4242.94873,4293.974121,4295.256348,4216.410156,4224.615234,4229.487305,4217.179688,4214.615234,4216.538574,4542.820313,4544.102539,4375.384766,4461.538574,0.0,2.0,36.0,,,,0.0,4.0,4.0,4.0,4.0,4.0,4.0,4.0,4.0,4.0,4.0,4.0,4.0,4.0,4.0,100.0,,,,,,,,,,,,,,,,,,,,,,,,,,,,,,,,,,,,,,,,,,,,,,,,,,,,,,,,,,,,,,,,,,,,,,,,,,,,,,,,,,,,,,,,,,,,,,,,,,,,,,,,,,,,,,,,,,,,,,,,,,,,,,,,,,,
1725618194.177203,1725618194.177053,39.0,0.0,4268.846191,4243.205078,4295.128418,4296.153809,4216.410156,4223.077148,4234.615234,4217.05127,4215.0,4217.820313,4545.897461,4543.333496,4379.230957,4464.358887,0.0,2.0,36.0,,,,0.0,4.0,4.0,4.0,4.0,4.0,4.0,4.0,4.0,4.0,4.0,4.0,4.0,4.0,4.0,100.0,,,,,,,,,,,,,,,,,,,,,,,,,,,,,,,,,,,,,,,,,,,,,,,,,,,,,,,,,,,,,,,,,,,,,,,,,,,,,,,,,,,,,,,,,,,,,,,,,,,,,,,,,,,,,,,,,,,,,,,,,,,,,,,,,,,
1725618194.181107,1725618194.181057,40.0,0.0,4267.820313,4240.384766,4293.974121,4295.0,4216.410156,4221.282227,4236.282227,4216.794922,4215.0,4218.333496,4546.025879,4540.769043,4381.153809,4465.256348,0.0,2.0,36.0,,,,0.0,4.0,4.0,4.0,4.0,4.0,4.0,4.0,4.0,4.0,4.0,4.0,4.0,4.0,4.0,100.0,,,,,,,,,,,,,,,,,,,,,,,,,,,,,,,,,,,,,,,,,,,,,,,,,,,,,,,,,,,,,,,,,,,,,,,,,,,,,,,,,,,,,,,,,,,,,,,,,,,,,,,,,,,,,,,,,,,,,,,,,,,,,,,,,,,
1725618194.185011,1725618194.184961,41.0,0.0,4265.769043,4235.769043,4291.282227,4292.563965,4216.410156,4219.487305,4234.487305,4216.153809,4214.230957,4217.94873,4542.692383,4538.077148,4379.358887,4463.717773,0.0,2.0,36.0,,,,0.0,4.0,4.0,4.0,4.0,4.0,4.0,4.0,4.0,4.0,4.0,4.0,4.0,4.0,4.0,100.0,,,,,,,,,,,,,,,,,,,,,,,,,,,,,,,,,,,,,,,,,,,,,,,,,,,,,,,,,,,,,,,,,,,,,,,,,,,,,,,,,,,,,,,,,,,,,,,,,,,,,,,,,,,,,,,,,,,,,,,,,,,,,,,,,,,
1725618194.188915,1725618194.188865,42.0,0.0,4263.589844,4232.05127,4287.94873,4290.384766,4216.410156,4218.205078,4231.410156,4215.384766,4213.205078,4216.922852,4538.205078,4537.05127,4374.615234,4460.512695,0.0,2.0,36.0,,,,0.0,4.0,4.0,4.0,4.0,4.0,4.0,4.0,4.0,4.0,4.0,4.0,4.0,4.0,4.0,100.0,,,,,,,,,,,,,,,,,,,,,,,,,,,,,,,,,,,,,,,,,,,,,,,,,,,,,,,,0.0,0.0,1.0,0.0,1.0,0.0,,,,,,,,,,,,,,,,,,,,,,,,,,,,,,,,,,,,,,,,,,,,,,,,,,,,,,,,,,,,,,,,,,,,,,
1725618194.192819,1725618194.19277,43.0,0.0,4262.820313,4231.282227,4285.384766,4289.358887,4216.410156,4218.077148,4229.743652,4215.384766,4212.820313,4216.025879,4535.512695,4537.692383,4370.769043,4457.692383,0.0,2.0,36.0,,,,0.0,4.0,4.0,4.0,4.0,4.0,4.0,4.0,4.0,4.0,4.0,4.0,4.0,4.0,4.0,100.0,,,,,,,,,,,,,,,,,,,,,,,,,,,,,,,,,,,,,,,,,,,,,,,,,,,,,,,,,,,,,,,,,,,,,,,,,,,,,,,,,,,,,,,,,,,,,,,,,,,,,,,,,,,,,,,,,,,,,,,,,,,,,,,,,,,
1725618194.196723,1725618194.196774,44.0,0.0,4263.333496,4233.205078,4284.358887,4289.230957,4216.410156,4219.487305,4230.256348,4216.922852,4213.846191,4216.153809,4536.282227,4539.102539,4371.025879,4456.666504,0.0,2.0,36.0,,,,0.0,4.0,4.0,4.0,4.0,4.0,4.0,4.0,4.0,4.0,4.0,4.0,4.0,4.0,4.0,100.0,,,,,,,,,,,,,,,,,,,,,,,,,,,,,,,,,,,,,,,,,,,,,,,,,,,,,,,,,,,,,,,,,,,,,,,,,,,,,,,,,,,,,,,,,,,,,,,,,,,,,,,,,,,,,,,,,,,,,,,,,,,,,,,,,,,
1725618194.200627,1725618194.200678,45.0,0.0,4264.230957,4236.153809,4285.128418,4289.102539,4216.410156,4220.897461,4231.666504,4219.102539,4215.769043,4217.436035,4539.230957,4540.512695,4375.769043,4458.205078,0.0,2.0,36.0,,,,0.0,4.0,4.0,4.0,4.0,4.0,4.0,4.0,4.0,4.0,4.0,4.0,4.0,4.0,4.0,100.0,,,,,,,,,,,,,,,,,,,,,,,,,,,,,,,,,,,,,,,,,,,,,,,,,,,,,,,,,,,,,,,,,,,,,,,,,,,,,,,,,,,,,,,,,,,,,,,,,,,,,,,,,,,,,,,,,,,,,,,,,,,,,,,,,,,
1725618194.204532,1725618194.204582,46.0,0.0,4263.846191,4237.820313,4286.538574,4288.589844,4216.410156,4221.025879,4232.05127,4219.358887,4216.538574,4219.102539,4541.922852,4541.410156,4381.666504,4460.897461,0.0,2.0,36.0,,,,0.0,4.0,4.0,4.0,4.0,4.0,4.0,4.0,4.0,4.0,4.0,4.0,4.0,4.0,4.0,100.0,,,,,,,,,,,,,,,,,,,,,,,,,,,,,,,,,,,,,,,,,,,,,,,,,,,,,,,,,,,,,,,,,,,,,,,,,,,,,,,,,,,,,,,,,,,,,,,,,,,,,,,,,,,,,,,,,,,,,,,,,,,,,,,,,,,
1725618194.208436,1725618194.208486,47.0,0.0,4261.153809,4237.307617,4287.563965,4288.205078,4216.410156,4220.128418,4230.897461,4215.769043,4214.487305,4219.358887,4542.820313,4540.897461,4383.717773,4462.436035,0.0,2.0,36.0,,,,0.0,4.0,4.0,4.0,4.0,4.0,4.0,4.0,4.0,4.0,4.0,4.0,4.0,4.0,4.0,100.0,,,,,,,,,,,,,,,,,,,,,,,,,,,,,,,,,,,,,,,,,,,,,,,,,,,,,,,,,,,,,,,,,,,,,,,,,,,,,,,,,,,,,,,,,,,,,,,,,,,,,,,,,,,,,,,,,,,,,,,,,,,,,,,,,,,
1725618194.21234,1725618194.21249,48.0,0.0,4256.666504,4235.256348,4286.922852,4288.333496,4216.410156,4219.102539,4229.102539,4209.102539,4209.615234,4217.436035,4542.05127,4538.333496,4380.256348,4460.897461,0.0,2.0,36.0,,,,0.0,4.0,4.0,4.0,4.0,4.0,4.0,4.0,4.0,4.0,4.0,4.0,4.0,4.0,4.0,100.0,,,,,,,,,,,,,,,,,,,,,,,,,,,,,,,,,,,,,,,,,,,,,,,,,,,,,,,,,,,,,,,,,,,,,,,,,,,,,,,,,,,,,,,,,,,,,,,,,,,,,,,,,,,,,,,,,,,,,,,,,,,,,,,,,,,
1725618194.216244,1725618194.216394,49.0,0.0,4252.179688,4233.461426,4284.871582,4288.333496,4216.410156,4218.589844,4228.205078,4202.307617,4203.589844,4213.205078,4539.871582,4534.102539,4373.205078,4456.282227,0.0,2.0,36.0,,,,0.0,4.0,4.0,4.0,4.0,4.0,4.0,4.0,4.0,4.0,4.0,4.0,4.0,4.0,4.0,100.0,,,,,,,,,,,,,,,,,,,,,,,,,,,,,,,,,,,,,,,,,,,,,,,,,,,,,,,,,,,,,,,,,,,,,,,,,,,,,,,,,,,,,,,,,,,,,,,,,,,,,,,,,,,,,,,,,,,,,,,,,,,,,,,,,,,
1725618194.220148,1725618194.220298,50.0,0.0,4249.615234,4233.077148,4282.307617,4287.820313,4216.410156,4218.333496,4228.589844,4198.974121,4198.974121,4207.563965,4536.153809,4529.871582,4366.794922,4450.512695,0.0,2.0,36.0,,,,0.0,4.0,4.0,4.0,4.0,4.0,4.0,4.0,4.0,4.0,4.0,4.0,4.0,4.0,4.0,100.0,,,,,,,,,,,,,,,,,,,,,,,,,,,,,,,,,,,,,,,,,,,,,,,,,,,,,,,,0.0,0.0,1.0,0.0,1.0,0.0,,,,,,,,,,,,,,,,,,,,,,,,,,,,,,,,,,,,,,,,,,,,,,,,,,,,,,,,,,,,,,,,,,,,,,
1725618194.224052,1725618194.224202,51.0,0.0,4249.358887,4234.102539,4281.025879,4286.666504,4216.410156,4217.94873,4229.743652,4199.871582,4197.307617,4202.692383,4530.769043,4527.563965,4364.102539,4446.025879,0.0,2.0,36.0,,,,0.0,4.0,4.0,4.0,4.0,4.0,4.0,4.0,4.0,4.0,4.0,4.0,4.0,4.0,4.0,100.0,,,,,,,,,,,,,,,,,,,,,,,,,,,,,,,,,,,,,,,,,,,,,,,,,,,,,,,,,,,,,,,,,,,,,,,,,,,,,,,,,,,,,,,,,,,,,,,,,,,,,,,,,,,,,,,,,,,,,,,,,,,,,,,,,,,
1725618194.227956,1725618194.228006,52.0,0.0,4250.128418,4235.641113,4281.025879,4285.128418,4216.410156,4217.436035,4230.256348,4202.94873,4198.589844,4200.256348,4524.615234,4527.307617,4365.0,4444.358887,0.0,2.0,36.0,,,,0.0,4.0,4.0,4.0,4.0,4.0,4.0,4.0,4.0,4.0,4.0,4.0,4.0,4.0,4.0,100.0,,,,,,,,,,,,,,,,,,,,,,,,,,,,,,,,,,,,,,,,,,,,,,,,,,,,,,,,,,,,,,,,,,,,,,,,,,,,,,,,,,,,,,,,,,,,,,,,,,,,,,,,,,,,,,,,,,,,,,,,,,,,,,,,,,,
1725618194.23186,1725618194.231911,53.0,0.0,4250.641113,4236.922852,4281.410156,4283.589844,4216.410156,4217.179688,4229.615234,4204.743652,4201.025879,4200.512695,4520.384766,4527.563965,4367.05127,4444.871582,0.0,2.0,36.0,,,,0.0,4.0,4.0,4.0,4.0,4.0,4.0,4.0,4.0,4.0,4.0,4.0,4.0,4.0,4.0,100.0,,,,,,,,,,,,,,,,,,,,,,,,,,,,,,,,,,,,,,,,,,,,,,,,,,,,,,,,,,,,,,,,,,,,,,,,,,,,,,,,,,,,,,,,,,,,,,,,,,,,,,,,,,,,,,,,,,,,,,,,,,,,,,,,,,,
1725618194.235764,1725618194.235815,54.0,0.0,4249.871582,4237.563965,4281.025879,4282.307617,4216.410156,4216.794922,4228.205078,4203.846191,4202.436035,4201.922852,4520.512695,4526.153809,4367.307617,4445.256348,0.0,2.0,36.0,,,,0.0,4.0,4.0,4.0,4.0,4.0,4.0,4.0,4.0,4.0,4.0,4.0,4.0,4.0,4.0,100.0,,,,,,,,,,,,,,,,,,,,,,,,,,,,,,,,,,,,,,,,,,,,,,,,,,,,,,,,,,,,,,,,,,,,,,,,,,,,,,,,,,,,,,,,,,,,,,,,,,,,,,,,,,,,,,,,,,,,,,,,,,,,,,,,,,,
1725618194.239668,1725618194.239719,55.0,0.0,4248.205078,4237.307617,4279.358887,4281.025879,4216.410156,4216.666504,4226.538574,4201.538574,4201.794922,4202.820313,4525.384766,4522.692383,4365.384766,4443.974121,0.0,2.0,36.0,,,,0.0,4.0,4.0,4.0,4.0,4.0,4.0,4.0,4.0,4.0,4.0,4.0,4.0,4.0,4.0,100.0,,,,,,,,,,,,,,,,,,,,,,,,,,,,,,,,,,,,,,,,,,,,,,,,,,,,,,,,,,,,,,,,,,,,,,,,,,,,,,,,,,,,,,,,,,,,,,,,,,,,,,,,,,,,,,,,,,,,,,,,,,,,,,,,,,,
1725618194.243573,1725618194.243523,56.0,0.0,4246.666504,4236.153809,4277.307617,4280.128418,4216.410156,4217.179688,4225.512695,4200.897461,4199.743652,4202.563965,4532.436035,4519.358887,4362.94873,4441.538574,0.0,2.0,36.0,,,,0.0,4.0,4.0,4.0,4.0,4.0,4.0,4.0,4.0,4.0,4.0,4.0,4.0,4.0,4.0,100.0,,,,,,,,,,,,,,,,,,,,,,,,,,,,,,,,,,,,,,,,,,,,,,,,,,,,,,,,,,,,,,,,,,,,,,,,,,,,,,,,,,,,,,,,,,,,,,,,,,,,,,,,,,,,,,,,,,,,,,,,,,,,,,,,,,,
1725618194.247477,1725618194.247427,57.0,0.0,4246.538574,4235.0,4276.410156,4279.871582,4216.410156,4218.205078,4225.769043,4203.589844,4198.717773,4202.820313,4538.333496,4518.589844,4362.820313,4439.871582,0.0,2.0,36.0,,,,0.0,4.0,4.0,4.0,4.0,4.0,4.0,4.0,4.0,4.0,4.0,4.0,4.0,4.0,4.0,100.0,,,,,,,,,,,,,,,,,,,,,,,,,,,,,,,,,,,,,,,,,,,,,,,,,,,,,,,,,,,,,,,,,,,,,,,,,,,,,,,,,,,,,,,,,,,,,,,,,,,,,,,,,,,,,,,,,,,,,,,,,,,,,,,,,,,
1725618194.251381,1725618194.251331,58.0,0.0,4247.692383,4234.615234,4277.05127,4280.256348,4216.410156,4219.743652,4227.05127,4209.358887,4200.128418,4205.128418,4540.769043,4520.512695,4365.897461,4440.512695,0.0,2.0,36.0,,,,0.0,4.0,4.0,4.0,4.0,4.0,4.0,4.0,4.0,4.0,4.0,4.0,4.0,4.0,4.0,100.0,,,,,,,,,,,,,,,,,,,,,,,,,,,,,,,,,,,,,,,,,,,,,,,,,,,,,,,,0.0,0.0,1.0,0.0,1.0,0.0,,,,,,,,,,,,,,,,,,,,,,,,,,,,,,,,,,,,,,,,,,,,,,,,,,,,,,,,,,,,,,,,,,,,,,
1725618194.255285,1725618194.255335,59.0,0.0,4249.102539,4234.871582,4277.820313,4280.769043,4216.410156,4220.769043,4227.820313,4215.512695,4203.589844,4209.487305,4540.256348,4523.077148,4371.153809,4442.94873,0.0,2.0,36.0,,,,0.0,4.0,4.0,4.0,4.0,4.0,4.0,4.0,4.0,4.0,4.0,4.0,4.0,4.0,4.0,100.0,,,,,,,,,,,,,,,,,,,,,,,,,,,,,,,,,,,,,,,,,,,,,,,,,,,,,,,,,,,,,,,,,,,,,,,,,,,,,,,,,,,,,,,,,,,,,,,,,,,,,,,,,,,,,,,,,,,,,,,,,,,,,,,,,,,
1725618194.259189,1725618194.259239,60.0,0.0,4249.358887,4234.743652,4277.436035,4280.897461,4216.410156,4221.025879,4226.922852,4219.102539,4208.077148,4213.974121,4538.205078,4524.487305,4375.128418,4445.128418,0.0,2.0,36.0,,,,0.0,4.0,4.0,4.0,4.0,4.0,4.0,4.0,4.0,4.0,4.0,4.0,4.0,4.0,4.0,100.0,,,,,,,,,,,,,,,,,,,,,,,,,,,,,,,,,,,,,,,,,,,,,,,,,,,,,,,,,,,,,,,,,,,,,,,,,,,,,,,,,,,,,,,,,,,,,,,,,,,,,,,,,,,,,,,,,,,,,,,,,,,,,,,,,,,
1725618194.263093,1725618194.263143,61.0,0.0,4248.461426,4233.846191,4276.410156,4280.769043,4216.410156,4220.384766,4223.717773,4218.974121,4211.794922,4216.410156,4536.794922,4524.615234,4375.384766,4445.128418,0.0,2.0,36.0,,,,0.0,4.0,4.0,4.0,4.0,4.0,4.0,4.0,4.0,4.0,4.0,4.0,4.0,4.0,4.0,100.0,,,,,,,,,,,,,,,,,,,,,,,,,,,,,,,,,,,,,,,,,,,,,,,,,,,,,,,,,,,,,,,,,,,,,,,,,,,,,,,,,,,,,,,,,,,,,,,,,,,,,,,,,,,,,,,,,,,,,,,,,,,,,,,,,,,
1725618194.266997,1725618194.267047,62.0,0.0,4247.436035,4233.077148,4276.153809,4281.410156,4216.410156,4220.0,4219.487305,4216.538574,4214.230957,4216.666504,4536.794922,4525.512695,4372.179688,4443.461426,0.0,2.0,36.0,,,,0.0,4.0,4.0,4.0,4.0,4.0,4.0,4.0,4.0,4.0,4.0,4.0,4.0,4.0,4.0,100.0,,,,,,,,,,,,,,,,,,,,,,,,,,,,,,,,,,,,,,,,,,,,,,,,,,,,,,,,,,,,,,,,,,,,,,,,,,,,,,,,,,,,,,,,,,,,,,,,,,,,,,,,,,,,,,,,,,,,,,,,,,,,,,,,,,,
1725618194.270901,1725618194.271051,63.0,0.0,4247.820313,4233.589844,4278.461426,4283.461426,4216.410156,4221.410156,4216.538574,4215.0,4215.256348,4215.641113,4537.94873,4529.358887,4368.717773,4442.307617,0.0,2.0,36.0,,,,0.0,4.0,4.0,4.0,4.0,4.0,4.0,4.0,4.0,4.0,4.0,4.0,4.0,4.0,4.0,100.0,,,,,,,,,,,,,,,,,,,,,,,,,,,,,,,,,,,,,,,,,,,,,,,,,,,,,,,,,,,,,,,,,,,,,,,,,,,,,,,,,,,,,,,,,,,,,,,,,,,,,,,,,,,,,,,,,,,,,,,,,,,,,,,,,,,
1725618194.274805,1725618194.274956,64.0,0.0,4249.743652,4235.897461,4282.820313,4286.538574,4216.410156,4225.0,4217.05127,4216.410156,4214.871582,4214.743652,4539.487305,4535.128418,4367.692383,4443.974121,0.0,2.0,36.0,,,,0.0,4.0,4.0,4.0,4.0,4.0,4.0,4.0,4.0,4.0,4.0,4.0,4.0,4.0,4.0,100.0,,,,,,,,,,,,,,,,,,,,,,,,,,,,,,,,,,,,,,,,,,,,,,,,,,,,,,,,,,,,,,,,,,,,,,,,,,,,,,,,,,,,,,,,,,,,,,,,,,,,,,,,,,,,,,,,,,,,,,,,,,,,,,,,,,,
1725618194.27871,1725618194.27886,65.0,0.0,4252.436035,4239.102539,4287.563965,4288.974121,4216.538574,4229.230957,4221.538574,4219.102539,4212.94873,4214.102539,4540.0,4539.358887,4368.974121,4448.205078,0.0,2.0,36.0,,,,0.0,4.0,4.0,4.0,4.0,4.0,4.0,4.0,4.0,4.0,4.0,4.0,4.0,4.0,4.0,100.0,,,,,,,,,,,,,,,,,,,,,,,,,,,,,,,,,,,,,,,,,,,,,,,,,,,,,,,,,,,,,,,,,,,,,,,,,,,,,,,,,,,,,,,,,,,,,,,,,,,,,,,,,,,,,,,,,,,,,,,,,,,,,,,,,,,
1725618194.282614,1725618194.282764,66.0,0.0,4253.974121,4241.153809,4290.0,4289.615234,4216.538574,4231.794922,4227.563965,4220.128418,4210.128418,4212.820313,4538.974121,4538.461426,4370.0,4451.922852,0.0,2.0,36.0,,,,0.0,4.0,4.0,4.0,4.0,4.0,4.0,4.0,4.0,4.0,4.0,4.0,4.0,4.0,4.0,100.0,1.0,100.0,4.0,4.0,4.0,4.0,4.0,4.0,4.0,4.0,4.0,4.0,4.0,4.0,4.0,4.0,1.0,0.0,0.0,,,,,,,,,,,,,,,,,,,,,,,,,,,,,,,,,,,,,0.0,0.0,1.0,0.0,1.0,0.0,1.529688,1.6485,0.49187,0.476007,0.063411,1.660858,1.394387,0.767473,0.350543,0.086825,1.663792,2.449854,0.773067,0.379969,0.096727,1.532826,1.340605,0.487492,0.240468,0.05961,1.10214,0.72987,0.239883,0.119248,0.035078,0.600798,0.457366,0.192348,0.137576,0.057958,0.589897,0.511709,0.190434,0.107869,0.042502,0.592555,2.594663,0.692191,0.306954,0.225676,0.858487,1.336781,0.746368,0.312048,0.081718,1.514928,1.991745,0.876301,0.446087,0.159617,2.954592,3.562465,1.325824,0.479903,0.192176,3.399562,4.68632,1.386752,0.8713,0.181157,2.070277,3.029015,1.245954,0.36396,0.149334,2.023658,3.02191,0.884397,0.483643,0.127356
1725618194.286518,1725618194.286768,67.0,0.0,4253.333496,4241.282227,4289.230957,4288.077148,4216.666504,4231.153809,4231.794922,4217.563965,4207.179688,4209.871582,4536.794922,4532.307617,4368.461426,4452.692383,0.0,2.0,36.0,,,,0.0,4.0,4.0,4.0,4.0,4.0,4.0,4.0,4.0,4.0,4.0,4.0,4.0,4.0,4.0,100.0,,,,,,,,,,,,,,,,,,,,,,,,,,,,,,,,,,,,,,,,,,,,,,,,,,,,,,,,,,,,,,,,,,,,,,,,,,,,,,,,,,,,,,,,,,,,,,,,,,,,,,,,,,,,,,,,,,,,,,,,,,,,,,,,,,,
1725618194.290422,1725618194.290672,68.0,0.0,4251.410156,4238.974121,4286.153809,4285.0,4216.794922,4227.307617,4231.794922,4211.922852,4204.615234,4205.641113,4534.871582,4524.871582,4364.230957,4450.128418,0.0,2.0,36.0,,,,0.0,4.0,4.0,4.0,4.0,4.0,4.0,4.0,4.0,4.0,4.0,4.0,4.0,4.0,4.0,100.0,,,,,,,,,,,,,,,,,,,,,,,,,,,,,,,,,,,,,,,,,,,,,,,,,,,,,,,,,,,,,,,,,,,,,,,,,,,,,,,,,,,,,,,,,,,,,,,,,,,,,,,,,,,,,,,,,,,,,,,,,,,,,,,,,,,
1725618194.294326,1725618194.294576,69.0,0.0,4250.0,4235.128418,4282.820313,4281.794922,4216.922852,4222.05127,4227.820313,4205.897461,4202.820313,4201.538574,4534.102539,4520.641113,4360.128418,4446.794922,0.0,2.0,36.0,,,,0.0,4.0,4.0,4.0,4.0,4.0,4.0,4.0,4.0,4.0,4.0,4.0,4.0,4.0,4.0,100.0,,,,,,,,,,,,,,,,,,,,,,,,,,,,,,,,,,,,,,,,,,,,,,,,,,,,,,,,,,,,,,,,,,,,,,,,,,,,,,,,,,,,,,,,,,,,,,,,,,,,,,,,,,,,,,,,,,,,,,,,,,,,,,,,,,,
1725618194.29823,1725618194.29848,70.0,0.0,4251.538574,4231.922852,4280.769043,4279.871582,4216.922852,4217.820313,4221.922852,4201.794922,4201.538574,4199.487305,4534.487305,4521.025879,4358.717773,4445.769043,0.0,2.0,36.0,,,,0.0,4.0,4.0,4.0,4.0,4.0,4.0,4.0,4.0,4.0,4.0,4.0,4.0,4.0,4.0,100.0,,,,,,,,,,,,,,,,,,,,,,,,,,,,,,,,,,,,,,,,,,,,,,,,,,,,,,,,,,,,,,,,,,,,,,,,,,,,,,,,,,,,,,,,,,,,,,,,,,,,,,,,,,,,,,,,,,,,,,,,,,,,,,,,,,,
1725618194.302134,1725618194.302484,71.0,0.0,4255.769043,4231.410156,4280.641113,4279.230957,4216.794922,4215.897461,4216.922852,4200.512695,4201.153809,4200.256348,4534.615234,4524.358887,4360.641113,4447.820313,0.0,2.0,36.0,,,,0.0,4.0,4.0,4.0,4.0,4.0,4.0,4.0,4.0,4.0,4.0,4.0,4.0,4.0,4.0,100.0,,,,,,,,,,,,,,,,,,,,,,,,,,,,,,,,,,,,,,,,,,,,,,,,,,,,,,,,,,,,,,,,,,,,,,,,,,,,,,,,,,,,,,,,,,,,,,,,,,,,,,,,,,,,,,,,,,,,,,,,,,,,,,,,,,,
1725618194.306038,1725618194.306388,72.0,0.0,4260.641113,4233.717773,4282.05127,4279.358887,4216.666504,4216.410156,4214.871582,4201.025879,4201.282227,4202.179688,4533.589844,4527.179688,4364.230957,4451.666504,0.0,2.0,36.0,,,,0.0,4.0,4.0,4.0,4.0,4.0,4.0,4.0,4.0,4.0,4.0,4.0,4.0,4.0,4.0,100.0,,,,,,,,,,,,,,,,,,,,,,,,,,,,,,,,,,,,,,,,,,,,,,,,,,,,,,,,,,,,,,,,,,,,,,,,,,,,,,,,,,,,,,,,,,,,,,,,,,,,,,,,,,,,,,,,,,,,,,,,,,,,,,,,,,,
1725618194.309942,1725618194.310292,73.0,0.0,4262.563965,4236.410156,4283.846191,4279.230957,4216.538574,4217.692383,4215.769043,4201.666504,4201.538574,4202.94873,4531.153809,4528.077148,4366.538574,4454.743652,0.0,2.0,36.0,,,,0.0,4.0,4.0,4.0,4.0,4.0,4.0,4.0,4.0,4.0,4.0,4.0,4.0,4.0,4.0,100.0,,,,,,,,,,,,,,,,,,,,,,,,,,,,,,,,,,,,,,,,,,,,,,,,,,,,,,,,,,,,,,,,,,,,,,,,,,,,,,,,,,,,,,,,,,,,,,,,,,,,,,,,,,,,,,,,,,,,,,,,,,,,,,,,,,,
1725618194.313846,1725618194.314196,74.0,0.0,4260.256348,4236.282227,4284.358887,4278.333496,4216.410156,4218.333496,4217.94873,4202.05127,4200.641113,4200.769043,4527.692383,4526.794922,4366.282227,4454.743652,0.0,2.0,36.0,,,,0.0,4.0,4.0,4.0,4.0,4.0,4.0,4.0,4.0,4.0,4.0,4.0,4.0,4.0,4.0,100.0,,,,,,,,,,,,,,,,,,,,,,,,,,,,,,,,,,,,,,,,,,,,,,,,,,,,,,,,0.0,0.0,1.0,0.0,1.0,0.0,,,,,,,,,,,,,,,,,,,,,,,,,,,,,,,,,,,,,,,,,,,,,,,,,,,,,,,,,,,,,,,,,,,,,,
1725618194.317751,1725618194.318001,75.0,0.0,4254.743652,4231.794922,4282.307617,4276.666504,4215.897461,4217.563965,4219.102539,4201.666504,4198.846191,4196.922852,4524.102539,4524.615234,4364.487305,4451.153809,0.0,2.0,36.0,,,,0.0,4.0,4.0,4.0,4.0,4.0,4.0,4.0,4.0,4.0,4.0,4.0,4.0,4.0,4.0,100.0,,,,,,,,,,,,,,,,,,,,,,,,,,,,,,,,,,,,,,,,,,,,,,,,,,,,,,,,,,,,,,,,,,,,,,,,,,,,,,,,,,,,,,,,,,,,,,,,,,,,,,,,,,,,,,,,,,,,,,,,,,,,,,,,,,,
1725618194.321655,1725618194.321905,76.0,0.0,4249.358887,4225.256348,4277.436035,4274.743652,4214.487305,4215.769043,4217.563965,4200.384766,4197.05127,4194.102539,4521.794922,4522.307617,4363.205078,4446.282227,0.0,2.0,36.0,,,,0.0,4.0,4.0,4.0,4.0,4.0,4.0,4.0,4.0,4.0,4.0,4.0,4.0,4.0,4.0,100.0,,,,,,,,,,,,,,,,,,,,,,,,,,,,,,,,,,,,,,,,,,,,,,,,,,,,,,,,,,,,,,,,,,,,,,,,,,,,,,,,,,,,,,,,,,,,,,,,,,,,,,,,,,,,,,,,,,,,,,,,,,,,,,,,,,,
1725618194.325559,1725618194.325809,77.0,0.0,4246.794922,4220.384766,4271.025879,4272.820313,4211.666504,4213.974121,4213.461426,4198.077148,4196.025879,4193.717773,4521.538574,4519.615234,4363.077148,4442.820313,0.0,2.0,36.0,,,,0.0,4.0,4.0,4.0,4.0,4.0,4.0,4.0,4.0,4.0,4.0,4.0,4.0,4.0,4.0,100.0,,,,,,,,,,,,,,,,,,,,,,,,,,,,,,,,,,,,,,,,,,,,,,,,,,,,,,,,,,,,,,,,,,,,,,,,,,,,,,,,,,,,,,,,,,,,,,,,,,,,,,,,,,,,,,,,,,,,,,,,,,,,,,,,,,,
1725618194.329463,1725618194.329713,78.0,0.0,4247.563965,4219.487305,4265.769043,4271.153809,4207.820313,4213.205078,4207.94873,4195.897461,4195.897461,4194.871582,4523.461426,4516.153809,4363.333496,4442.563965,0.0,2.0,36.0,,,,0.0,4.0,4.0,4.0,4.0,4.0,4.0,4.0,4.0,4.0,4.0,4.0,4.0,4.0,4.0,100.0,,,,,,,,,,,,,,,,,,,,,,,,,,,,,,,,,,,,,,,,,,,,,,,,,,,,,,,,,,,,,,,,,,,,,,,,,,,,,,,,,,,,,,,,,,,,,,,,,,,,,,,,,,,,,,,,,,,,,,,,,,,,,,,,,,,
1725618194.333367,1725618194.333517,79.0,0.0,4250.384766,4222.05127,4264.102539,4270.512695,4203.846191,4213.846191,4203.077148,4195.641113,4196.025879,4196.153809,4526.538574,4512.563965,4363.333496,4445.512695,0.0,2.0,36.0,,,,0.0,4.0,4.0,4.0,4.0,4.0,4.0,4.0,4.0,4.0,4.0,4.0,4.0,4.0,4.0,100.0,,,,,,,,,,,,,,,,,,,,,,,,,,,,,,,,,,,,,,,,,,,,,,,,,,,,,,,,,,,,,,,,,,,,,,,,,,,,,,,,,,,,,,,,,,,,,,,,,,,,,,,,,,,,,,,,,,,,,,,,,,,,,,,,,,,
1725618194.337271,1725618194.337421,80.0,0.0,4253.333496,4225.769043,4267.05127,4271.282227,4200.769043,4215.641113,4200.128418,4198.205078,4196.794922,4196.794922,4529.487305,4511.794922,4363.717773,4450.641113,0.0,2.0,36.0,,,,0.0,4.0,4.0,4.0,4.0,4.0,4.0,4.0,4.0,4.0,4.0,4.0,4.0,4.0,4.0,100.0,,,,,,,,,,,,,,,,,,,,,,,,,,,,,,,,,,,,,,,,,,,,,,,,,,,,,,,,,,,,,,,,,,,,,,,,,,,,,,,,,,,,,,,,,,,,,,,,,,,,,,,,,,,,,,,,,,,,,,,,,,,,,,,,,,,
1725618194.341175,1725618194.341325,81.0,0.0,4256.153809,4228.846191,4273.077148,4273.717773,4199.230957,4217.307617,4199.871582,4203.717773,4198.846191,4197.820313,4531.410156,4516.922852,4366.282227,4456.153809,0.0,2.0,36.0,,,,0.0,4.0,4.0,4.0,4.0,4.0,4.0,4.0,4.0,4.0,4.0,4.0,4.0,4.0,4.0,100.0,,,,,,,,,,,,,,,,,,,,,,,,,,,,,,,,,,,,,,,,,,,,,,,,,,,,,,,,,,,,,,,,,,,,,,,,,,,,,,,,,,,,,,,,,,,,,,,,,,,,,,,,,,,,,,,,,,,,,,,,,,,,,,,,,,,
1725618194.345079,1725618194.345229,82.0,0.0,4259.102539,4230.512695,4279.871582,4276.538574,4199.358887,4218.717773,4201.666504,4210.512695,4202.563965,4200.769043,4533.333496,4528.461426,4371.794922,4460.512695,0.0,2.0,36.0,,,,0.0,4.0,4.0,4.0,4.0,4.0,4.0,4.0,4.0,4.0,4.0,4.0,4.0,4.0,4.0,100.0,,,,,,,,,,,,,,,,,,,,,,,,,,,,,,,,,,,,,,,,,,,,,,,,,,,,,,,,0.0,0.0,1.0,0.0,1.0,0.0,,,,,,,,,,,,,,,,,,,,,,,,,,,,,,,,,,,,,,,,,,,,,,,,,,,,,,,,,,,,,,,,,,,,,,
1725618194.348983,1725618194.349034,83.0,0.0,4261.922852,4231.025879,4284.358887,4278.461426,4200.0,4219.615234,4204.102539,4216.794922,4207.820313,4205.769043,4536.922852,4542.307617,4378.589844,4462.563965,0.0,2.0,36.0,,,,0.0,4.0,4.0,4.0,4.0,4.0,4.0,4.0,4.0,4.0,4.0,4.0,4.0,4.0,4.0,100.0,,,,,,,,,,,,,,,,,,,,,,,,,,,,,,,,,,,,,,,,,,,,,,,,,,,,,,,,,,,,,,,,,,,,,,,,,,,,,,,,,,,,,,,,,,,,,,,,,,,,,,,,,,,,,,,,,,,,,,,,,,,,,,,,,,,
1725618194.352888,1725618194.352938,84.0,0.0,4263.333496,4230.641113,4285.384766,4278.461426,4200.256348,4220.256348,4205.0,4220.641113,4213.461426,4211.922852,4542.436035,4552.563965,4383.077148,4462.05127,0.0,2.0,36.0,,,,0.0,4.0,4.0,4.0,4.0,4.0,4.0,4.0,4.0,4.0,4.0,4.0,4.0,4.0,4.0,100.0,,,,,,,,,,,,,,,,,,,,,,,,,,,,,,,,,,,,,,,,,,,,,,,,,,,,,,,,,,,,,,,,,,,,,,,,,,,,,,,,,,,,,,,,,,,,,,,,,,,,,,,,,,,,,,,,,,,,,,,,,,,,,,,,,,,
1725618194.356792,1725618194.356842,85.0,0.0,4262.05127,4229.230957,4283.333496,4277.307617,4200.128418,4220.256348,4203.717773,4221.410156,4217.820313,4217.05127,4548.333496,4554.871582,4382.436035,4459.871582,0.0,2.0,36.0,,,,0.0,4.0,4.0,4.0,4.0,4.0,4.0,4.0,4.0,4.0,4.0,4.0,4.0,4.0,4.0,100.0,,,,,,,,,,,,,,,,,,,,,,,,,,,,,,,,,,,,,,,,,,,,,,,,,,,,,,,,,,,,,,,,,,,,,,,,,,,,,,,,,,,,,,,,,,,,,,,,,,,,,,,,,,,,,,,,,,,,,,,,,,,,,,,,,,,
1725618194.360696,1725618194.360846,86.0,0.0,4257.94873,4226.410156,4280.256348,4276.153809,4200.0,4220.0,4201.538574,4220.769043,4219.615234,4219.743652,4552.307617,4549.871582,4378.077148,4457.692383,0.0,2.0,36.0,,,,0.0,4.0,4.0,4.0,4.0,4.0,4.0,4.0,4.0,4.0,4.0,4.0,4.0,4.0,4.0,100.0,,,,,,,,,,,,,,,,,,,,,,,,,,,,,,,,,,,,,,,,,,,,,,,,,,,,,,,,,,,,,,,,,,,,,,,,,,,,,,,,,,,,,,,,,,,,,,,,,,,,,,,,,,,,,,,,,,,,,,,,,,,,,,,,,,,
1725618194.3646,1725618194.36475,87.0,0.0,4252.563965,4222.307617,4278.077148,4275.512695,4200.512695,4219.871582,4201.025879,4221.666504,4219.230957,4219.743652,4553.333496,4543.205078,4373.461426,4457.179688,0.0,2.0,36.0,,,,0.0,4.0,4.0,4.0,4.0,4.0,4.0,4.0,4.0,4.0,4.0,4.0,4.0,4.0,4.0,100.0,,,,,,,,,,,,,,,,,,,,,,,,,,,,,,,,,,,,,,,,,,,,,,,,,,,,,,,,,,,,,,,,,,,,,,,,,,,,,,,,,,,,,,,,,,,,,,,,,,,,,,,,,,,,,,,,,,,,,,,,,,,,,,,,,,,
1725618194.368504,1725618194.368654,88.0,0.0,4248.205078,4218.077148,4277.307617,4275.512695,4201.538574,4220.128418,4203.589844,4225.641113,4218.461426,4218.589844,4552.307617,4540.384766,4372.179688,4458.461426,0.0,2.0,36.0,,,,0.0,4.0,4.0,4.0,4.0,4.0,4.0,4.0,4.0,4.0,4.0,4.0,4.0,4.0,4.0,100.0,,,,,,,,,,,,,,,,,,,,,,,,,,,,,,,,,,,,,,,,,,,,,,,,,,,,,,,,,,,,,,,,,,,,,,,,,,,,,,,,,,,,,,,,,,,,,,,,,,,,,,,,,,,,,,,,,,,,,,,,,,,,,,,,,,,
1725618194.372408,1725618194.372558,89.0,0.0,4246.025879,4215.897461,4278.077148,4275.641113,4202.307617,4220.384766,4208.589844,4231.025879,4218.846191,4217.94873,4551.153809,4543.205078,4374.615234,4460.128418,0.0,2.0,36.0,,,,0.0,4.0,4.0,4.0,4.0,4.0,4.0,4.0,4.0,4.0,4.0,4.0,4.0,4.0,4.0,100.0,,,,,,,,,,,,,,,,,,,,,,,,,,,,,,,,,,,,,,,,,,,,,,,,,,,,,,,,,,,,,,,,,,,,,,,,,,,,,,,,,,,,,,,,,,,,,,,,,,,,,,,,,,,,,,,,,,,,,,,,,,,,,,,,,,,
1725618194.376312,1725618194.376562,90.0,0.0,4246.666504,4217.563965,4280.0,4275.897461,4202.820313,4220.384766,4213.333496,4234.487305,4220.897461,4218.846191,4551.153809,4548.974121,4378.461426,4460.769043,0.0,2.0,36.0,,,,0.0,4.0,4.0,4.0,4.0,4.0,4.0,4.0,4.0,4.0,4.0,4.0,4.0,4.0,4.0,100.0,,,,,,,,,,,,,,,,,,,,,,,,,,,,,,,,,,,,,,,,,,,,,,,,,,,,,,,,0.0,0.0,1.0,0.0,1.0,0.0,,,,,,,,,,,,,,,,,,,,,,,,,,,,,,,,,,,,,,,,,,,,,,,,,,,,,,,,,,,,,,,,,,,,,,
1725618194.380216,1725618194.380466,91.0,0.0,4249.615234,4222.563965,4282.692383,4276.282227,4203.461426,4220.0,4216.025879,4233.077148,4223.461426,4220.256348,4552.563965,4553.461426,4380.897461,4460.256348,0.0,2.0,36.0,,,,0.0,4.0,4.0,4.0,4.0,4.0,4.0,4.0,4.0,4.0,4.0,4.0,4.0,4.0,4.0,100.0,,,,,,,,,,,,,,,,,,,,,,,,,,,,,,,,,,,,,,,,,,,,,,,,,,,,,,,,,,,,,,,,,,,,,,,,,,,,,,,,,,,,,,,,,,,,,,,,,,,,,,,,,,,,,,,,,,,,,,,,,,,,,,,,,,,
1725618194.38412,1725618194.38437,92.0,0.0,4254.102539,4228.461426,4285.256348,4277.05127,4205.512695,4219.615234,4216.666504,4227.307617,4224.743652,4220.769043,4554.102539,4554.358887,4381.153809,4459.358887,0.0,2.0,36.0,,,,0.0,4.0,4.0,4.0,4.0,4.0,4.0,4.0,4.0,4.0,4.0,4.0,4.0,4.0,4.0,100.0,,,,,,,,,,,,,,,,,,,,,,,,,,,,,,,,,,,,,,,,,,,,,,,,,,,,,,,,,,,,,,,,,,,,,,,,,,,,,,,,,,,,,,,,,,,,,,,,,,,,,,,,,,,,,,,,,,,,,,,,,,,,,,,,,,,
1725618194.388025,1725618194.388274,93.0,0.0,4258.717773,4232.436035,4286.922852,4278.717773,4209.230957,4219.743652,4216.282227,4220.128418,4223.846191,4220.128418,4554.743652,4552.94873,4380.256348,4459.487305,0.0,2.0,36.0,,,,0.0,4.0,4.0,4.0,4.0,4.0,4.0,4.0,4.0,4.0,4.0,4.0,4.0,4.0,4.0,100.0,,,,,,,,,,,,,,,,,,,,,,,,,,,,,,,,,,,,,,,,,,,,,,,,,,,,,,,,,,,,,,,,,,,,,,,,,,,,,,,,,,,,,,,,,,,,,,,,,,,,,,,,,,,,,,,,,,,,,,,,,,,,,,,,,,,
1725618194.391929,1725618194.392179,94.0,0.0,4261.282227,4233.461426,4287.179688,4281.025879,4213.717773,4220.256348,4216.282227,4215.0,4221.538574,4218.974121,4553.974121,4552.179688,4379.871582,4460.641113,0.0,2.0,36.0,,,,0.0,4.0,4.0,4.0,4.0,4.0,4.0,4.0,4.0,4.0,4.0,4.0,4.0,4.0,4.0,100.0,,,,,,,,,,,,,,,,,,,,,,,,,,,,,,,,,,,,,,,,,,,,,,,,,,,,,,,,,,,,,,,,,,,,,,,,,,,,,,,,,,,,,,,,,,,,,,,,,,,,,,,,,,,,,,,,,,,,,,,,,,,,,,,,,,,
1725618194.395833,1725618194.395983,95.0,0.0,4260.641113,4232.563965,4286.025879,4283.077148,4216.794922,4220.641113,4217.05127,4213.461426,4219.871582,4218.846191,4553.205078,4553.461426,4380.256348,4461.666504,0.0,2.0,36.0,,,,0.0,4.0,4.0,4.0,4.0,4.0,4.0,4.0,4.0,4.0,4.0,4.0,4.0,4.0,4.0,100.0,,,,,,,,,,,,,,,,,,,,,,,,,,,,,,,,,,,,,,,,,,,,,,,,,,,,,,,,,,,,,,,,,,,,,,,,,,,,,,,,,,,,,,,,,,,,,,,,,,,,,,,,,,,,,,,,,,,,,,,,,,,,,,,,,,,
1725618194.399737,1725618194.399887,96.0,0.0,4257.179688,4231.410156,4283.974121,4283.846191,4217.179688,4220.256348,4218.333496,4214.743652,4219.487305,4219.743652,4553.461426,4555.512695,4380.384766,4461.794922,0.0,2.0,36.0,,,,0.0,4.0,4.0,4.0,4.0,4.0,4.0,4.0,4.0,4.0,4.0,4.0,4.0,4.0,4.0,100.0,,,,,,,,,,,,,,,,,,,,,,,,,,,,,,,,,,,,,,,,,,,,,,,,,,,,,,,,,,,,,,,,,,,,,,,,,,,,,,,,,,,,,,,,,,,,,,,,,,,,,,,,,,,,,,,,,,,,,,,,,,,,,,,,,,,
1725618194.403641,1725618194.403791,97.0,0.0,4253.333496,4230.512695,4281.538574,4282.563965,4215.256348,4218.846191,4218.974121,4216.666504,4220.128418,4221.282227,4554.102539,4555.384766,4379.358887,4460.384766,0.0,2.0,36.0,,,,0.0,4.0,4.0,4.0,4.0,4.0,4.0,4.0,4.0,4.0,4.0,4.0,4.0,4.0,4.0,100.0,,,,,,,,,,,,,,,,,,,,,,,,,,,,,,,,,,,,,,,,,,,,,,,,,,,,,,,,,,,,,,,,,,,,,,,,,,,,,,,,,,,,,,,,,,,,,,,,,,,,,,,,,,,,,,,,,,,,,,,,,,,,,,,,,,,
1725618194.407545,1725618194.407695,98.0,0.0,4252.179688,4229.743652,4279.487305,4280.0,4212.94873,4216.666504,4218.205078,4217.692383,4220.0,4221.922852,4553.717773,4552.436035,4377.94873,4458.205078,0.0,2.0,36.0,,,,0.0,4.0,4.0,4.0,4.0,4.0,4.0,4.0,4.0,4.0,4.0,4.0,4.0,4.0,4.0,100.0,,,,,,,,,,,,,,,,,1.0,0.0,0.0,,,,,,,,,,,,,,,,,,,,,,,,,,,,,,,,,,,,,0.0,0.0,1.0,0.0,1.0,0.0,1.46496,1.826948,0.502456,0.474694,0.067512,1.630798,1.525523,0.850022,0.365841,0.092341,1.409712,2.711141,0.851135,0.404058,0.099514,1.423608,1.556304,0.558096,0.264499,0.065976,1.131206,0.821769,0.293277,0.12643,0.035579,0.450551,0.478521,0.201401,0.132123,0.062886,0.633019,0.520354,0.23377,0.10854,0.03836,0.502936,2.962531,0.876827,0.324457,0.218864,0.862714,1.527953,0.819584,0.341125,0.092839,1.731578,2.272665,0.979072,0.47249,0.172781,2.508858,4.105235,1.504553,0.504655,0.196981,2.710526,5.168807,1.667477,0.844517,0.200843,1.94159,3.484008,1.412513,0.391242,0.174067,1.600073,3.391424,0.952614,0.483551,0.146305
1725618194.411449,1725618194.411499,99.0,0.0,4254.615234,4228.974121,4279.487305,4278.717773,4212.179688,4215.0,4216.538574,4217.05127,4218.589844,4221.282227,4551.410156,4548.846191,4377.692383,4456.794922,0.0,2.0,36.0,,,,0.0,4.0,4.0,4.0,4.0,4.0,4.0,4.0,4.0,4.0,4.0,4.0,4.0,4.0,4.0,100.0,,,,,,,,,,,,,,,,,,,,,,,,,,,,,,,,,,,,,,,,,,,,,,,,,,,,,,,,,,,,,,,,,,,,,,,,,,,,,,,,,,,,,,,,,,,,,,,,,,,,,,,,,,,,,,,,,,,,,,,,,,,,,,,,,,,
1725618194.415353,1725618194.415403,100.0,0.0,4260.0,4229.102539,4282.692383,4280.897461,4213.333496,4214.871582,4215.384766,4215.769043,4217.179688,4219.487305,4548.205078,4548.717773,4379.230957,4457.820313,0.0,2.0,36.0,,,,0.0,4.0,4.0,4.0,4.0,4.0,4.0,4.0,4.0,4.0,4.0,4.0,4.0,4.0,4.0,100.0,,,,,,,,,,,,,,,,,,,,,,,,,,,,,,,,,,,,,,,,,,,,,,,,,,,,,,,,,,,,,,,,,,,,,,,,,,,,,,,,,,,,,,,,,,,,,,,,,,,,,,,,,,,,,,,,,,,,,,,,,,,,,,,,,,,
1725618194.419258,1725618194.419308,101.0,0.0,4265.897461,4230.897461,4288.589844,4286.666504,4215.641113,4216.153809,4215.512695,4215.0,4216.666504,4217.436035,4546.922852,4552.820313,4381.922852,4461.282227,0.0,2.0,36.0,,,,0.0,4.0,4.0,4.0,4.0,4.0,4.0,4.0,4.0,4.0,4.0,4.0,4.0,4.0,4.0,100.0,,,,,,,,,,,,,,,,,,,,,,,,,,,,,,,,,,,,,,,,,,,,,,,,,,,,,,,,,,,,,,,,,,,,,,,,,,,,,,,,,,,,,,,,,,,,,,,,,,,,,,,,,,,,,,,,,,,,,,,,,,,,,,,,,,,
1725618194.423162,1725618194.423212,102.0,0.0,4269.615234,4233.974121,4294.743652,4293.205078,4217.692383,4218.205078,4216.666504,4215.512695,4217.692383,4216.153809,4548.717773,4558.077148,4384.102539,4465.128418,0.0,2.0,36.0,,,,0.0,4.0,4.0,4.0,4.0,4.0,4.0,4.0,4.0,4.0,4.0,4.0,4.0,4.0,4.0,100.0,,,,,,,,,,,,,,,,,,,,,,,,,,,,,,,,,,,,,,,,,,,,,,,,,,,,,,,,,,,,,,,,,,,,,,,,,,,,,,,,,,,,,,,,,,,,,,,,,,,,,,,,,,,,,,,,,,,,,,,,,,,,,,,,,,,
1725618194.427066,1725618194.427116,103.0,0.0,4269.743652,4236.794922,4297.563965,4296.922852,4218.461426,4219.743652,4218.333496,4217.05127,4219.102539,4216.153809,4551.922852,4558.846191,4383.717773,4466.794922,0.0,2.0,36.0,,,,0.0,4.0,4.0,4.0,4.0,4.0,4.0,4.0,4.0,4.0,4.0,4.0,4.0,4.0,4.0,100.0,,,,,,,,,,,,,,,,,,,,,,,,,,,,,,,,,,,,,,,,,,,,,,,,,,,,,,,,,,,,,,,,,,,,,,,,,,,,,,,,,,,,,,,,,,,,,,,,,,,,,,,,,,,,,,,,,,,,,,,,,,,,,,,,,,,
1725618194.43097,1725618194.43102,104.0,0.0,4267.307617,4237.692383,4295.512695,4295.769043,4218.461426,4219.871582,4219.871582,4217.692383,4218.717773,4216.538574,4552.94873,4552.563965,4380.384766,4464.615234,0.0,2.0,36.0,,,,0.0,4.0,4.0,4.0,4.0,4.0,4.0,4.0,4.0,4.0,4.0,4.0,4.0,4.0,4.0,100.0,,,,,,,,,,,,,,,,,,,,,,,,,,,,,,,,,,,,,,,,,,,,,,,,,,,,,,,,,,,,,,,,,,,,,,,,,,,,,,,,,,,,,,,,,,,,,,,,,,,,,,,,,,,,,,,,,,,,,,,,,,,,,,,,,,,
1725618194.434874,1725618194.434924,105.0,0.0,4263.333496,4234.743652,4289.487305,4290.512695,4218.077148,4218.589844,4220.384766,4216.025879,4215.384766,4215.512695,4548.717773,4541.794922,4374.871582,4458.846191,0.0,2.0,36.0,,,,0.0,4.0,4.0,4.0,4.0,4.0,4.0,4.0,4.0,4.0,4.0,4.0,4.0,4.0,4.0,100.0,,,,,,,,,,,,,,,,,,,,,,,,,,,,,,,,,,,,,,,,,,,,,,,,,,,,,,,,,,,,,,,,,,,,,,,,,,,,,,,,,,,,,,,,,,,,,,,,,,,,,,,,,,,,,,,,,,,,,,,,,,,,,,,,,,,
1725618194.438778,1725618194.438728,106.0,0.0,4258.846191,4228.589844,4282.307617,4283.974121,4216.922852,4216.538574,4218.974121,4211.794922,4209.615234,4211.153809,4539.358887,4531.666504,4368.589844,4450.897461,0.0,2.0,36.0,,,,0.0,4.0,4.0,4.0,4.0,4.0,4.0,4.0,4.0,4.0,4.0,4.0,4.0,4.0,4.0,100.0,,,,,,,,,,,,,,,,,,,,,,,,,,,,,,,,,,,,,,,,,,,,,,,,,,,,,,,,0.0,0.0,1.0,0.0,1.0,0.0,,,,,,,,,,,,,,,,,,,,,,,,,,,,,,,,,,,,,,,,,,,,,,,,,,,,,,,,,,,,,,,,,,,,,,
1725618194.442682,1725618194.442632,107.0,0.0,4253.205078,4221.025879,4276.410156,4278.846191,4213.974121,4215.128418,4215.0,4206.410156,4203.333496,4203.974121,4527.692383,4525.512695,4361.922852,4442.307617,0.0,2.0,36.0,,,,0.0,4.0,4.0,4.0,4.0,4.0,4.0,4.0,4.0,4.0,4.0,4.0,4.0,4.0,4.0,100.0,,,,,,,,,,,,,,,,,,,,,,,,,,,,,,,,,,,,,,,,,,,,,,,,,,,,,,,,,,,,,,,,,,,,,,,,,,,,,,,,,,,,,,,,,,,,,,,,,,,,,,,,,,,,,,,,,,,,,,,,,,,,,,,,,,,
1725618194.446586,1725618194.446536,108.0,0.0,4245.512695,4214.487305,4272.563965,4274.871582,4208.589844,4214.743652,4209.102539,4202.179688,4198.974121,4195.769043,4517.179688,4522.692383,4354.615234,4434.102539,0.0,2.0,36.0,,,,0.0,4.0,4.0,4.0,4.0,4.0,4.0,4.0,4.0,4.0,4.0,4.0,4.0,4.0,4.0,100.0,,,,,,,,,,,,,,,,,,,,,,,,,,,,,,,,,,,,,,,,,,,,,,,,,,,,,,,,,,,,,,,,,,,,,,,,,,,,,,,,,,,,,,,,,,,,,,,,,,,,,,,,,,,,,,,,,,,,,,,,,,,,,,,,,,,
1725618194.45049,1725618194.45044,109.0,0.0,4236.025879,4209.358887,4268.717773,4270.256348,4201.025879,4215.641113,4203.333496,4200.897461,4196.794922,4188.333496,4509.487305,4519.487305,4346.153809,4426.410156,0.0,2.0,36.0,,,,0.0,4.0,4.0,4.0,4.0,4.0,4.0,4.0,4.0,4.0,4.0,4.0,4.0,4.0,4.0,100.0,,,,,,,,,,,,,,,,,,,,,,,,,,,,,,,,,,,,,,,,,,,,,,,,,,,,,,,,,,,,,,,,,,,,,,,,,,,,,,,,,,,,,,,,,,,,,,,,,,,,,,,,,,,,,,,,,,,,,,,,,,,,,,,,,,,
1725618194.454394,1725618194.454245,110.0,0.0,4226.282227,4204.230957,4262.820313,4263.333496,4192.563965,4216.794922,4199.230957,4202.820313,4196.282227,4182.692383,4504.615234,4513.205078,4336.922852,4419.102539,0.0,2.0,36.0,,,,0.0,4.0,4.0,4.0,4.0,4.0,4.0,4.0,4.0,4.0,4.0,4.0,4.0,4.0,4.0,100.0,,,,,,,,,,,,,,,,,,,,,,,,,,,,,,,,,,,,,,,,,,,,,,,,,,,,,,,,,,,,,,,,,,,,,,,,,,,,,,,,,,,,,,,,,,,,,,,,,,,,,,,,,,,,,,,,,,,,,,,,,,,,,,,,,,,
1725618194.458299,1725618194.458149,111.0,0.0,4218.077148,4197.307617,4254.230957,4254.487305,4185.384766,4217.179688,4197.563965,4207.307617,4195.769043,4178.717773,4501.282227,4504.871582,4327.94873,4412.307617,0.0,2.0,36.0,,,,0.0,4.0,4.0,4.0,4.0,4.0,4.0,4.0,4.0,4.0,4.0,4.0,4.0,4.0,4.0,100.0,,,,,,,,,,,,,,,,,,,,,,,,,,,,,,,,,,,,,,,,,,,,,,,,,,,,,,,,,,,,,,,,,,,,,,,,,,,,,,,,,,,,,,,,,,,,,,,,,,,,,,,,,,,,,,,,,,,,,,,,,,,,,,,,,,,
1725618194.462203,1725618194.462053,112.0,0.0,4213.077148,4189.230957,4245.384766,4246.538574,4181.666504,4216.410156,4197.179688,4212.820313,4195.256348,4176.025879,4498.717773,4499.102539,4321.538574,4407.05127,0.0,2.0,36.0,,,,0.0,4.0,4.0,4.0,4.0,4.0,4.0,4.0,4.0,4.0,4.0,4.0,4.0,4.0,4.0,100.0,,,,,,,,,,,,,,,,,,,,,,,,,,,,,,,,,,,,,,,,,,,,,,,,,,,,,,,,,,,,,,,,,,,,,,,,,,,,,,,,,,,,,,,,,,,,,,,,,,,,,,,,,,,,,,,,,,,,,,,,,,,,,,,,,,,
1725618194.466107,1725618194.466057,113.0,0.0,4212.307617,4183.461426,4240.384766,4243.333496,4182.05127,4215.0,4197.05127,4218.205078,4195.512695,4175.256348,4497.179688,4500.0,4319.743652,4405.256348,0.0,2.0,36.0,,,,0.0,4.0,4.0,4.0,4.0,4.0,4.0,4.0,4.0,4.0,4.0,4.0,4.0,4.0,4.0,100.0,,,,,,,,,,,,,,,,,,,,,,,,,,,,,,,,,,,,,,,,,,,,,,,,,,,,,,,,,,,,,,,,,,,,,,,,,,,,,,,,,,,,,,,,,,,,,,,,,,,,,,,,,,,,,,,,,,,,,,,,,,,,,,,,,,,
1725618194.470011,1725618194.469961,114.0,0.0,4216.410156,4184.230957,4242.563965,4246.666504,4186.025879,4214.615234,4197.436035,4222.692383,4198.974121,4178.333496,4498.461426,4508.717773,4323.333496,4408.461426,0.0,2.0,36.0,,,,0.0,4.0,4.0,4.0,4.0,4.0,4.0,4.0,4.0,4.0,4.0,4.0,4.0,4.0,4.0,100.0,,,,,,,,,,,,,,,,,,,,,,,,,,,,,,,,,,,,,,,,,,,,,,,,,,,,,,,,0.0,0.0,1.0,0.0,1.0,0.0,,,,,,,,,,,,,,,,,,,,,,,,,,,,,,,,,,,,,,,,,,,,,,,,,,,,,,,,,,,,,,,,,,,,,,
1725618194.473915,1725618194.473865,115.0,0.0,4225.0,4192.94873,4251.922852,4255.384766,4191.410156,4217.179688,4199.615234,4226.153809,4206.666504,4186.153809,4504.487305,4521.666504,4331.794922,4416.922852,0.0,2.0,36.0,,,,0.0,4.0,4.0,4.0,4.0,4.0,4.0,4.0,4.0,4.0,4.0,4.0,4.0,4.0,4.0,100.0,,,,,,,,,,,,,,,,,,,,,,,,,,,,,,,,,,,,,,,,,,,,,,,,,,,,,,,,,,,,,,,,,,,,,,,,,,,,,,,,,,,,,,,,,,,,,,,,,,,,,,,,,,,,,,,,,,,,,,,,,,,,,,,,,,,
1725618194.477819,1725618194.477769,116.0,0.0,4235.512695,4206.794922,4264.743652,4266.282227,4196.666504,4222.692383,4204.230957,4228.205078,4217.820313,4197.820313,4514.615234,4533.589844,4342.820313,4428.333496,0.0,2.0,36.0,,,,0.0,4.0,4.0,4.0,4.0,4.0,4.0,4.0,4.0,4.0,4.0,4.0,4.0,4.0,4.0,100.0,,,,,,,,,,,,,,,,,,,,,,,,,,,,,,,,,,,,,,,,,,,,,,,,,,,,,,,,,,,,,,,,,,,,,,,,,,,,,,,,,,,,,,,,,,,,,,,,,,,,,,,,,,,,,,,,,,,,,,,,,,,,,,,,,,,
1725618194.481723,1725618194.481773,117.0,0.0,4244.487305,4219.615234,4275.128418,4275.641113,4201.153809,4229.102539,4210.128418,4228.205078,4228.846191,4209.615234,4526.410156,4540.128418,4353.461426,4438.846191,0.0,2.0,36.0,,,,0.0,4.0,4.0,4.0,4.0,4.0,4.0,4.0,4.0,4.0,4.0,4.0,4.0,4.0,4.0,100.0,,,,,,,,,,,,,,,,,,,,,,,,,,,,,,,,,,,,,,,,,,,,,,,,,,,,,,,,,,,,,,,,,,,,,,,,,,,,,,,,,,,,,,,,,,,,,,,,,,,,,,,,,,,,,,,,,,,,,,,,,,,,,,,,,,,
1725618194.485627,1725618194.485677,118.0,0.0,4249.102539,4226.922852,4279.487305,4281.153809,4205.128418,4233.205078,4215.384766,4226.153809,4236.025879,4217.692383,4536.025879,4540.897461,4360.641113,4445.384766,0.0,2.0,36.0,,,,0.0,4.0,4.0,4.0,4.0,4.0,4.0,4.0,4.0,4.0,4.0,4.0,4.0,4.0,4.0,100.0,,,,,,,,,,,,,,,,,,,,,,,,,,,,,,,,,,,,,,,,,,,,,,,,,,,,,,,,,,,,,,,,,,,,,,,,,,,,,,,,,,,,,,,,,,,,,,,,,,,,,,,,,,,,,,,,,,,,,,,,,,,,,,,,,,,
1725618194.489531,1725618194.489581,119.0,0.0,4249.230957,4228.589844,4278.589844,4282.307617,4208.589844,4232.820313,4217.94873,4222.179688,4237.307617,4220.0,4541.025879,4538.333496,4363.717773,4447.05127,0.0,2.0,36.0,,,,0.0,4.0,4.0,4.0,4.0,4.0,4.0,4.0,4.0,4.0,4.0,4.0,4.0,4.0,4.0,100.0,,,,,,,,,,,,,,,,,,,,,,,,,,,,,,,,,,,,,,,,,,,,,,,,,,,,,,,,,,,,,,,,,,,,,,,,,,,,,,,,,,,,,,,,,,,,,,,,,,,,,,,,,,,,,,,,,,,,,,,,,,,,,,,,,,,
1725618194.493436,1725618194.493485,120.0,0.0,4247.179688,4228.333496,4275.897461,4280.769043,4211.410156,4228.077148,4218.077148,4217.94873,4234.358887,4218.077148,4540.897461,4536.025879,4363.974121,4445.512695,0.0,2.0,36.0,,,,0.0,4.0,4.0,4.0,4.0,4.0,4.0,4.0,4.0,4.0,4.0,4.0,4.0,4.0,4.0,100.0,,,,,,,,,,,,,,,,,,,,,,,,,,,,,,,,,,,,,,,,,,,,,,,,,,,,,,,,,,,,,,,,,,,,,,,,,,,,,,,,,,,,,,,,,,,,,,,,,,,,,,,,,,,,,,,,,,,,,,,,,,,,,,,,,,,
1725618194.49734,1725618194.49749,121.0,0.0,4245.897461,4229.487305,4274.743652,4278.461426,4212.820313,4221.538574,4217.05127,4215.641113,4230.641113,4215.512695,4537.563965,4536.410156,4364.358887,4443.846191,0.0,2.0,36.0,,,,0.0,4.0,4.0,4.0,4.0,4.0,4.0,4.0,4.0,4.0,4.0,4.0,4.0,4.0,4.0,100.0,,,,,,,,,,,,,,,,,,,,,,,,,,,,,,,,,,,,,,,,,,,,,,,,,,,,,,,,,,,,,,,,,,,,,,,,,,,,,,,,,,,,,,,,,,,,,,,,,,,,,,,,,,,,,,,,,,,,,,,,,,,,,,,,,,,
1725618194.501244,1725618194.501394,122.0,0.0,4246.410156,4231.666504,4275.769043,4277.307617,4211.922852,4216.538574,4216.410156,4216.666504,4228.974121,4214.871582,4534.487305,4539.358887,4366.282227,4443.846191,0.0,2.0,36.0,,,,0.0,4.0,4.0,4.0,4.0,4.0,4.0,4.0,4.0,4.0,4.0,4.0,4.0,4.0,4.0,100.0,,,,,,,,,,,,,,,,,,,,,,,,,,,,,,,,,,,,,,,,,,,,,,,,,,,,,,,,0.0,0.0,1.0,0.0,1.0,0.0,,,,,,,,,,,,,,,,,,,,,,,,,,,,,,,,,,,,,,,,,,,,,,,,,,,,,,,,,,,,,,,,,,,,,,
1725618194.505148,1725618194.505298,123.0,0.0,4247.692383,4232.179688,4277.307617,4277.94873,4208.717773,4215.256348,4216.410156,4220.512695,4229.743652,4216.666504,4534.487305,4542.307617,4369.102539,4445.128418,0.0,2.0,36.0,,,,0.0,4.0,4.0,4.0,4.0,4.0,4.0,4.0,4.0,4.0,4.0,4.0,4.0,4.0,4.0,100.0,,,,,,,,,,,,,,,,,,,,,,,,,,,,,,,,,,,,,,,,,,,,,,,,,,,,,,,,,,,,,,,,,,,,,,,,,,,,,,,,,,,,,,,,,,,,,,,,,,,,,,,,,,,,,,,,,,,,,,,,,,,,,,,,,,,
1725618194.509052,1725618194.509202,124.0,0.0,4247.436035,4228.974121,4277.05127,4278.974121,4204.230957,4217.179688,4216.410156,4224.358887,4230.769043,4219.102539,4537.05127,4543.205078,4370.512695,4446.282227,0.0,2.0,36.0,,,,0.0,4.0,4.0,4.0,4.0,4.0,4.0,4.0,4.0,4.0,4.0,4.0,4.0,4.0,4.0,100.0,,,,,,,,,,,,,,,,,,,,,,,,,,,,,,,,,,,,,,,,,,,,,,,,,,,,,,,,,,,,,,,,,,,,,,,,,,,,,,,,,,,,,,,,,,,,,,,,,,,,,,,,,,,,,,,,,,,,,,,,,,,,,,,,,,,
1725618194.512956,1725618194.513006,125.0,0.0,4245.384766,4223.333496,4273.974121,4278.717773,4201.025879,4219.487305,4215.384766,4224.871582,4228.974121,4220.256348,4539.102539,4541.282227,4369.230957,4445.641113,0.0,2.0,36.0,,,,0.0,4.0,4.0,4.0,4.0,4.0,4.0,4.0,4.0,4.0,4.0,4.0,4.0,4.0,4.0,100.0,,,,,,,,,,,,,,,,,,,,,,,,,,,,,,,,,,,,,,,,,,,,,,,,,,,,,,,,,,,,,,,,,,,,,,,,,,,,,,,,,,,,,,,,,,,,,,,,,,,,,,,,,,,,,,,,,,,,,,,,,,,,,,,,,,,
1725618194.51686,1725618194.51691,126.0,0.0,4243.333496,4219.358887,4270.0,4277.563965,4201.153809,4220.384766,4213.717773,4221.025879,4223.846191,4219.743652,4538.589844,4538.333496,4366.922852,4443.974121,0.0,2.0,36.0,,,,0.0,4.0,4.0,4.0,4.0,4.0,4.0,4.0,4.0,4.0,4.0,4.0,4.0,4.0,4.0,100.0,,,,,,,,,,,,,,,,,,,,,,,,,,,,,,,,,,,,,,,,,,,,,,,,,,,,,,,,,,,,,,,,,,,,,,,,,,,,,,,,,,,,,,,,,,,,,,,,,,,,,,,,,,,,,,,,,,,,,,,,,,,,,,,,,,,
1725618194.520764,1725618194.520814,127.0,0.0,4244.230957,4220.384766,4268.589844,4277.436035,4205.384766,4219.358887,4212.94873,4215.769043,4218.461426,4218.589844,4536.410156,4536.922852,4366.410156,4443.461426,0.0,2.0,36.0,,,,0.0,4.0,4.0,4.0,4.0,4.0,4.0,4.0,4.0,4.0,4.0,4.0,4.0,4.0,4.0,100.0,,,,,,,,,,,,,,,,,,,,,,,,,,,,,,,,,,,,,,,,,,,,,,,,,,,,,,,,,,,,,,,,,,,,,,,,,,,,,,,,,,,,,,,,,,,,,,,,,,,,,,,,,,,,,,,,,,,,,,,,,,,,,,,,,,,
1725618194.524668,1725618194.524718,128.0,0.0,4249.615234,4226.153809,4272.179688,4280.256348,4211.666504,4217.94873,4213.974121,4214.743652,4217.179688,4217.94873,4535.256348,4539.615234,4369.615234,4446.282227,2618.0,2.0,36.0,,,,0.0,4.0,4.0,4.0,4.0,4.0,4.0,4.0,4.0,4.0,4.0,4.0,4.0,4.0,4.0,100.0,,,,,,,,,,,,,,,,,,,,,,,,,,,,,,,,,,,,,,,,,,,,,,,,,,,,,,,,,,,,,,,,,,,,,,,,,,,,,,,,,,,,,,,,,,,,,,,,,,,,,,,,,,,,,,,,,,,,,,,,,,,,,,,,,,,
1725618194.528572,1725618194.528523,129.0,0.0,4257.692383,4232.94873,4280.256348,4286.025879,4216.410156,4217.692383,4216.282227,4221.410156,4221.410156,4217.820313,4537.692383,4546.794922,4375.256348,4452.179688,2570.0,2.0,36.0,,,,0.0,4.0,4.0,4.0,4.0,4.0,4.0,4.0,4.0,4.0,4.0,4.0,4.0,4.0,4.0,100.0,,,,,,,,,,,,,,,,,,,,,,,,,,,,,,,,,,,,,,,,,,,,,,,,,,,,,,,,,,,,,,,,,,,,,,,,,,,,,,,,,,,,,,,,,,,,,,,,,,,,,,,,,,,,,,,,,,,,,,,,,,,,,,,,,,,
1725618194.532477,1725618194.532427,130.0,0.0,4264.871582,4236.666504,4288.846191,4292.179688,4217.436035,4218.717773,4218.333496,4233.333496,4228.333496,4217.820313,4543.205078,4555.384766,4380.128418,4458.974121,2454.0,2.0,36.0,,,,0.0,4.0,4.0,4.0,4.0,4.0,4.0,4.0,4.0,4.0,4.0,4.0,4.0,4.0,4.0,100.0,,,,,,,,,,,,,,,,,1.0,0.0,0.0,,,,,,,,,,,,,,,,,,,,,,,,,,,,,,,,,,,,,0.0,0.0,1.0,0.0,1.0,0.0,1.459461,1.852263,0.474913,0.442067,0.069613,1.580713,1.537419,0.859356,0.367553,0.101837,1.24904,2.689927,0.847189,0.400167,0.096084,1.319661,1.655162,0.58999,0.271205,0.074717,1.073077,0.833109,0.31283,0.126203,0.037388,0.318302,0.47068,0.197409,0.115891,0.065785,0.636241,0.50935,0.268383,0.111189,0.040522,0.502516,3.147495,1.027575,0.327858,0.221888,0.896598,1.590877,0.857836,0.347761,0.099129,1.831655,2.345333,1.027446,0.466926,0.17592,2.093221,4.189169,1.580709,0.503337,0.200816,2.336657,5.09767,1.808719,0.756811,0.219165,1.875129,3.572512,1.472697,0.394836,0.190428,1.375018,3.39992,0.96206,0.462948,0.161611
1725618194.536381,1725618194.536331,131.0,0.0,4268.205078,4236.410156,4293.589844,4295.641113,4215.641113,4219.871582,4218.717773,4243.589844,4232.94873,4217.692383,4548.846191,4561.153809,4381.410156,4463.717773,2466.0,2.0,36.0,,,,0.0,4.0,4.0,4.0,4.0,4.0,4.0,4.0,4.0,4.0,4.0,4.0,4.0,4.0,4.0,100.0,,,,,,,,,,,,,,,,,,,,,,,,,,,,,,,,,,,,,,,,,,,,,,,,,,,,,,,,,,,,,,,,,,,,,,,,,,,,,,,,,,,,,,,,,,,,,,,,,,,,,,,,,,,,,,,,,,,,,,,,,,,,,,,,,,,
1725618194.540285,1725618194.540335,132.0,0.0,4267.563965,4233.846191,4292.94873,4295.0,4213.589844,4219.871582,4217.436035,4245.0,4231.666504,4217.692383,4551.153809,4560.769043,4378.974121,4465.0,2424.0,2.0,36.0,,,,0.0,4.0,4.0,4.0,4.0,4.0,4.0,4.0,4.0,4.0,4.0,4.0,4.0,4.0,4.0,100.0,,,,,,,,,,,,,,,,,,,,,,,,,,,,,,,,,,,,,,,,,,,,,,,,,,,,,,,,,,,,,,,,,,,,,,,,,,,,,,,,,,,,,,,,,,,,,,,,,,,,,,,,,,,,,,,,,,,,,,,,,,,,,,,,,,,
1725618194.544189,1725618194.544239,133.0,0.0,4265.641113,4232.307617,4288.461426,4292.05127,4212.820313,4218.077148,4215.512695,4235.769043,4225.512695,4218.077148,4549.102539,4554.615234,4374.871582,4463.333496,2396.0,2.0,36.0,,,,0.0,4.0,4.0,4.0,4.0,4.0,4.0,4.0,4.0,4.0,4.0,4.0,4.0,4.0,4.0,100.0,,,,,,,,,,,,,,,,,,,,,,,,,,,,,,,,,,,,,,,,,,,,,,,,,,,,,,,,,,,,,,,,,,,,,,,,,,,,,,,,,,,,,,,,,,,,,,,,,,,,,,,,,,,,,,,,,,,,,,,,,,,,,,,,,,,
1725618194.548093,1725618194.548143,134.0,0.0,4264.358887,4233.461426,4283.589844,4289.230957,4212.436035,4215.769043,4214.102539,4219.743652,4218.974121,4218.589844,4543.333496,4545.897461,4371.794922,4459.871582,2182.0,2.0,36.0,,,,0.0,4.0,4.0,4.0,4.0,4.0,4.0,4.0,4.0,4.0,4.0,4.0,4.0,4.0,4.0,100.0,,,,,,,,,,,,,,,,,,,,,,,,,,,,,,,,,,,,,,,,,,,,,,,,,,,,,,,,,,,,,,,,,,,,,,,,,,,,,,,,,,,,,,,,,,,,,,,,,,,,,,,,,,,,,,,,,,,,,,,,,,,,,,,,,,,
1725618194.551997,1725618194.552047,135.0,0.0,4263.846191,4236.410156,4280.769043,4287.820313,4211.153809,4214.230957,4213.846191,4204.871582,4215.384766,4218.461426,4535.641113,4538.589844,4370.641113,4455.897461,2488.0,2.0,36.0,,,,0.0,4.0,4.0,4.0,4.0,4.0,4.0,4.0,4.0,4.0,4.0,4.0,4.0,4.0,4.0,100.0,,,,,,,,,,,,,,,,,,,,,,,,,,,,,,,,,,,,,,,,,,,,,,,,,,,,,,,,,,,,,,,,,,,,,,,,,,,,,,,,,,,,,,,,,,,,,,,,,,,,,,,,,,,,,,,,,,,,,,,,,,,,,,,,,,,
1725618194.555901,1725618194.555951,136.0,0.0,4262.307617,4238.717773,4279.871582,4287.692383,4208.333496,4214.230957,4214.487305,4197.307617,4214.615234,4217.307617,4527.692383,4534.487305,4370.384766,4452.179688,2471.0,2.0,36.0,,,,0.0,4.0,4.0,4.0,4.0,4.0,4.0,4.0,4.0,4.0,4.0,4.0,4.0,4.0,4.0,100.0,,,,,,,,,,,,,,,,,,,,,,,,,,,,,,,,,,,,,,,,,,,,,,,,,,,,,,,,,,,,,,,,,,,,,,,,,,,,,,,,,,,,,,,,,,,,,,,,,,,,,,,,,,,,,,,,,,,,,,,,,,,,,,,,,,,
1725618194.559805,1725618194.559755,137.0,0.0,4258.077148,4238.333496,4279.487305,4287.179688,4205.0,4215.512695,4215.384766,4197.692383,4213.974121,4215.384766,4521.282227,4532.563965,4369.230957,4448.717773,2553.0,2.0,36.0,,,,0.0,4.0,4.0,4.0,4.0,4.0,4.0,4.0,4.0,4.0,4.0,4.0,4.0,4.0,4.0,100.0,,,,,,,,,,,,,,,,,,,,,,,,,,,,,,,,,,,,,,,,,,,,,,,,,,,,,,,,,,,,,,,,,,,,,,,,,,,,,,,,,,,,,,,,,,,,,,,,,,,,,,,,,,,,,,,,,,,,,,,,,,,,,,,,,,,
1725618194.563709,1725618194.563659,138.0,0.0,4252.307617,4235.641113,4278.589844,4285.256348,4202.820313,4217.05127,4216.282227,4201.538574,4210.897461,4213.589844,4518.333496,4530.0,4366.666504,4445.384766,2894.0,2.0,36.0,,,,0.0,4.0,4.0,4.0,4.0,4.0,4.0,4.0,4.0,4.0,4.0,4.0,4.0,4.0,4.0,100.0,,,,,,,,,,,,,,,,,,,,,,,,,,,,,,,,,,,,,,,,,,,,,,,,,,,,,,,,0.0,0.0,1.0,0.0,1.0,0.0,,,,,,,,,,,,,,,,,,,,,,,,,,,,,,,,,,,,,,,,,,,,,,,,,,,,,,,,,,,,,,,,,,,,,,
1725618194.567613,1725618194.567564,139.0,0.0,4248.077148,4232.692383,4277.436035,4282.692383,4203.589844,4217.94873,4216.922852,4203.589844,4206.282227,4212.820313,4520.384766,4525.512695,4364.358887,4442.692383,3072.0,2.0,36.0,,,,0.0,4.0,4.0,4.0,4.0,4.0,4.0,4.0,4.0,4.0,4.0,4.0,4.0,4.0,4.0,100.0,,,,,,,,,,,,,,,,,,,,,,,,,,,,,,,,,,,,,,,,,,,,,,,,,,,,,,,,,,,,,,,,,,,,,,,,,,,,,,,,,,,,,,,,,,,,,,,,,,,,,,,,,,,,,,,,,,,,,,,,,,,,,,,,,,,
1725618194.571518,1725618194.571568,140.0,0.0,4248.333496,4231.282227,4276.794922,4281.025879,4207.563965,4217.94873,4217.436035,4202.05127,4203.333496,4213.077148,4526.153809,4520.641113,4364.615234,4441.538574,3416.0,2.0,36.0,,,,0.0,4.0,4.0,4.0,4.0,4.0,4.0,4.0,4.0,4.0,4.0,4.0,4.0,4.0,4.0,100.0,,,,,,,,,,,,,,,,,,,,,,,,,,,,,,,,,,,,,,,,,,,,,,,,,,,,,,,,,,,,,,,,,,,,,,,,,,,,,,,,,,,,,,,,,,,,,,,,,,,,,,,,,,,,,,,,,,,,,,,,,,,,,,,,,,,
1725618194.575422,1725618194.575472,141.0,0.0,4253.077148,4231.922852,4276.922852,4280.897461,4212.820313,4217.179688,4217.820313,4199.743652,4204.358887,4214.102539,4532.436035,4518.717773,4367.94873,4442.94873,3892.0,2.0,36.0,,,,0.0,4.0,4.0,4.0,4.0,4.0,4.0,4.0,4.0,4.0,4.0,4.0,4.0,4.0,4.0,100.0,,,,,,,,,,,,,,,,,,,,,,,,,,,,,,,,,,,,,,,,,,,,,,,,,,,,,,,,,,,,,,,,,,,,,,,,,,,,,,,,,,,,,,,,,,,,,,,,,,,,,,,,,,,,,,,,,,,,,,,,,,,,,,,,,,,
1725618194.579326,1725618194.579376,142.0,0.0,4258.974121,4233.846191,4277.563965,4281.666504,4216.025879,4216.794922,4217.820313,4200.256348,4209.102539,4215.128418,4535.769043,4521.666504,4372.94873,4446.666504,2894.0,2.0,36.0,,,,0.0,4.0,4.0,4.0,4.0,4.0,4.0,4.0,4.0,4.0,4.0,4.0,4.0,4.0,4.0,100.0,,,,,,,,,,,,,,,,,,,,,,,,,,,,,,,,,,,,,,,,,,,,,,,,,,,,,,,,,,,,,,,,,,,,,,,,,,,,,,,,,,,,,,,,,,,,,,,,,,,,,,,,,,,,,,,,,,,,,,,,,,,,,,,,,,,
1725618194.58323,1725618194.58338,143.0,0.0,4261.922852,4235.641113,4278.717773,4282.307617,4216.282227,4216.794922,4217.563965,4204.615234,4215.0,4215.384766,4535.0,4528.461426,4377.05127,4450.769043,3072.0,2.0,36.0,,,,0.0,4.0,4.0,4.0,4.0,4.0,4.0,4.0,4.0,4.0,4.0,4.0,4.0,4.0,4.0,100.0,,,,,,,,,,,,,,,,,,,,,,,,,,,,,,,,,,,,,,,,,,,,,,,,,,,,,,,,,,,,,,,,,,,,,,,,,,,,,,,,,,,,,,,,,,,,,,,,,,,,,,,,,,,,,,,,,,,,,,,,,,,,,,,,,,,
1725618194.587134,1725618194.587284,144.0,0.0,4260.128418,4236.282227,4279.487305,4281.794922,4214.615234,4217.307617,4217.563965,4210.897461,4218.846191,4215.128418,4531.922852,4535.641113,4378.205078,4453.461426,3416.0,2.0,36.0,,,,0.0,4.0,4.0,4.0,4.0,4.0,4.0,4.0,4.0,4.0,4.0,4.0,4.0,4.0,4.0,100.0,,,,,,,,,,,,,,,,,,,,,,,,,,,,,,,,,,,,,,,,,,,,,,,,,,,,,,,,,,,,,,,,,,,,,,,,,,,,,,,,,,,,,,,,,,,,,,,,,,,,,,,,,,,,,,,,,,,,,,,,,,,,,,,,,,,
1725618194.591038,1725618194.591188,145.0,0.0,4255.128418,4235.769043,4278.974121,4280.512695,4213.205078,4217.563965,4217.692383,4215.897461,4219.487305,4214.743652,4529.487305,4539.871582,4376.794922,4453.846191,3892.0,2.0,36.0,,,,0.0,4.0,4.0,4.0,4.0,4.0,4.0,4.0,4.0,4.0,4.0,4.0,4.0,4.0,4.0,100.0,,,,,,,,,,,,,,,,,,,,,,,,,,,,,,,,,,,,,,,,,,,,,,,,,,,,,,,,,,,,,,,,,,,,,,,,,,,,,,,,,,,,,,,,,,,,,,,,,,,,,,,,,,,,,,,,,,,,,,,,,,,,,,,,,,,
1725618194.594942,1725618194.595092,146.0,0.0,4250.256348,4234.487305,4277.692383,4279.615234,4213.717773,4217.436035,4217.820313,4217.94873,4217.94873,4214.743652,4530.128418,4540.256348,4374.487305,4452.179688,2894.0,2.0,36.0,,,,0.0,4.0,4.0,4.0,4.0,4.0,4.0,4.0,4.0,4.0,4.0,4.0,4.0,4.0,4.0,100.0,,,,,,,,,,,,,,,,,,,,,,,,,,,,,,,,,,,,,,,,,,,,,,,,,,,,,,,,0.0,0.0,1.0,0.0,1.0,0.0,,,,,,,,,,,,,,,,,,,,,,,,,,,,,,,,,,,,,,,,,,,,,,,,,,,,,,,,,,,,,,,,,,,,,,
1725618194.598846,1725618194.598996,147.0,0.0,4248.077148,4233.461426,4276.538574,4279.871582,4215.512695,4217.307617,4217.94873,4217.692383,4216.538574,4215.512695,4533.717773,4538.846191,4372.94873,4449.743652,3072.0,2.0,36.0,,,,0.0,4.0,4.0,4.0,4.0,4.0,4.0,4.0,4.0,4.0,4.0,4.0,4.0,4.0,4.0,100.0,,,,,,,,,,,,,,,,,,,,,,,,,,,,,,,,,,,,,,,,,,,,,,,,,,,,,,,,,,,,,,,,,,,,,,,,,,,,,,,,,,,,,,,,,,,,,,,,,,,,,,,,,,,,,,,,,,,,,,,,,,,,,,,,,,,
1725618194.60275,1725618194.6028,148.0,0.0,4248.589844,4233.077148,4276.538574,4280.897461,4217.179688,4217.307617,4217.820313,4217.05127,4216.794922,4216.794922,4537.820313,4537.94873,4373.077148,4447.820313,3416.0,2.0,36.0,,,,0.0,4.0,4.0,4.0,4.0,4.0,4.0,4.0,4.0,4.0,4.0,4.0,4.0,4.0,4.0,100.0,,,,,,,,,,,,,,,,,,,,,,,,,,,,,,,,,,,,,,,,,,,,,,,,,,,,,,,,,,,,,,,,,,,,,,,,,,,,,,,,,,,,,,,,,,,,,,,,,,,,,,,,,,,,,,,,,,,,,,,,,,,,,,,,,,,
1725618194.606655,1725618194.606705,149.0,0.0,4250.128418,4232.94873,4277.307617,4281.666504,4217.436035,4217.307617,4217.563965,4217.563965,4218.077148,4218.205078,4539.487305,4538.717773,4373.717773,4447.179688,3892.0,2.0,36.0,,,,0.0,4.0,4.0,4.0,4.0,4.0,4.0,4.0,4.0,4.0,4.0,4.0,4.0,4.0,4.0,100.0,,,,,,,,,,,,,,,,,,,,,,,,,,,,,,,,,,,,,,,,,,,,,,,,,,,,,,,,,,,,,,,,,,,,,,,,,,,,,,,,,,,,,,,,,,,,,,,,,,,,,,,,,,,,,,,,,,,,,,,,,,,,,,,,,,,
1725618194.610559,1725618194.610609,150.0,0.0,4251.025879,4232.692383,4278.077148,4281.538574,4216.025879,4217.307617,4217.179688,4219.102539,4219.358887,4218.846191,4538.589844,4540.384766,4373.846191,4447.692383,2894.0,2.0,36.0,,,,0.0,4.0,4.0,4.0,4.0,4.0,4.0,4.0,4.0,4.0,4.0,4.0,4.0,4.0,4.0,100.0,,,,,,,,,,,,,,,,,,,,,,,,,,,,,,,,,,,,,,,,,,,,,,,,,,,,,,,,,,,,,,,,,,,,,,,,,,,,,,,,,,,,,,,,,,,,,,,,,,,,,,,,,,,,,,,,,,,,,,,,,,,,,,,,,,,
1725618194.614463,1725618194.614513,151.0,0.0,4250.256348,4231.794922,4278.205078,4281.025879,4214.102539,4217.307617,4216.922852,4220.769043,4220.128418,4218.333496,4536.922852,4541.025879,4372.94873,4448.333496,3072.0,2.0,36.0,,,,0.0,4.0,4.0,4.0,4.0,4.0,4.0,4.0,4.0,4.0,4.0,4.0,4.0,4.0,4.0,100.0,,,,,,,,,,,,,,,,,,,,,,,,,,,,,,,,,,,,,,,,,,,,,,,,,,,,,,,,,,,,,,,,,,,,,,,,,,,,,,,,,,,,,,,,,,,,,,,,,,,,,,,,,,,,,,,,,,,,,,,,,,,,,,,,,,,
1725618194.618367,1725618194.618317,152.0,0.0,4248.205078,4231.282227,4277.820313,4280.769043,4212.94873,4217.436035,4216.922852,4221.410156,4219.871582,4217.179688,4536.922852,4540.769043,4371.666504,4448.333496,3416.0,2.0,36.0,,,,0.0,4.0,4.0,4.0,4.0,4.0,4.0,4.0,4.0,4.0,4.0,4.0,4.0,4.0,4.0,100.0,,,,,,,,,,,,,,,,,,,,,,,,,,,,,,,,,,,,,,,,,,,,,,,,,,,,,,,,,,,,,,,,,,,,,,,,,,,,,,,,,,,,,,,,,,,,,,,,,,,,,,,,,,,,,,,,,,,,,,,,,,,,,,,,,,,
1725618194.622271,1725618194.622221,153.0,0.0,4245.641113,4231.794922,4277.179688,4281.153809,4212.820313,4217.820313,4216.922852,4220.512695,4218.846191,4216.153809,4538.974121,4540.512695,4371.153809,4447.563965,3892.0,2.0,36.0,,,,0.0,4.0,4.0,4.0,4.0,4.0,4.0,4.0,4.0,4.0,4.0,4.0,4.0,4.0,4.0,100.0,,,,,,,,,,,,,,,,,,,,,,,,,,,,,,,,,,,,,,,,,,,,,,,,,,,,,,,,,,,,,,,,,,,,,,,,,,,,,,,,,,,,,,,,,,,,,,,,,,,,,,,,,,,,,,,,,,,,,,,,,,,,,,,,,,,
1725618194.626175,1725618194.626125,154.0,0.0,4244.358887,4233.077148,4276.922852,4281.794922,4213.717773,4217.820313,4217.05127,4219.102539,4217.436035,4216.025879,4541.794922,4541.025879,4371.666504,4446.538574,2894.0,2.0,36.0,,,,0.0,4.0,4.0,4.0,4.0,4.0,4.0,4.0,4.0,4.0,4.0,4.0,4.0,4.0,4.0,100.0,,,,,,,,,,,,,,,,,,,,,,,,,,,,,,,,,,,,,,,,,,,,,,,,,,,,,,,,0.0,0.0,1.0,0.0,1.0,0.0,,,,,,,,,,,,,,,,,,,,,,,,,,,,,,,,,,,,,,,,,,,,,,,,,,,,,,,,,,,,,,,,,,,,,,
1725618194.630079,1725618194.630029,155.0,0.0,4245.384766,4234.102539,4277.05127,4282.179688,4215.128418,4217.307617,4216.922852,4218.077148,4216.538574,4216.153809,4543.077148,4541.922852,4372.179688,4445.769043,3072.0,2.0,36.0,,,,0.0,4.0,4.0,4.0,4.0,4.0,4.0,4.0,4.0,4.0,4.0,4.0,4.0,4.0,4.0,100.0,,,,,,,,,,,,,,,,,,,,,,,,,,,,,,,,,,,,,,,,,,,,,,,,,,,,,,,,,,,,,,,,,,,,,,,,,,,,,,,,,,,,,,,,,,,,,,,,,,,,,,,,,,,,,,,,,,,,,,,,,,,,,,,,,,,
1725618194.633983,1725618194.633833,156.0,0.0,4248.077148,4234.102539,4277.820313,4281.922852,4216.538574,4216.666504,4216.666504,4217.692383,4216.538574,4215.512695,4542.307617,4541.410156,4371.282227,4445.769043,3416.0,2.0,36.0,,,,0.0,4.0,4.0,4.0,4.0,4.0,4.0,4.0,4.0,4.0,4.0,4.0,4.0,4.0,4.0,100.0,,,,,,,,,,,,,,,,,,,,,,,,,,,,,,,,,,,,,,,,,,,,,,,,,,,,,,,,,,,,,,,,,,,,,,,,,,,,,,,,,,,,,,,,,,,,,,,,,,,,,,,,,,,,,,,,,,,,,,,,,,,,,,,,,,,
1725618194.637887,1725618194.637738,157.0,0.0,4250.256348,4233.589844,4278.077148,4281.666504,4217.179688,4216.666504,4216.282227,4216.922852,4217.307617,4212.94873,4540.0,4538.077148,4368.333496,4446.153809,3892.0,2.0,36.0,,,,0.0,4.0,4.0,4.0,4.0,4.0,4.0,4.0,4.0,4.0,4.0,4.0,4.0,4.0,4.0,100.0,,,,,,,,,,,,,,,,,,,,,,,,,,,,,,,,,,,,,,,,,,,,,,,,,,,,,,,,,,,,,,,,,,,,,,,,,,,,,,,,,,,,,,,,,,,,,,,,,,,,,,,,,,,,,,,,,,,,,,,,,,,,,,,,,,,
1725618194.641791,1725618194.641642,158.0,0.0,4249.871582,4233.205078,4277.436035,4281.666504,4217.179688,4217.563965,4216.282227,4214.743652,4217.05127,4208.717773,4537.820313,4532.307617,4363.846191,4446.410156,2894.0,2.0,36.0,,,,0.0,4.0,4.0,4.0,4.0,4.0,4.0,4.0,4.0,4.0,4.0,4.0,4.0,4.0,4.0,100.0,,,,,,,,,,,,,,,,,,,,,,,,,,,,,,,,,,,,,,,,,,,,,,,,,,,,,,,,,,,,,,,,,,,,,,,,,,,,,,,,,,,,,,,,,,,,,,,,,,,,,,,,,,,,,,,,,,,,,,,,,,,,,,,,,,,
1725618194.645696,1725618194.645646,159.0,0.0,4246.153809,4233.077148,4275.0,4281.538574,4216.666504,4218.589844,4216.538574,4211.410156,4214.615234,4203.974121,4536.666504,4526.153809,4359.358887,4445.641113,3072.0,2.0,36.0,,,,0.0,4.0,4.0,4.0,4.0,4.0,4.0,4.0,4.0,4.0,4.0,4.0,4.0,4.0,4.0,100.0,,,,,,,,,,,,,,,,,,,,,,,,,,,,,,,,,,,,,,,,,,,,,,,,,,,,,,,,,,,,,,,,,,,,,,,,,,,,,,,,,,,,,,,,,,,,,,,,,,,,,,,,,,,,,,,,,,,,,,,,,,,,,,,,,,,
1725618194.6496,1725618194.64955,160.0,0.0,4240.641113,4232.179688,4271.153809,4280.641113,4216.282227,4218.461426,4217.05127,4207.436035,4210.256348,4200.384766,4535.897461,4522.179688,4356.025879,4443.717773,3416.0,2.0,36.0,,,,0.0,4.0,4.0,4.0,4.0,4.0,4.0,4.0,4.0,4.0,4.0,4.0,4.0,4.0,4.0,100.0,,,,,,,,,,,,,,,,,,,,,,,,,,,,,,,,,,,,,,,,,,,,,,,,,,,,,,,,,,,,,,,,,,,,,,,,,,,,,,,,,,,,,,,,,,,,,,,,,,,,,,,,,,,,,,,,,,,,,,,,,,,,,,,,,,,
1725618194.653504,1725618194.653454,161.0,0.0,4235.512695,4229.487305,4266.794922,4278.077148,4216.410156,4216.666504,4217.563965,4203.589844,4205.512695,4198.846191,4535.128418,4521.282227,4354.230957,4440.641113,3892.0,2.0,36.0,,,,0.0,4.0,4.0,4.0,4.0,4.0,4.0,4.0,4.0,4.0,4.0,4.0,4.0,4.0,4.0,100.0,,,,,,,,,,,,,,,,,,,,,,,,,,,,,,,,,,,,,,,,,,,,,,,,,,,,,,,,,,,,,,,,,,,,,,,,,,,,,,,,,,,,,,,,,,,,,,,,,,,,,,,,,,,,,,,,,,,,,,,,,,,,,,,,,,,
1725618194.657408,1725618194.657358,162.0,0.0,4232.436035,4225.128418,4263.077148,4273.589844,4216.794922,4213.589844,4217.820313,4200.641113,4202.179688,4198.974121,4534.615234,4522.179688,4353.333496,4437.307617,2894.0,2.0,36.0,,,,0.0,4.0,4.0,4.0,4.0,4.0,4.0,4.0,4.0,4.0,4.0,4.0,4.0,4.0,4.0,100.0,,,,,,,,,,,,,,,,,1.0,0.0,0.0,,,,,,,,,,,,,,,,,,,,,,,,,,,,,,,,,,,,,0.0,0.0,1.0,0.0,1.0,0.0,1.421096,1.706922,0.408452,0.380825,0.069568,1.447801,1.395398,0.770044,0.348913,0.113784,1.122505,2.36414,0.759056,0.37356,0.089419,1.171998,1.602992,0.568221,0.258008,0.083976,0.930498,0.75216,0.290681,0.117833,0.038817,0.216379,0.429267,0.179744,0.09238,0.066373,0.588494,0.467228,0.285039,0.115255,0.048881,0.541453,3.110087,1.120139,0.317626,0.22954,0.900131,1.500411,0.839096,0.321218,0.09907,1.759739,2.150002,1.00062,0.421741,0.168801,1.746938,3.762325,1.510265,0.463473,0.202724,2.195501,4.475164,1.766824,0.626652,0.233348,1.797885,3.229572,1.381187,0.361045,0.196343,1.283964,3.02708,0.896209,0.419839,0.169192
1725618194.661312,1725618194.661362,163.0,0.0,4232.05127,4220.256348,4260.897461,4268.461426,4217.179688,4210.512695,4217.820313,4199.487305,4200.769043,4199.487305,4534.871582,4522.692383,4352.692383,4435.256348,3072.0,2.0,36.0,,,,0.0,4.0,4.0,4.0,4.0,4.0,4.0,4.0,4.0,4.0,4.0,4.0,4.0,4.0,4.0,100.0,,,,,,,,,,,,,,,,,,,,,,,,,,,,,,,,,,,,,,,,,,,,,,,,,,,,,,,,,,,,,,,,,,,,,,,,,,,,,,,,,,,,,,,,,,,,,,,,,,,,,,,,,,,,,,,,,,,,,,,,,,,,,,,,,,,
1725618194.665216,1725618194.665266,164.0,0.0,4233.205078,4216.666504,4260.769043,4264.615234,4217.436035,4208.974121,4217.692383,4200.897461,4200.769043,4199.358887,4535.769043,4521.666504,4351.282227,4435.641113,3416.0,2.0,36.0,,,,0.0,4.0,4.0,4.0,4.0,4.0,4.0,4.0,4.0,4.0,4.0,4.0,4.0,4.0,4.0,100.0,,,,,,,,,,,,,,,,,,,,,,,,,,,,,,,,,,,,,,,,,,,,,,,,,,,,,,,,,,,,,,,,,,,,,,,,,,,,,,,,,,,,,,,,,,,,,,,,,,,,,,,,,,,,,,,,,,,,,,,,,,,,,,,,,,,
1725618194.66912,1725618194.66917,165.0,0.0,4234.358887,4215.384766,4262.307617,4262.94873,4217.179688,4209.743652,4217.436035,4204.487305,4201.922852,4198.974121,4537.179688,4521.153809,4349.487305,4438.333496,3892.0,2.0,36.0,,,,0.0,4.0,4.0,4.0,4.0,4.0,4.0,4.0,4.0,4.0,4.0,4.0,4.0,4.0,4.0,100.0,,,,,,,,,,,,,,,,,,,,,,,,,,,,,,,,,,,,,,,,,,,,,,,,,,,,,,,,,,,,,,,,,,,,,,,,,,,,,,,,,,,,,,,,,,,,,,,,,,,,,,,,,,,,,,,,,,,,,,,,,,,,,,,,,,,
1725618194.673024,1725618194.673074,166.0,0.0,4234.487305,4216.282227,4264.743652,4263.717773,4216.666504,4212.307617,4217.436035,4209.615234,4204.230957,4199.102539,4538.846191,4523.205078,4348.205078,4441.794922,2894.0,2.0,36.0,,,,0.0,4.0,4.0,4.0,4.0,4.0,4.0,4.0,4.0,4.0,4.0,4.0,4.0,4.0,4.0,100.0,,,,,,,,,,,,,,,,,,,,,,,,,,,,,,,,,,,,,,,,,,,,,,,,,,,,,,,,,,,,,,,,,,,,,,,,,,,,,,,,,,,,,,,,,,,,,,,,,,,,,,,,,,,,,,,,,,,,,,,,,,,,,,,,,,,
1725618194.676928,1725618194.677078,167.0,0.0,4233.974121,4217.94873,4266.922852,4265.512695,4216.538574,4214.615234,4217.436035,4214.487305,4208.333496,4200.256348,4540.641113,4528.077148,4348.461426,4443.974121,3072.0,2.0,36.0,,,,0.0,4.0,4.0,4.0,4.0,4.0,4.0,4.0,4.0,4.0,4.0,4.0,4.0,4.0,4.0,100.0,,,,,,,,,,,,,,,,,,,,,,,,,,,,,,,,,,,,,,,,,,,,,,,,,,,,,,,,,,,,,,,,,,,,,,,,,,,,,,,,,,,,,,,,,,,,,,,,,,,,,,,,,,,,,,,,,,,,,,,,,,,,,,,,,,,
1725618194.680833,1725618194.680982,168.0,0.0,4233.589844,4218.589844,4268.077148,4266.666504,4216.922852,4215.384766,4217.563965,4217.307617,4212.94873,4202.307617,4541.794922,4532.94873,4350.128418,4443.974121,3416.0,2.0,36.0,,,,0.0,4.0,4.0,4.0,4.0,4.0,4.0,4.0,4.0,4.0,4.0,4.0,4.0,4.0,4.0,100.0,,,,,,,,,,,,,,,,,,,,,,,,,,,,,,,,,,,,,,,,,,,,,,,,,,,,,,,,,,,,,,,,,,,,,,,,,,,,,,,,,,,,,,,,,,,,,,,,,,,,,,,,,,,,,,,,,,,,,,,,,,,,,,,,,,,
1725618194.684737,1725618194.684887,169.0,0.0,4233.846191,4218.205078,4267.820313,4266.410156,4217.307617,4214.230957,4217.307617,4216.922852,4216.538574,4203.846191,4541.538574,4535.0,4352.05127,4441.922852,3892.0,2.0,36.0,,,,0.0,4.0,4.0,4.0,4.0,4.0,4.0,4.0,4.0,4.0,4.0,4.0,4.0,4.0,4.0,100.0,,,,,,,,,,,,,,,,,,,,,,,,,,,,,,,,,,,,,,,,,,,,,,,,,,,,,,,,,,,,,,,,,,,,,,,,,,,,,,,,,,,,,,,,,,,,,,,,,,,,,,,,,,,,,,,,,,,,,,,,,,,,,,,,,,,
1725618194.688641,1725618194.688891,170.0,0.0,4234.615234,4217.563965,4266.538574,4265.128418,4217.307617,4212.436035,4216.538574,4213.974121,4217.436035,4204.102539,4539.871582,4533.589844,4353.461426,4439.743652,2894.0,2.0,36.0,,,,0.0,4.0,4.0,4.0,4.0,4.0,4.0,4.0,4.0,4.0,4.0,4.0,4.0,4.0,4.0,100.0,,,,,,,,,,,,,,,,,,,,,,,,,,,,,,,,,,,,,,,,,,,,,,,,,,,,,,,,0.0,0.0,1.0,0.0,1.0,0.0,,,,,,,,,,,,,,,,,,,,,,,,,,,,,,,,,,,,,,,,,,,,,,,,,,,,,,,,,,,,,,,,,,,,,,
1725618194.692545,1725618194.692795,171.0,0.0,4235.384766,4217.692383,4265.0,4264.230957,4216.538574,4211.153809,4215.256348,4211.538574,4216.794922,4203.205078,4537.692383,4530.384766,4353.589844,4439.487305,3072.0,2.0,36.0,,,,0.0,4.0,4.0,4.0,4.0,4.0,4.0,4.0,4.0,4.0,4.0,4.0,4.0,4.0,4.0,100.0,,,,,,,,,,,,,,,,,,,,,,,,,,,,,,,,,,,,,,,,,,,,,,,,,,,,,,,,,,,,,,,,,,,,,,,,,,,,,,,,,,,,,,,,,,,,,,,,,,,,,,,,,,,,,,,,,,,,,,,,,,,,,,,,,,,
1725618194.696449,1725618194.696699,172.0,0.0,4235.128418,4218.333496,4264.358887,4264.487305,4215.256348,4211.153809,4214.230957,4212.307617,4215.897461,4201.922852,4536.410156,4527.94873,4352.692383,4441.153809,3416.0,2.0,36.0,,,,0.0,4.0,4.0,4.0,4.0,4.0,4.0,4.0,4.0,4.0,4.0,4.0,4.0,4.0,4.0,100.0,,,,,,,,,,,,,,,,,,,,,,,,,,,,,,,,,,,,,,,,,,,,,,,,,,,,,,,,,,,,,,,,,,,,,,,,,,,,,,,,,,,,,,,,,,,,,,,,,,,,,,,,,,,,,,,,,,,,,,,,,,,,,,,,,,,
1725618194.700353,1725618194.700603,173.0,0.0,4233.846191,4218.717773,4264.743652,4265.384766,4214.102539,4211.794922,4214.102539,4216.282227,4215.641113,4201.410156,4536.153809,4527.563965,4351.282227,4442.94873,3892.0,2.0,36.0,,,,0.0,4.0,4.0,4.0,4.0,4.0,4.0,4.0,4.0,4.0,4.0,4.0,4.0,4.0,4.0,100.0,,,,,,,,,,,,,,,,,,,,,,,,,,,,,,,,,,,,,,,,,,,,,,,,,,,,,,,,,,,,,,,,,,,,,,,,,,,,,,,,,,,,,,,,,,,,,,,,,,,,,,,,,,,,,,,,,,,,,,,,,,,,,,,,,,,
1725618194.704257,1725618194.704607,174.0,0.0,4232.692383,4218.589844,4265.897461,4266.153809,4213.846191,4212.563965,4215.0,4220.128418,4215.128418,4201.666504,4536.410156,4528.717773,4349.871582,4443.205078,2894.0,2.0,36.0,,,,0.0,4.0,4.0,4.0,4.0,4.0,4.0,4.0,4.0,4.0,4.0,4.0,4.0,4.0,4.0,100.0,,,,,,,,,,,,,,,,,,,,,,,,,,,,,,,,,,,,,,,,,,,,,,,,,,,,,,,,,,,,,,,,,,,,,,,,,,,,,,,,,,,,,,,,,,,,,,,,,,,,,,,,,,,,,,,,,,,,,,,,,,,,,,,,,,,
1725618194.708161,1725618194.708511,175.0,0.0,4232.436035,4218.589844,4266.666504,4266.153809,4214.487305,4212.94873,4216.666504,4219.615234,4213.077148,4202.563965,4536.922852,4529.230957,4349.358887,4441.538574,3072.0,2.0,36.0,,,,0.0,4.0,4.0,4.0,4.0,4.0,4.0,4.0,4.0,4.0,4.0,4.0,4.0,4.0,4.0,100.0,,,,,,,,,,,,,,,,,,,,,,,,,,,,,,,,,,,,,,,,,,,,,,,,,,,,,,,,,,,,,,,,,,,,,,,,,,,,,,,,,,,,,,,,,,,,,,,,,,,,,,,,,,,,,,,,,,,,,,,,,,,,,,,,,,,
1725618194.712065,1725618194.712415,176.0,0.0,4233.205078,4220.0,4266.794922,4266.153809,4216.025879,4213.461426,4218.461426,4212.94873,4209.487305,4203.333496,4537.436035,4527.436035,4350.512695,4439.487305,3416.0,2.0,36.0,,,,0.0,4.0,4.0,4.0,4.0,4.0,4.0,4.0,4.0,4.0,4.0,4.0,4.0,4.0,4.0,100.0,,,,,,,,,,,,,,,,,,,,,,,,,,,,,,,,,,,,,,,,,,,,,,,,,,,,,,,,,,,,,,,,,,,,,,,,,,,,,,,,,,,,,,,,,,,,,,,,,,,,,,,,,,,,,,,,,,,,,,,,,,,,,,,,,,,
1725618194.715969,1725618194.716319,177.0,0.0,4235.0,4223.205078,4266.538574,4267.436035,4217.692383,4213.846191,4219.230957,4203.077148,4205.897461,4203.333496,4537.820313,4523.333496,4353.205078,4438.974121,3892.0,2.0,36.0,,,,0.0,4.0,4.0,4.0,4.0,4.0,4.0,4.0,4.0,4.0,4.0,4.0,4.0,4.0,4.0,100.0,,,,,,,,,,,,,,,,,,,,,,,,,,,,,,,,,,,,,,,,,,,,,,,,,,,,,,,,,,,,,,,,,,,,,,,,,,,,,,,,,,,,,,,,,,,,,,,,,,,,,,,,,,,,,,,,,,,,,,,,,,,,,,,,,,,
1725618194.719874,1725618194.720223,178.0,0.0,4237.563965,4226.794922,4266.794922,4270.384766,4218.974121,4214.230957,4219.102539,4196.025879,4204.871582,4202.692383,4537.692383,4519.615234,4356.666504,4440.0,2894.0,2.0,36.0,,,,0.0,4.0,4.0,4.0,4.0,4.0,4.0,4.0,4.0,4.0,4.0,4.0,4.0,4.0,4.0,100.0,,,,,,,,,,,,,,,,,,,,,,,,,,,,,,,,,,,,,,,,,,,,,,,,,,,,,,,,0.0,0.0,1.0,0.0,1.0,0.0,,,,,,,,,,,,,,,,,,,,,,,,,,,,,,,,,,,,,,,,,,,,,,,,,,,,,,,,,,,,,,,,,,,,,,
1725618194.723778,1725618194.724027,179.0,0.0,4240.512695,4229.487305,4268.589844,4274.102539,4219.615234,4214.615234,4218.589844,4195.897461,4208.077148,4201.794922,4536.282227,4519.615234,4358.846191,4441.922852,3072.0,2.0,36.0,,,,0.0,4.0,4.0,4.0,4.0,4.0,4.0,4.0,4.0,4.0,4.0,4.0,4.0,4.0,4.0,100.0,,,,,,,,,,,,,,,,,,,,,,,,,,,,,,,,,,,,,,,,,,,,,,,,,,,,,,,,,,,,,,,,,,,,,,,,,,,,,,,,,,,,,,,,,,,,,,,,,,,,,,,,,,,,,,,,,,,,,,,,,,,,,,,,,,,
1725618194.727682,1725618194.727932,180.0,0.0,4243.461426,4230.641113,4271.666504,4277.436035,4220.0,4215.256348,4218.717773,4202.179688,4213.846191,4201.666504,4534.230957,4525.0,4359.230957,4443.717773,3416.0,2.0,36.0,,,,0.0,4.0,4.0,4.0,4.0,4.0,4.0,4.0,4.0,4.0,4.0,4.0,4.0,4.0,4.0,100.0,,,,,,,,,,,,,,,,,,,,,,,,,,,,,,,,,,,,,,,,,,,,,,,,,,,,,,,,,,,,,,,,,,,,,,,,,,,,,,,,,,,,,,,,,,,,,,,,,,,,,,,,,,,,,,,,,,,,,,,,,,,,,,,,,,,
1725618194.731586,1725618194.731836,181.0,0.0,4246.153809,4231.153809,4275.512695,4279.487305,4220.384766,4216.794922,4219.487305,4210.769043,4218.974121,4202.692383,4532.563965,4533.974121,4358.205078,4444.871582,3892.0,2.0,36.0,,,,0.0,4.0,4.0,4.0,4.0,4.0,4.0,4.0,4.0,4.0,4.0,4.0,4.0,4.0,4.0,100.0,,,,,,,,,,,,,,,,,,,,,,,,,,,,,,,,,,,,,,,,,,,,,,,,,,,,,,,,,,,,,,,,,,,,,,,,,,,,,,,,,,,,,,,,,,,,,,,,,,,,,,,,,,,,,,,,,,,,,,,,,,,,,,,,,,,
1725618194.73549,1725618194.73574,182.0,0.0,4248.205078,4231.794922,4278.717773,4280.256348,4221.025879,4218.589844,4220.641113,4216.794922,4220.897461,4204.743652,4532.94873,4542.179688,4357.563965,4445.769043,2894.0,2.0,36.0,,,,0.0,4.0,4.0,4.0,4.0,4.0,4.0,4.0,4.0,4.0,4.0,4.0,4.0,4.0,4.0,100.0,,,,,,,,,,,,,,,,,,,,,,,,,,,,,,,,,,,,,,,,,,,,,,,,,,,,,,,,,,,,,,,,,,,,,,,,,,,,,,,,,,,,,,,,,,,,,,,,,,,,,,,,,,,,,,,,,,,,,,,,,,,,,,,,,,,
1725618194.739394,1725618194.739544,183.0,0.0,4249.230957,4232.692383,4280.512695,4280.256348,4221.282227,4220.0,4221.153809,4217.307617,4219.358887,4206.153809,4536.025879,4545.0,4358.077148,4446.153809,3072.0,2.0,36.0,,,,0.0,4.0,4.0,4.0,4.0,4.0,4.0,4.0,4.0,4.0,4.0,4.0,4.0,4.0,4.0,100.0,,,,,,,,,,,,,,,,,,,,,,,,,,,,,,,,,,,,,,,,,,,,,,,,,,,,,,,,,,,,,,,,,,,,,,,,,,,,,,,,,,,,,,,,,,,,,,,,,,,,,,,,,,,,,,,,,,,,,,,,,,,,,,,,,,,
1725618194.743298,1725618194.743448,184.0,0.0,4248.974121,4233.461426,4280.384766,4280.0,4221.153809,4220.128418,4220.641113,4212.692383,4216.538574,4205.769043,4540.256348,4540.256348,4359.487305,4446.025879,3416.0,2.0,36.0,,,,0.0,4.0,4.0,4.0,4.0,4.0,4.0,4.0,4.0,4.0,4.0,4.0,4.0,4.0,4.0,100.0,,,,,,,,,,,,,,,,,,,,,,,,,,,,,,,,,,,,,,,,,,,,,,,,,,,,,,,,,,,,,,,,,,,,,,,,,,,,,,,,,,,,,,,,,,,,,,,,,,,,,,,,,,,,,,,,,,,,,,,,,,,,,,,,,,,
1725618194.747202,1725618194.747352,185.0,0.0,4247.307617,4233.717773,4278.846191,4279.871582,4220.384766,4219.230957,4218.846191,4205.256348,4214.487305,4203.461426,4542.94873,4530.256348,4360.512695,4445.0,3892.0,2.0,36.0,,,,0.0,4.0,4.0,4.0,4.0,4.0,4.0,4.0,4.0,4.0,4.0,4.0,4.0,4.0,4.0,100.0,,,,,,,,,,,,,,,,,,,,,,,,,,,,,,,,,,,,,,,,,,,,,,,,,,,,,,,,,,,,,,,,,,,,,,,,,,,,,,,,,,,,,,,,,,,,,,,,,,,,,,,,,,,,,,,,,,,,,,,,,,,,,,,,,,,
1725618194.751106,1725618194.751356,186.0,0.0,4245.0,4233.461426,4276.922852,4279.743652,4219.487305,4217.820313,4216.538574,4198.974121,4213.846191,4200.897461,4542.307617,4520.512695,4360.769043,4442.94873,2894.0,2.0,36.0,,,,0.0,4.0,4.0,4.0,4.0,4.0,4.0,4.0,4.0,4.0,4.0,4.0,4.0,4.0,4.0,100.0,,,,,,,,,,,,,,,,,,,,,,,,,,,,,,,,,,,,,,,,,,,,,,,,,,,,,,,,0.0,0.0,1.0,0.0,1.0,0.0,,,,,,,,,,,,,,,,,,,,,,,,,,,,,,,,,,,,,,,,,,,,,,,,,,,,,,,,,,,,,,,,,,,,,,
1725618194.75501,1725618194.75526,187.0,0.0,4243.589844,4232.94873,4275.897461,4279.487305,4218.333496,4216.794922,4214.871582,4197.05127,4214.230957,4200.641113,4539.230957,4515.897461,4360.641113,4441.282227,3072.0,2.0,36.0,,,,0.0,4.0,4.0,4.0,4.0,4.0,4.0,4.0,4.0,4.0,4.0,4.0,4.0,4.0,4.0,100.0,,,,,,,,,,,,,,,,,,,,,,,,,,,,,,,,,,,,,,,,,,,,,,,,,,,,,,,,,,,,,,,,,,,,,,,,,,,,,,,,,,,,,,,,,,,,,,,,,,,,,,,,,,,,,,,,,,,,,,,,,,,,,,,,,,,
1725618194.758915,1725618194.759164,188.0,0.0,4243.717773,4232.307617,4276.410156,4279.358887,4217.436035,4216.794922,4214.358887,4200.256348,4215.128418,4203.974121,4536.410156,4519.102539,4361.153809,4441.410156,3416.0,2.0,36.0,,,,0.0,4.0,4.0,4.0,4.0,4.0,4.0,4.0,4.0,4.0,4.0,4.0,4.0,4.0,4.0,100.0,,,,,,,,,,,,,,,,,,,,,,,,,,,,,,,,,,,,,,,,,,,,,,,,,,,,,,,,,,,,,,,,,,,,,,,,,,,,,,,,,,,,,,,,,,,,,,,,,,,,,,,,,,,,,,,,,,,,,,,,,,,,,,,,,,,
1725618194.762819,1725618194.763068,189.0,0.0,4245.128418,4232.179688,4277.94873,4279.230957,4216.922852,4217.820313,4214.871582,4206.922852,4216.153809,4209.743652,4537.307617,4528.077148,4362.692383,4444.871582,3892.0,2.0,36.0,,,,0.0,4.0,4.0,4.0,4.0,4.0,4.0,4.0,4.0,4.0,4.0,4.0,4.0,4.0,4.0,100.0,,,,,,,,,,,,,,,,,,,,,,,,,,,,,,,,,,,,,,,,,,,,,,,,,,,,,,,,,,,,,,,,,,,,,,,,,,,,,,,,,,,,,,,,,,,,,,,,,,,,,,,,,,,,,,,,,,,,,,,,,,,,,,,,,,,
1725618194.766723,1725618194.767072,190.0,0.0,4247.179688,4233.077148,4279.230957,4279.615234,4217.307617,4218.846191,4215.769043,4214.230957,4217.05127,4215.256348,4542.436035,4537.820313,4365.128418,4450.769043,2894.0,2.0,36.0,,,,0.0,4.0,4.0,4.0,4.0,4.0,4.0,4.0,4.0,4.0,4.0,4.0,4.0,4.0,4.0,100.0,,,,,,,,,,,,,,,,,,,,,,,,,,,,,,,,,,,,,,,,,,,,,,,,,,,,,,,,,,,,,,,,,,,,,,,,,,,,,,,,,,,,,,,,,,,,,,,,,,,,,,,,,,,,,,,,,,,,,,,,,,,,,,,,,,,
1725618194.770627,1725618194.770977,191.0,0.0,4248.846191,4235.512695,4279.615234,4280.769043,4218.461426,4219.487305,4216.410156,4219.743652,4217.94873,4217.94873,4548.846191,4543.205078,4367.179688,4456.666504,3072.0,2.0,36.0,,,,0.0,4.0,4.0,4.0,4.0,4.0,4.0,4.0,4.0,4.0,4.0,4.0,4.0,4.0,4.0,100.0,,,,,,,,,,,,,,,,,,,,,,,,,,,,,,,,,,,,,,,,,,,,,,,,,,,,,,,,,,,,,,,,,,,,,,,,,,,,,,,,,,,,,,,,,,,,,,,,,,,,,,,,,,,,,,,,,,,,,,,,,,,,,,,,,,,
1725618194.774531,1725618194.774881,192.0,0.0,4249.871582,4238.717773,4279.230957,4282.94873,4219.743652,4219.358887,4216.538574,4221.538574,4218.205078,4217.563965,4551.922852,4542.692383,4367.692383,4460.128418,3416.0,2.0,36.0,,,,0.0,4.0,4.0,4.0,4.0,4.0,4.0,4.0,4.0,4.0,4.0,4.0,4.0,4.0,4.0,100.0,,,,,,,,,,,,,,,,,,,,,,,,,,,,,,,,,,,,,,,,,,,,,,,,,,,,,,,,,,,,,,,,,,,,,,,,,,,,,,,,,,,,,,,,,,,,,,,,,,,,,,,,,,,,,,,,,,,,,,,,,,,,,,,,,,,
1725618194.778435,1725618194.778785,193.0,0.0,4250.384766,4242.179688,4278.974121,4285.384766,4220.384766,4218.717773,4216.410156,4219.743652,4217.436035,4215.256348,4548.846191,4539.230957,4366.922852,4460.256348,3892.0,2.0,36.0,,,,0.0,4.0,4.0,4.0,4.0,4.0,4.0,4.0,4.0,4.0,4.0,4.0,4.0,4.0,4.0,100.0,,,,,,,,,,,,,,,,,,,,,,,,,,,,,,,,,,,,,,,,,,,,,,,,,,,,,,,,,,,,,,,,,,,,,,,,,,,,,,,,,,,,,,,,,,,,,,,,,,,,,,,,,,,,,,,,,,,,,,,,,,,,,,,,,,,
1725618194.782339,1725618194.782789,194.0,0.0,4250.897461,4245.0,4279.358887,4287.820313,4220.128418,4218.333496,4216.410156,4216.410156,4216.410156,4213.205078,4541.922852,4536.922852,4365.769043,4458.461426,2894.0,2.0,36.0,,,,0.0,4.0,4.0,4.0,4.0,4.0,4.0,4.0,4.0,4.0,4.0,4.0,4.0,4.0,4.0,100.0,1.0,100.0,4.0,4.0,4.0,4.0,4.0,4.0,4.0,4.0,4.0,4.0,4.0,4.0,4.0,4.0,1.0,0.0,0.0,,,,,,,,,,,,,,,,,,,,,,,,,,,,,,,,,,,,,0.0,0.0,1.0,0.0,1.0,0.0,1.375762,1.488008,0.339324,0.320106,0.069273,1.270471,1.172565,0.622115,0.323456,0.125567,1.038183,1.859883,0.636926,0.346362,0.084976,1.016908,1.449821,0.515499,0.239124,0.091967,0.765915,0.644765,0.236422,0.111975,0.038831,0.144106,0.369983,0.156308,0.068999,0.06561,0.526998,0.430393,0.279141,0.122718,0.061814,0.572248,2.919351,1.158311,0.305963,0.237589,0.865812,1.346506,0.776754,0.275848,0.093479,1.617188,1.803988,0.941587,0.357411,0.154002,1.589464,3.027524,1.341843,0.408977,0.202952,2.248185,3.548559,1.581156,0.500715,0.243438,1.780361,2.624945,1.189616,0.308895,0.193078,1.339172,2.440696,0.790039,0.37507,0.167163
1725618194.786243,1725618194.786693,195.0,0.0,4251.538574,4246.666504,4280.512695,4289.358887,4219.358887,4218.717773,4216.666504,4213.589844,4216.282227,4212.436035,4537.179688,4537.307617,4365.512695,4457.179688,3072.0,2.0,36.0,,,,0.0,4.0,4.0,4.0,4.0,4.0,4.0,4.0,4.0,4.0,4.0,4.0,4.0,4.0,4.0,100.0,,,,,,,,,,,,,,,,,,,,,,,,,,,,,,,,,,,,,,,,,,,,,,,,,,,,,,,,,,,,,,,,,,,,,,,,,,,,,,,,,,,,,,,,,,,,,,,,,,,,,,,,,,,,,,,,,,,,,,,,,,,,,,,,,,,
1725618194.790147,1725618194.790597,196.0,0.0,4251.922852,4247.307617,4281.794922,4289.871582,4218.589844,4219.487305,4217.05127,4212.94873,4216.922852,4213.205078,4539.615234,4539.615234,4366.282227,4457.94873,3416.0,2.0,36.0,,,,0.0,4.0,4.0,4.0,4.0,4.0,4.0,4.0,4.0,4.0,4.0,4.0,4.0,4.0,4.0,100.0,,,,,,,,,,,,,,,,,,,,,,,,,,,,,,,,,,,,,,,,,,,,,,,,,,,,,,,,,,,,,,,,,,,,,,,,,,,,,,,,,,,,,,,,,,,,,,,,,,,,,,,,,,,,,,,,,,,,,,,,,,,,,,,,,,,
1725618194.794052,1725618194.794601,197.0,0.0,4251.666504,4247.307617,4282.307617,4289.358887,4218.589844,4219.871582,4217.307617,4214.102539,4217.94873,4214.102539,4547.692383,4541.922852,4367.820313,4460.384766,3892.0,2.0,36.0,,,,0.0,4.0,4.0,4.0,4.0,4.0,4.0,4.0,4.0,4.0,4.0,4.0,4.0,4.0,4.0,100.0,,,,,,,,,,,,,,,,,,,,,,,,,,,,,,,,,,,,,,,,,,,,,,,,,,,,,,,,,,,,,,,,,,,,,,,,,,,,,,,,,,,,,,,,,,,,,,,,,,,,,,,,,,,,,,,,,,,,,,,,,,,,,,,,,,,
1725618194.797956,1725618194.798505,198.0,0.0,4250.769043,4247.179688,4282.05127,4288.205078,4219.358887,4219.230957,4217.307617,4216.153809,4218.333496,4214.230957,4555.0,4542.94873,4368.589844,4462.179688,2894.0,2.0,36.0,,,,0.0,4.0,4.0,4.0,4.0,4.0,4.0,4.0,4.0,4.0,4.0,4.0,4.0,4.0,4.0,100.0,,,,,,,,,,,,,,,,,,,,,,,,,,,,,,,,,,,,,,,,,,,,,,,,,,,,,,,,,,,,,,,,,,,,,,,,,,,,,,,,,,,,,,,,,,,,,,,,,,,,,,,,,,,,,,,,,,,,,,,,,,,,,,,,,,,
1725618194.80186,1725618194.802409,199.0,0.0,4250.0,4246.538574,4281.282227,4287.179688,4220.256348,4217.94873,4216.922852,4217.820313,4217.94873,4213.333496,4556.153809,4543.077148,4367.307617,4461.538574,3072.0,2.0,36.0,,,,0.0,4.0,4.0,4.0,4.0,4.0,4.0,4.0,4.0,4.0,4.0,4.0,4.0,4.0,4.0,100.0,,,,,,,,,,,,,,,,,,,,,,,,,,,,,,,,,,,,,,,,,,,,,,,,,,,,,,,,,,,,,,,,,,,,,,,,,,,,,,,,,,,,,,,,,,,,,,,,,,,,,,,,,,,,,,,,,,,,,,,,,,,,,,,,,,,
1725618194.805764,1725618194.806313,200.0,0.0,4249.871582,4244.871582,4281.025879,4286.538574,4220.384766,4217.179688,4216.282227,4218.717773,4217.692383,4212.692383,4551.025879,4542.436035,4364.615234,4458.077148,3416.0,2.0,36.0,,,,0.0,4.0,4.0,4.0,4.0,4.0,4.0,4.0,4.0,4.0,4.0,4.0,4.0,4.0,4.0,100.0,,,,,,,,,,,,,,,,,,,,,,,,,,,,,,,,,,,,,,,,,,,,,,,,,,,,,,,,,,,,,,,,,,,,,,,,,,,,,,,,,,,,,,,,,,,,,,,,,,,,,,,,,,,,,,,,,,,,,,,,,,,,,,,,,,,
1725618194.809668,1725618194.810317,201.0,0.0,4250.256348,4242.94873,4281.538574,4286.794922,4219.615234,4218.333496,4215.897461,4218.589844,4218.077148,4213.205078,4544.487305,4541.794922,4362.179688,4453.205078,3892.0,2.0,36.0,,,,0.0,4.0,4.0,4.0,4.0,4.0,4.0,4.0,4.0,4.0,4.0,4.0,4.0,4.0,4.0,100.0,,,,,,,,,,,,,,,,,,,,,,,,,,,,,,,,,,,,,,,,,,,,,,,,,,,,,,,,,,,,,,,,,,,,,,,,,,,,,,,,,,,,,,,,,,,,,,,,,,,,,,,,,,,,,,,,,,,,,,,,,,,,,,,,,,,
1725618194.813572,1725618194.814221,202.0,0.0,4250.512695,4242.05127,4282.692383,4287.692383,4218.589844,4221.410156,4215.897461,4217.05127,4218.846191,4215.256348,4541.794922,4541.153809,4361.282227,4449.615234,2894.0,2.0,36.0,,,,0.0,4.0,4.0,4.0,4.0,4.0,4.0,4.0,4.0,4.0,4.0,4.0,4.0,4.0,4.0,100.0,,,,,,,,,,,,,,,,,,,,,,,,,,,,,,,,,,,,,,,,,,,,,,,,,,,,,,,,0.0,0.0,1.0,0.0,1.0,0.0,,,,,,,,,,,,,,,,,,,,,,,,,,,,,,,,,,,,,,,,,,,,,,,,,,,,,,,,,,,,,,,,,,,,,,
1725618194.817476,1725618194.818126,203.0,0.0,4250.128418,4243.333496,4283.333496,4288.461426,4218.205078,4225.0,4216.538574,4214.487305,4219.230957,4217.05127,4543.974121,4540.512695,4360.897461,4448.333496,3072.0,2.0,36.0,,,,0.0,4.0,4.0,4.0,4.0,4.0,4.0,4.0,4.0,4.0,4.0,4.0,4.0,4.0,4.0,100.0,,,,,,,,,,,,,,,,,,,,,,,,,,,,,,,,,,,,,,,,,,,,,,,,,,,,,,,,,,,,,,,,,,,,,,,,,,,,,,,,,,,,,,,,,,,,,,,,,,,,,,,,,,,,,,,,,,,,,,,,,,,,,,,,,,,
1725618194.821381,1725618194.82203,204.0,0.0,4248.846191,4246.025879,4282.94873,4288.846191,4218.846191,4226.794922,4217.179688,4211.666504,4218.461426,4216.666504,4547.179688,4539.487305,4359.230957,4448.077148,3416.0,2.0,36.0,,,,0.0,4.0,4.0,4.0,4.0,4.0,4.0,4.0,4.0,4.0,4.0,4.0,4.0,4.0,4.0,100.0,,,,,,,,,,,,,,,,,,,,,,,,,,,,,,,,,,,,,,,,,,,,,,,,,,,,,,,,,,,,,,,,,,,,,,,,,,,,,,,,,,,,,,,,,,,,,,,,,,,,,,,,,,,,,,,,,,,,,,,,,,,,,,,,,,,
1725618194.825285,1725618194.825934,205.0,0.0,4247.563965,4247.179688,4281.794922,4288.589844,4219.743652,4225.641113,4216.922852,4209.615234,4217.05127,4214.102539,4547.436035,4538.205078,4356.025879,4447.05127,3892.0,2.0,36.0,,,,0.0,4.0,4.0,4.0,4.0,4.0,4.0,4.0,4.0,4.0,4.0,4.0,4.0,4.0,4.0,100.0,,,,,,,,,,,,,,,,,,,,,,,,,,,,,,,,,,,,,,,,,,,,,,,,,,,,,,,,,,,,,,,,,,,,,,,,,,,,,,,,,,,,,,,,,,,,,,,,,,,,,,,,,,,,,,,,,,,,,,,,,,,,,,,,,,,
1725618194.829189,1725618194.829738,206.0,0.0,4246.666504,4244.487305,4280.512695,4287.692383,4220.0,4221.922852,4215.641113,4209.615234,4215.769043,4210.512695,4543.717773,4537.179688,4353.846191,4444.743652,2894.0,2.0,36.0,,,,0.0,4.0,4.0,4.0,4.0,4.0,4.0,4.0,4.0,4.0,4.0,4.0,4.0,4.0,4.0,100.0,,,,,,,,,,,,,,,,,,,,,,,,,,,,,,,,,,,,,,,,,,,,,,,,,,,,,,,,,,,,,,,,,,,,,,,,,,,,,,,,,,,,,,,,,,,,,,,,,,,,,,,,,,,,,,,,,,,,,,,,,,,,,,,,,,,
1725618194.833093,1725618194.833642,207.0,0.0,4246.794922,4238.589844,4280.0,4287.179688,4219.102539,4217.94873,4214.358887,4212.05127,4215.769043,4208.333496,4539.615234,4536.922852,4355.256348,4443.077148,3072.0,2.0,36.0,,,,0.0,4.0,4.0,4.0,4.0,4.0,4.0,4.0,4.0,4.0,4.0,4.0,4.0,4.0,4.0,100.0,,,,,,,,,,,,,,,,,,,,,,,,,,,,,,,,,,,,,,,,,,,,,,,,,,,,,,,,,,,,,,,,,,,,,,,,,,,,,,,,,,,,,,,,,,,,,,,,,,,,,,,,,,,,,,,,,,,,,,,,,,,,,,,,,,,
1725618194.836997,1725618194.837546,208.0,0.0,4247.692383,4232.94873,4280.384766,4287.563965,4217.563965,4216.025879,4214.102539,4216.025879,4217.307617,4208.974121,4538.974121,4537.692383,4361.410156,4443.974121,3416.0,2.0,36.0,,,,0.0,4.0,4.0,4.0,4.0,4.0,4.0,4.0,4.0,4.0,4.0,4.0,4.0,4.0,4.0,100.0,,,,,,,,,,,,,,,,,,,,,,,,,,,,,,,,,,,,,,,,,,,,,,,,,,,,,,,,,,,,,,,,,,,,,,,,,,,,,,,,,,,,,,,,,,,,,,,,,,,,,,,,,,,,,,,,,,,,,,,,,,,,,,,,,,,
1725618194.840901,1725618194.84155,209.0,0.0,4248.974121,4231.410156,4280.897461,4288.717773,4216.282227,4217.05127,4214.615234,4219.487305,4219.615234,4212.05127,4542.436035,4538.974121,4370.384766,4448.077148,3892.0,2.0,36.0,,,,0.0,4.0,4.0,4.0,4.0,4.0,4.0,4.0,4.0,4.0,4.0,4.0,4.0,4.0,4.0,100.0,,,,,,,,,,,,,,,,,,,,,,,,,,,,,,,,,,,,,,,,,,,,,,,,,,,,,,,,,,,,,,,,,,,,,,,,,,,,,,,,,,,,,,,,,,,,,,,,,,,,,,,,,,,,,,,,,,,,,,,,,,,,,,,,,,,
1725618194.844805,1725618194.845454,210.0,0.0,4250.128418,4234.743652,4281.025879,4290.256348,4216.153809,4219.743652,4214.743652,4220.769043,4221.410156,4215.512695,4546.922852,4540.128418,4378.333496,4453.461426,2894.0,2.0,36.0,,,,0.0,4.0,4.0,4.0,4.0,4.0,4.0,4.0,4.0,4.0,4.0,4.0,4.0,4.0,4.0,100.0,,,,,,,,,,,,,,,,,,,,,,,,,,,,,,,,,,,,,,,,,,,,,,,,,,,,,,,,0.0,0.0,1.0,0.0,1.0,0.0,,,,,,,,,,,,,,,,,,,,,,,,,,,,,,,,,,,,,,,,,,,,,,,,,,,,,,,,,,,,,,,,,,,,,,
1725618194.848709,1725618194.849358,211.0,0.0,4250.641113,4240.128418,4280.384766,4291.025879,4216.794922,4221.666504,4213.461426,4219.615234,4221.666504,4217.563965,4548.333496,4540.256348,4381.794922,4457.436035,3072.0,2.0,36.0,,,,0.0,4.0,4.0,4.0,4.0,4.0,4.0,4.0,4.0,4.0,4.0,4.0,4.0,4.0,4.0,100.0,,,,,,,,,,,,,,,,,,,,,,,,,,,,,,,,,,,,,,,,,,,,,,,,,,,,,,,,,,,,,,,,,,,,,,,,,,,,,,,,,,,,,,,,,,,,,,,,,,,,,,,,,,,,,,,,,,,,,,,,,,,,,,,,,,,
1725618194.852613,1725618194.853262,212.0,0.0,4250.641113,4243.461426,4278.974121,4289.871582,4217.436035,4221.282227,4210.384766,4217.179688,4220.512695,4217.05127,4545.384766,4539.487305,4379.615234,4458.205078,3416.0,2.0,36.0,,,,0.0,4.0,4.0,4.0,4.0,4.0,4.0,4.0,4.0,4.0,4.0,4.0,4.0,4.0,4.0,100.0,,,,,,,,,,,,,,,,,,,,,,,,,,,,,,,,,,,,,,,,,,,,,,,,,,,,,,,,,,,,,,,,,,,,,,,,,,,,,,,,,,,,,,,,,,,,,,,,,,,,,,,,,,,,,,,,,,,,,,,,,,,,,,,,,,,
1725618194.856517,1725618194.857266,213.0,0.0,4249.871582,4242.307617,4277.563965,4286.666504,4217.436035,4218.974121,4206.538574,4215.256348,4218.846191,4214.487305,4540.769043,4538.589844,4374.230957,4456.538574,3892.0,2.0,36.0,,,,0.0,4.0,4.0,4.0,4.0,4.0,4.0,4.0,4.0,4.0,4.0,4.0,4.0,4.0,4.0,100.0,,,,,,,,,,,,,,,,,,,,,,,,,,,,,,,,,,,,,,,,,,,,,,,,,,,,,,,,,,,,,,,,,,,,,,,,,,,,,,,,,,,,,,,,,,,,,,,,,,,,,,,,,,,,,,,,,,,,,,,,,,,,,,,,,,,
1725618194.860422,1725618194.861171,214.0,0.0,4248.846191,4237.563965,4276.922852,4282.179688,4216.794922,4216.538574,4203.205078,4215.512695,4217.692383,4211.922852,4538.589844,4538.205078,4369.743652,4455.0,2894.0,2.0,36.0,,,,0.0,4.0,4.0,4.0,4.0,4.0,4.0,4.0,4.0,4.0,4.0,4.0,4.0,4.0,4.0,100.0,,,,,,,,,,,,,,,,,,,,,,,,,,,,,,,,,,,,,,,,,,,,,,,,,,,,,,,,,,,,,,,,,,,,,,,,,,,,,,,,,,,,,,,,,,,,,,,,,,,,,,,,,,,,,,,,,,,,,,,,,,,,,,,,,,,
1725618194.864326,1725618194.865075,215.0,0.0,4247.94873,4232.179688,4277.436035,4278.333496,4216.025879,4215.512695,4201.282227,4218.077148,4217.563965,4210.897461,4539.871582,4538.717773,4368.717773,4455.256348,3072.0,2.0,36.0,,,,0.0,4.0,4.0,4.0,4.0,4.0,4.0,4.0,4.0,4.0,4.0,4.0,4.0,4.0,4.0,100.0,,,,,,,,,,,,,,,,,,,,,,,,,,,,,,,,,,,,,,,,,,,,,,,,,,,,,,,,,,,,,,,,,,,,,,,,,,,,,,,,,,,,,,,,,,,,,,,,,,,,,,,,,,,,,,,,,,,,,,,,,,,,,,,,,,,
1725618194.86823,1725618194.868979,216.0,0.0,4247.307617,4229.230957,4278.717773,4277.05127,4215.641113,4215.512695,4200.897461,4221.282227,4217.94873,4211.666504,4542.307617,4540.0,4370.641113,4456.922852,3416.0,2.0,36.0,,,,0.0,4.0,4.0,4.0,4.0,4.0,4.0,4.0,4.0,4.0,4.0,4.0,4.0,4.0,4.0,100.0,,,,,,,,,,,,,,,,,,,,,,,,,,,,,,,,,,,,,,,,,,,,,,,,,,,,,,,,,,,,,,,,,,,,,,,,,,,,,,,,,,,,,,,,,,,,,,,,,,,,,,,,,,,,,,,,,,,,,,,,,,,,,,,,,,,
1725618194.872134,1725618194.872783,217.0,0.0,4247.307617,4230.128418,4280.512695,4278.846191,4215.512695,4215.897461,4201.153809,4222.436035,4218.333496,4213.461426,4542.563965,4541.025879,4371.922852,4457.94873,3892.0,2.0,36.0,,,,0.0,4.0,4.0,4.0,4.0,4.0,4.0,4.0,4.0,4.0,4.0,4.0,4.0,4.0,4.0,100.0,,,,,,,,,,,,,,,,,,,,,,,,,,,,,,,,,,,,,,,,,,,,,,,,,,,,,,,,,,,,,,,,,,,,,,,,,,,,,,,,,,,,,,,,,,,,,,,,,,,,,,,,,,,,,,,,,,,,,,,,,,,,,,,,,,,
1725618194.876038,1725618194.876687,218.0,0.0,4248.717773,4233.974121,4282.05127,4282.820313,4215.769043,4215.769043,4201.282227,4220.512695,4218.077148,4214.871582,4540.0,4540.769043,4370.512695,4457.692383,2894.0,2.0,36.0,,,,0.0,4.0,4.0,4.0,4.0,4.0,4.0,4.0,4.0,4.0,4.0,4.0,4.0,4.0,4.0,100.0,,,,,,,,,,,,,,,,,,,,,,,,,,,,,,,,,,,,,,,,,,,,,,,,,,,,,,,,0.0,0.0,1.0,0.0,1.0,0.0,,,,,,,,,,,,,,,,,,,,,,,,,,,,,,,,,,,,,,,,,,,,,,,,,,,,,,,,,,,,,,,,,,,,,,
1725618194.879942,1725618194.880591,219.0,0.0,4251.794922,4238.846191,4283.333496,4286.922852,4215.769043,4215.769043,4201.282227,4216.153809,4217.179688,4215.256348,4537.436035,4538.846191,4367.05127,4456.794922,3072.0,2.0,36.0,,,,0.0,4.0,4.0,4.0,4.0,4.0,4.0,4.0,4.0,4.0,4.0,4.0,4.0,4.0,4.0,100.0,,,,,,,,,,,,,,,,,,,,,,,,,,,,,,,,,,,,,,,,,,,,,,,,,,,,,,,,,,,,,,,,,,,,,,,,,,,,,,,,,,,,,,,,,,,,,,,,,,,,,,,,,,,,,,,,,,,,,,,,,,,,,,,,,,,
1725618194.883846,1725618194.884495,220.0,0.0,4255.769043,4242.94873,4284.230957,4289.230957,4215.641113,4216.538574,4201.410156,4212.436035,4215.769043,4214.615234,4537.563965,4537.563965,4364.615234,4456.666504,3416.0,2.0,36.0,,,,0.0,4.0,4.0,4.0,4.0,4.0,4.0,4.0,4.0,4.0,4.0,4.0,4.0,4.0,4.0,100.0,,,,,,,,,,,,,,,,,,,,,,,,,,,,,,,,,,,,,,,,,,,,,,,,,,,,,,,,,,,,,,,,,,,,,,,,,,,,,,,,,,,,,,,,,,,,,,,,,,,,,,,,,,,,,,,,,,,,,,,,,,,,,,,,,,,
1725618194.88775,1725618194.8883,221.0,0.0,4259.358887,4245.0,4284.871582,4288.846191,4215.641113,4217.94873,4201.922852,4211.666504,4214.615234,4213.077148,4539.743652,4538.717773,4365.0,4457.692383,3892.0,2.0,36.0,,,,0.0,4.0,4.0,4.0,4.0,4.0,4.0,4.0,4.0,4.0,4.0,4.0,4.0,4.0,4.0,100.0,,,,,,,,,,,,,,,,,,,,,,,,,,,,,,,,,,,,,,,,,,,,,,,,,,,,,,,,,,,,,,,,,,,,,,,,,,,,,,,,,,,,,,,,,,,,,,,,,,,,,,,,,,,,,,,,,,,,,,,,,,,,,,,,,,,
1725618194.891654,1725618194.892204,222.0,0.0,4261.282227,4244.615234,4284.743652,4286.538574,4215.897461,4219.487305,4202.436035,4213.974121,4214.230957,4210.384766,4541.538574,4541.922852,4366.794922,4458.589844,2894.0,2.0,36.0,,,,0.0,4.0,4.0,4.0,4.0,4.0,4.0,4.0,4.0,4.0,4.0,4.0,4.0,4.0,4.0,100.0,,,,,,,,,,,,,,,,,,,,,,,,,,,,,,,,,,,,,,,,,,,,,,,,,,,,,,,,,,,,,,,,,,,,,,,,,,,,,,,,,,,,,,,,,,,,,,,,,,,,,,,,,,,,,,,,,,,,,,,,,,,,,,,,,,,
1725618194.895558,1725618194.896108,223.0,0.0,4260.512695,4241.922852,4283.589844,4283.461426,4216.410156,4220.384766,4202.563965,4217.05127,4214.743652,4206.410156,4540.512695,4543.846191,4367.307617,4457.307617,3072.0,2.0,36.0,,,,0.0,4.0,4.0,4.0,4.0,4.0,4.0,4.0,4.0,4.0,4.0,4.0,4.0,4.0,4.0,100.0,,,,,,,,,,,,,,,,,,,,,,,,,,,,,,,,,,,,,,,,,,,,,,,,,,,,,,,,,,,,,,,,,,,,,,,,,,,,,,,,,,,,,,,,,,,,,,,,,,,,,,,,,,,,,,,,,,,,,,,,,,,,,,,,,,,
1725618194.899463,1725618194.900112,224.0,0.0,4257.436035,4237.820313,4281.538574,4280.641113,4216.282227,4220.256348,4201.794922,4218.333496,4215.897461,4202.820313,4537.307617,4541.794922,4364.615234,4452.820313,3416.0,2.0,36.0,,,,0.0,4.0,4.0,4.0,4.0,4.0,4.0,4.0,4.0,4.0,4.0,4.0,4.0,4.0,4.0,100.0,,,,,,,,,,,,,,,,,,,,,,,,,,,,,,,,,,,,,,,,,,,,,,,,,,,,,,,,,,,,,,,,,,,,,,,,,,,,,,,,,,,,,,,,,,,,,,,,,,,,,,,,,,,,,,,,,,,,,,,,,,,,,,,,,,,
1725618194.903367,1725618194.904016,225.0,0.0,4253.077148,4233.717773,4279.230957,4278.717773,4215.0,4218.974121,4200.256348,4216.794922,4216.922852,4201.025879,4533.974121,4536.153809,4360.384766,4446.794922,3892.0,2.0,36.0,,,,0.0,4.0,4.0,4.0,4.0,4.0,4.0,4.0,4.0,4.0,4.0,4.0,4.0,4.0,4.0,100.0,,,,,,,,,,,,,,,,,,,,,,,,,,,,,,,,,,,,,,,,,,,,,,,,,,,,,,,,,,,,,,,,,,,,,,,,,,,,,,,,,,,,,,,,,,,,,,,,,,,,,,,,,,,,,,,,,,,,,,,,,,,,,,,,,,,
1725618194.907271,1725618194.90792,226.0,0.0,4249.743652,4231.025879,4277.179688,4277.820313,4213.333496,4217.692383,4198.717773,4213.461426,4217.436035,4202.307617,4532.94873,4529.743652,4357.820313,4442.436035,2894.0,2.0,36.0,,,,0.0,4.0,4.0,4.0,4.0,4.0,4.0,4.0,4.0,4.0,4.0,4.0,4.0,4.0,4.0,100.0,,,,,,,,,,,,,,,,,1.0,0.0,0.0,,,,,,,,,,,,,,,,,,,,,,,,,,,,,,,,,,,,,0.0,0.0,1.0,0.0,1.0,0.0,1.413534,1.310356,0.318556,0.29905,0.071477,1.132547,0.980607,0.503049,0.314495,0.133993,1.034722,1.361929,0.550216,0.344737,0.087653,0.92115,1.283875,0.475378,0.236234,0.097044,0.651831,0.596857,0.173879,0.124306,0.037406,0.099808,0.31803,0.13482,0.053256,0.065017,0.492388,0.440346,0.255894,0.135771,0.075927,0.600033,2.696196,1.162164,0.309562,0.246016,0.844206,1.268468,0.706961,0.239093,0.085334,1.568169,1.505879,0.912805,0.302876,0.134972,1.73687,2.31508,1.16742,0.376124,0.201311,2.520384,2.686649,1.357382,0.427769,0.251611,1.974345,2.037538,0.998492,0.272795,0.183656,1.607198,1.876004,0.7041,0.357701,0.156599
1725618194.911175,1725618194.911824,227.0,0.0,4248.205078,4230.769043,4276.282227,4278.077148,4212.179688,4217.05127,4198.205078,4210.897461,4217.179688,4206.025879,4534.615234,4525.897461,4358.846191,4442.307617,3072.0,2.0,36.0,,,,0.0,4.0,4.0,4.0,4.0,4.0,4.0,4.0,4.0,4.0,4.0,4.0,4.0,4.0,4.0,100.0,,,,,,,,,,,,,,,,,,,,,,,,,,,,,,,,,,,,,,,,,,,,,,,,,,,,,,,,,,,,,,,,,,,,,,,,,,,,,,,,,,,,,,,,,,,,,,,,,,,,,,,,,,,,,,,,,,,,,,,,,,,,,,,,,,,
1725618194.915079,1725618194.915828,228.0,0.0,4248.333496,4232.820313,4276.794922,4279.102539,4212.05127,4217.307617,4198.717773,4210.641113,4216.666504,4210.512695,4537.436035,4526.538574,4362.820313,4446.025879,3416.0,2.0,36.0,,,,0.0,4.0,4.0,4.0,4.0,4.0,4.0,4.0,4.0,4.0,4.0,4.0,4.0,4.0,4.0,100.0,,,,,,,,,,,,,,,,,,,,,,,,,,,,,,,,,,,,,,,,,,,,,,,,,,,,,,,,,,,,,,,,,,,,,,,,,,,,,,,,,,,,,,,,,,,,,,,,,,,,,,,,,,,,,,,,,,,,,,,,,,,,,,,,,,,
1725618194.918983,1725618194.919732,229.0,0.0,4248.846191,4235.769043,4278.333496,4280.256348,4213.333496,4217.94873,4199.743652,4212.307617,4216.153809,4214.230957,4539.871582,4531.025879,4367.563965,4451.282227,3892.0,2.0,36.0,,,,0.0,4.0,4.0,4.0,4.0,4.0,4.0,4.0,4.0,4.0,4.0,4.0,4.0,4.0,4.0,100.0,,,,,,,,,,,,,,,,,,,,,,,,,,,,,,,,,,,,,,,,,,,,,,,,,,,,,,,,,,,,,,,,,,,,,,,,,,,,,,,,,,,,,,,,,,,,,,,,,,,,,,,,,,,,,,,,,,,,,,,,,,,,,,,,,,,
1725618194.922887,1725618194.923636,230.0,0.0,4249.358887,4237.94873,4280.384766,4281.410156,4215.0,4218.461426,4200.384766,4214.615234,4216.410156,4216.153809,4540.897461,4537.563965,4370.384766,4455.641113,2894.0,2.0,36.0,,,,0.0,4.0,4.0,4.0,4.0,4.0,4.0,4.0,4.0,4.0,4.0,4.0,4.0,4.0,4.0,100.0,,,,,,,,,,,,,,,,,,,,,,,,,,,,,,,,,,,,,,,,,,,,,,,,,,,,,,,,,,,,,,,,,,,,,,,,,,,,,,,,,,,,,,,,,,,,,,,,,,,,,,,,,,,,,,,,,,,,,,,,,,,,,,,,,,,
1725618194.926791,1725618194.92754,231.0,0.0,4250.256348,4238.974121,4282.179688,4282.436035,4216.410156,4219.102539,4200.384766,4216.794922,4217.436035,4216.922852,4540.897461,4543.974121,4370.897461,4458.461426,3072.0,2.0,36.0,,,,0.0,4.0,4.0,4.0,4.0,4.0,4.0,4.0,4.0,4.0,4.0,4.0,4.0,4.0,4.0,100.0,,,,,,,,,,,,,,,,,,,,,,,,,,,,,,,,,,,,,,,,,,,,,,,,,,,,,,,,,,,,,,,,,,,,,,,,,,,,,,,,,,,,,,,,,,,,,,,,,,,,,,,,,,,,,,,,,,,,,,,,,,,,,,,,,,,
1725618194.930695,1725618194.931444,232.0,0.0,4251.794922,4238.846191,4283.333496,4282.94873,4216.922852,4219.871582,4200.128418,4218.589844,4218.846191,4217.436035,4540.384766,4548.717773,4370.128418,4460.384766,3416.0,2.0,36.0,,,,0.0,4.0,4.0,4.0,4.0,4.0,4.0,4.0,4.0,4.0,4.0,4.0,4.0,4.0,4.0,100.0,,,,,,,,,,,,,,,,,,,,,,,,,,,,,,,,,,,,,,,,,,,,,,,,,,,,,,,,,,,,,,,,,,,,,,,,,,,,,,,,,,,,,,,,,,,,,,,,,,,,,,,,,,,,,,,,,,,,,,,,,,,,,,,,,,,
1725618194.9346,1725618194.935249,233.0,0.0,4253.846191,4237.436035,4283.589844,4282.692383,4216.666504,4219.871582,4199.743652,4220.0,4220.0,4218.077148,4540.384766,4550.897461,4369.743652,4461.538574,3892.0,2.0,36.0,,,,0.0,4.0,4.0,4.0,4.0,4.0,4.0,4.0,4.0,4.0,4.0,4.0,4.0,4.0,4.0,100.0,,,,,,,,,,,,,,,,,,,,,,,,,,,,,,,,,,,,,,,,,,,,,,,,,,,,,,,,,,,,,,,,,,,,,,,,,,,,,,,,,,,,,,,,,,,,,,,,,,,,,,,,,,,,,,,,,,,,,,,,,,,,,,,,,,,
1725618194.938504,1725618194.939153,234.0,0.0,4255.0,4235.384766,4282.820313,4281.794922,4216.282227,4218.589844,4199.615234,4221.025879,4220.384766,4218.589844,4540.769043,4550.0,4370.0,4461.153809,2894.0,2.0,36.0,,,,0.0,4.0,4.0,4.0,4.0,4.0,4.0,4.0,4.0,4.0,4.0,4.0,4.0,4.0,4.0,100.0,,,,,,,,,,,,,,,,,,,,,,,,,,,,,,,,,,,,,,,,,,,,,,,,,,,,,,,,0.0,0.0,1.0,0.0,1.0,0.0,,,,,,,,,,,,,,,,,,,,,,,,,,,,,,,,,,,,,,,,,,,,,,,,,,,,,,,,,,,,,,,,,,,,,,
1725618194.942408,1725618194.943157,235.0,0.0,4253.974121,4233.333496,4281.282227,4280.769043,4216.025879,4216.922852,4199.743652,4221.025879,4220.0,4218.461426,4541.282227,4546.538574,4369.871582,4458.205078,3072.0,2.0,36.0,,,,0.0,4.0,4.0,4.0,4.0,4.0,4.0,4.0,4.0,4.0,4.0,4.0,4.0,4.0,4.0,100.0,,,,,,,,,,,,,,,,,,,,,,,,,,,,,,,,,,,,,,,,,,,,,,,,,,,,,,,,,,,,,,,,,,,,,,,,,,,,,,,,,,,,,,,,,,,,,,,,,,,,,,,,,,,,,,,,,,,,,,,,,,,,,,,,,,,
1725618194.946312,1725618194.947061,236.0,0.0,4251.153809,4232.05127,4279.358887,4280.0,4216.153809,4216.666504,4199.743652,4220.0,4219.358887,4217.179688,4541.153809,4541.666504,4368.333496,4453.333496,3416.0,2.0,36.0,,,,0.0,4.0,4.0,4.0,4.0,4.0,4.0,4.0,4.0,4.0,4.0,4.0,4.0,4.0,4.0,100.0,,,,,,,,,,,,,,,,,,,,,,,,,,,,,,,,,,,,,,,,,,,,,,,,,,,,,,,,,,,,,,,,,,,,,,,,,,,,,,,,,,,,,,,,,,,,,,,,,,,,,,,,,,,,,,,,,,,,,,,,,,,,,,,,,,,
1725618194.950216,1725618194.950965,237.0,0.0,4247.94873,4231.794922,4278.333496,4279.743652,4216.666504,4218.974121,4199.102539,4218.717773,4218.589844,4215.256348,4539.743652,4537.179688,4365.512695,4448.461426,3892.0,2.0,36.0,,,,0.0,4.0,4.0,4.0,4.0,4.0,4.0,4.0,4.0,4.0,4.0,4.0,4.0,4.0,4.0,100.0,,,,,,,,,,,,,,,,,,,,,,,,,,,,,,,,,,,,,,,,,,,,,,,,,,,,,,,,,,,,,,,,,,,,,,,,,,,,,,,,,,,,,,,,,,,,,,,,,,,,,,,,,,,,,,,,,,,,,,,,,,,,,,,,,,,
1725618194.95412,1725618194.954869,238.0,0.0,4246.153809,4232.05127,4278.333496,4279.358887,4217.179688,4222.94873,4198.461426,4217.94873,4218.077148,4213.333496,4537.563965,4535.0,4362.94873,4445.641113,2894.0,2.0,36.0,,,,0.0,4.0,4.0,4.0,4.0,4.0,4.0,4.0,4.0,4.0,4.0,4.0,4.0,4.0,4.0,100.0,,,,,,,,,,,,,,,,,,,,,,,,,,,,,,,,,,,,,,,,,,,,,,,,,,,,,,,,,,,,,,,,,,,,,,,,,,,,,,,,,,,,,,,,,,,,,,,,,,,,,,,,,,,,,,,,,,,,,,,,,,,,,,,,,,,
1725618194.958024,1725618194.958773,239.0,0.0,4246.282227,4232.563965,4279.102539,4279.358887,4217.436035,4226.410156,4198.717773,4218.205078,4217.820313,4212.436035,4535.897461,4535.512695,4362.563965,4445.641113,3072.0,2.0,36.0,,,,0.0,4.0,4.0,4.0,4.0,4.0,4.0,4.0,4.0,4.0,4.0,4.0,4.0,4.0,4.0,100.0,,,,,,,,,,,,,,,,,,,,,,,,,,,,,,,,,,,,,,,,,,,,,,,,,,,,,,,,,,,,,,,,,,,,,,,,,,,,,,,,,,,,,,,,,,,,,,,,,,,,,,,,,,,,,,,,,,,,,,,,,,,,,,,,,,,
1725618194.961928,1725618194.962677,240.0,0.0,4247.436035,4232.820313,4279.871582,4280.0,4217.307617,4227.179688,4199.743652,4219.615234,4217.563965,4212.820313,4535.897461,4537.820313,4364.487305,4446.922852,3416.0,2.0,36.0,,,,0.0,4.0,4.0,4.0,4.0,4.0,4.0,4.0,4.0,4.0,4.0,4.0,4.0,4.0,4.0,100.0,,,,,,,,,,,,,,,,,,,,,,,,,,,,,,,,,,,,,,,,,,,,,,,,,,,,,,,,,,,,,,,,,,,,,,,,,,,,,,,,,,,,,,,,,,,,,,,,,,,,,,,,,,,,,,,,,,,,,,,,,,,,,,,,,,,
1725618194.965832,1725618194.966581,241.0,0.0,4248.333496,4232.94873,4279.743652,4281.153809,4217.179688,4224.871582,4200.128418,4220.512695,4217.179688,4214.230957,4537.692383,4539.487305,4366.922852,4447.94873,3892.0,2.0,36.0,,,,0.0,4.0,4.0,4.0,4.0,4.0,4.0,4.0,4.0,4.0,4.0,4.0,4.0,4.0,4.0,100.0,,,,,,,,,,,,,,,,,,,,,,,,,,,,,,,,,,,,,,,,,,,,,,,,,,,,,,,,,,,,,,,,,,,,,,,,,,,,,,,,,,,,,,,,,,,,,,,,,,,,,,,,,,,,,,,,,,,,,,,,,,,,,,,,,,,
1725618194.969736,1725618194.970485,242.0,0.0,4248.333496,4232.94873,4278.846191,4281.794922,4216.794922,4220.897461,4198.974121,4220.128418,4216.666504,4215.256348,4539.871582,4539.358887,4367.94873,4447.820313,2894.0,2.0,36.0,,,,0.0,4.0,4.0,4.0,4.0,4.0,4.0,4.0,4.0,4.0,4.0,4.0,4.0,4.0,4.0,100.0,,,,,,,,,,,,,,,,,,,,,,,,,,,,,,,,,,,,,,,,,,,,,,,,,,,,,,,,0.0,0.0,1.0,0.0,1.0,0.0,,,,,,,,,,,,,,,,,,,,,,,,,,,,,,,,,,,,,,,,,,,,,,,,,,,,,,,,,,,,,,,,,,,,,,
1725618194.973641,1725618194.97439,243.0,0.0,4247.94873,4232.820313,4277.820313,4281.153809,4216.538574,4217.692383,4196.538574,4218.589844,4216.153809,4215.256348,4541.538574,4537.94873,4366.794922,4446.794922,3072.0,2.0,36.0,,,,0.0,4.0,4.0,4.0,4.0,4.0,4.0,4.0,4.0,4.0,4.0,4.0,4.0,4.0,4.0,100.0,,,,,,,,,,,,,,,,,,,,,,,,,,,,,,,,,,,,,,,,,,,,,,,,,,,,,,,,,,,,,,,,,,,,,,,,,,,,,,,,,,,,,,,,,,,,,,,,,,,,,,,,,,,,,,,,,,,,,,,,,,,,,,,,,,,
1725618194.977545,1725618194.978194,244.0,0.0,4248.205078,4232.563965,4277.436035,4279.615234,4216.153809,4216.666504,4193.717773,4217.307617,4215.769043,4214.358887,4542.05127,4537.563965,4364.615234,4446.538574,3416.0,2.0,36.0,,,,0.0,4.0,4.0,4.0,4.0,4.0,4.0,4.0,4.0,4.0,4.0,4.0,4.0,4.0,4.0,100.0,,,,,,,,,,,,,,,,,,,,,,,,,,,,,,,,,,,,,,,,,,,,,,,,,,,,,,,,,,,,,,,,,,,,,,,,,,,,,,,,,,,,,,,,,,,,,,,,,,,,,,,,,,,,,,,,,,,,,,,,,,,,,,,,,,,
1725618194.981449,1725618194.982098,245.0,0.0,4249.358887,4232.307617,4278.461426,4278.205078,4215.769043,4217.820313,4192.179688,4217.179688,4215.769043,4213.589844,4541.153809,4539.358887,4363.717773,4447.94873,3892.0,2.0,36.0,,,,0.0,4.0,4.0,4.0,4.0,4.0,4.0,4.0,4.0,4.0,4.0,4.0,4.0,4.0,4.0,100.0,,,,,,,,,,,,,,,,,,,,,,,,,,,,,,,,,,,,,,,,,,,,,,,,,,,,,,,,,,,,,,,,,,,,,,,,,,,,,,,,,,,,,,,,,,,,,,,,,,,,,,,,,,,,,,,,,,,,,,,,,,,,,,,,,,,
1725618194.985353,1725618194.986002,246.0,0.0,4251.410156,4232.307617,4280.512695,4278.077148,4215.641113,4219.487305,4192.820313,4217.820313,4216.282227,4213.205078,4539.615234,4541.922852,4365.0,4450.384766,2894.0,2.0,36.0,,,,0.0,4.0,4.0,4.0,4.0,4.0,4.0,4.0,4.0,4.0,4.0,4.0,4.0,4.0,4.0,100.0,,,,,,,,,,,,,,,,,,,,,,,,,,,,,,,,,,,,,,,,,,,,,,,,,,,,,,,,,,,,,,,,,,,,,,,,,,,,,,,,,,,,,,,,,,,,,,,,,,,,,,,,,,,,,,,,,,,,,,,,,,,,,,,,,,,
1725618194.989257,1725618194.989906,247.0,0.0,4252.820313,4232.436035,4282.307617,4279.358887,4215.384766,4220.128418,4195.512695,4217.94873,4216.922852,4213.333496,4538.333496,4542.692383,4368.077148,4452.05127,3072.0,2.0,36.0,,,,0.0,4.0,4.0,4.0,4.0,4.0,4.0,4.0,4.0,4.0,4.0,4.0,4.0,4.0,4.0,100.0,,,,,,,,,,,,,,,,,,,,,,,,,,,,,,,,,,,,,,,,,,,,,,,,,,,,,,,,,,,,,,,,,,,,,,,,,,,,,,,,,,,,,,,,,,,,,,,,,,,,,,,,,,,,,,,,,,,,,,,,,,,,,,,,,,,
1725618194.993161,1725618194.99371,248.0,0.0,4252.692383,4232.94873,4282.820313,4281.282227,4215.128418,4218.974121,4198.717773,4217.307617,4217.307617,4213.205078,4538.974121,4540.769043,4371.025879,4451.666504,3416.0,2.0,36.0,,,,0.0,4.0,4.0,4.0,4.0,4.0,4.0,4.0,4.0,4.0,4.0,4.0,4.0,4.0,4.0,100.0,,,,,,,,,,,,,,,,,,,,,,,,,,,,,,,,,,,,,,,,,,,,,,,,,,,,,,,,,,,,,,,,,,,,,,,,,,,,,,,,,,,,,,,,,,,,,,,,,,,,,,,,,,,,,,,,,,,,,,,,,,,,,,,,,,,
1725618194.997065,1725618194.997614,249.0,0.0,4251.282227,4233.333496,4281.666504,4282.820313,4214.743652,4217.307617,4200.384766,4216.666504,4217.436035,4212.820313,4541.922852,4538.077148,4372.563965,4449.743652,3892.0,2.0,36.0,,,,0.0,4.0,4.0,4.0,4.0,4.0,4.0,4.0,4.0,4.0,4.0,4.0,4.0,4.0,4.0,100.0,,,,,,,,,,,,,,,,,,,,,,,,,,,,,,,,,,,,,,,,,,,,,,,,,,,,,,,,,,,,,,,,,,,,,,,,,,,,,,,,,,,,,,,,,,,,,,,,,,,,,,,,,,,,,,,,,,,,,,,,,,,,,,,,,,,
1725618195.000969,1725618195.001519,250.0,0.0,4250.0,4233.717773,4280.0,4283.461426,4214.615234,4216.282227,4199.230957,4217.436035,4217.563965,4212.563965,4546.282227,4537.307617,4372.692383,4448.461426,2894.0,2.0,36.0,,,,0.0,4.0,4.0,4.0,4.0,4.0,4.0,4.0,4.0,4.0,4.0,4.0,4.0,4.0,4.0,100.0,,,,,,,,,,,,,,,,,,,,,,,,,,,,,,,,,,,,,,,,,,,,,,,,,,,,,,,,0.0,0.0,1.0,0.0,1.0,0.0,,,,,,,,,,,,,,,,,,,,,,,,,,,,,,,,,,,,,,,,,,,,,,,,,,,,,,,,,,,,,,,,,,,,,,
1725618195.004873,1725618195.005523,251.0,0.0,4249.487305,4234.102539,4279.230957,4283.077148,4214.615234,4216.410156,4196.153809,4219.615234,4217.94873,4212.692383,4550.128418,4539.230957,4371.794922,4448.974121,3072.0,2.0,36.0,,,,0.0,4.0,4.0,4.0,4.0,4.0,4.0,4.0,4.0,4.0,4.0,4.0,4.0,4.0,4.0,100.0,,,,,,,,,,,,,,,,,,,,,,,,,,,,,,,,,,,,,,,,,,,,,,,,,,,,,,,,,,,,,,,,,,,,,,,,,,,,,,,,,,,,,,,,,,,,,,,,,,,,,,,,,,,,,,,,,,,,,,,,,,,,,,,,,,,
1725618195.008778,1725618195.009427,252.0,0.0,4249.871582,4234.743652,4279.487305,4282.179688,4214.615234,4216.922852,4192.94873,4221.666504,4217.94873,4213.333496,4551.153809,4541.922852,4370.641113,4450.512695,3416.0,2.0,36.0,,,,0.0,4.0,4.0,4.0,4.0,4.0,4.0,4.0,4.0,4.0,4.0,4.0,4.0,4.0,4.0,100.0,,,,,,,,,,,,,,,,,,,,,,,,,,,,,,,,,,,,,,,,,,,,,,,,,,,,,,,,,,,,,,,,,,,,,,,,,,,,,,,,,,,,,,,,,,,,,,,,,,,,,,,,,,,,,,,,,,,,,,,,,,,,,,,,,,,
1725618195.012682,1725618195.013331,253.0,0.0,4250.512695,4235.384766,4280.384766,4281.410156,4214.743652,4217.05127,4191.153809,4221.538574,4217.563965,4213.717773,4548.461426,4542.05127,4369.743652,4450.769043,3892.0,2.0,36.0,,,,0.0,4.0,4.0,4.0,4.0,4.0,4.0,4.0,4.0,4.0,4.0,4.0,4.0,4.0,4.0,100.0,,,,,,,,,,,,,,,,,,,,,,,,,,,,,,,,,,,,,,,,,,,,,,,,,,,,,,,,,,,,,,,,,,,,,,,,,,,,,,,,,,,,,,,,,,,,,,,,,,,,,,,,,,,,,,,,,,,,,,,,,,,,,,,,,,,
1725618195.016586,1725618195.017335,254.0,0.0,4250.512695,4235.897461,4280.769043,4280.769043,4214.871582,4216.794922,4190.512695,4219.230957,4216.794922,4213.333496,4543.333496,4537.820313,4368.974121,4448.974121,2894.0,2.0,36.0,,,,0.0,4.0,4.0,4.0,4.0,4.0,4.0,4.0,4.0,4.0,4.0,4.0,4.0,4.0,4.0,100.0,,,,,,,,,,,,,,,,,,,,,,,,,,,,,,,,,,,,,,,,,,,,,,,,,,,,,,,,,,,,,,,,,,,,,,,,,,,,,,,,,,,,,,,,,,,,,,,,,,,,,,,,,,,,,,,,,,,,,,,,,,,,,,,,,,,
1725618195.02049,1725618195.021239,255.0,0.0,4249.487305,4236.153809,4280.128418,4280.512695,4215.0,4217.05127,4189.871582,4216.025879,4216.025879,4212.307617,4538.461426,4531.282227,4368.333496,4445.897461,36.0,2.0,36.0,,,,0.0,4.0,4.0,4.0,4.0,4.0,4.0,4.0,4.0,4.0,4.0,4.0,4.0,4.0,4.0,100.0,,,,,,,,,,,,,,,,,,,,,,,,,,,,,,,,,,,,,,,,,,,,,,,,,,,,,,,,,,,,,,,,,,,,,,,,,,,,,,,,,,,,,,,,,,,,,,,,,,,,,,,,,,,,,,,,,,,,,,,,,,,,,,,,,,,
1725618195.024394,1725618195.025143,0.0,0.0,4247.820313,4235.897461,4278.717773,4280.0,4215.0,4217.820313,4188.461426,4214.358887,4215.641113,4211.153809,4536.025879,4525.897461,4366.794922,4443.589844,2616.0,2.0,36.0,,,,0.0,4.0,4.0,4.0,4.0,4.0,4.0,4.0,4.0,4.0,4.0,4.0,4.0,4.0,4.0,100.0,,,,,,,,,,,,,,,,,,,,,,,,,,,,,,,,,,,,,,,,,,,,,,,,,,,,,,,,,,,,,,,,,,,,,,,,,,,,,,,,,,,,,,,,,,,,,,,,,,,,,,,,,,,,,,,,,,,,,,,,,,,,,,,,,,,
1725618195.028298,1725618195.029047,1.0,0.0,4246.153809,4235.128418,4276.922852,4279.358887,4214.871582,4218.589844,4186.666504,4214.743652,4215.641113,4210.384766,4535.641113,4524.230957,4364.358887,4442.692383,2570.0,2.0,36.0,,,,0.0,4.0,4.0,4.0,4.0,4.0,4.0,4.0,4.0,4.0,4.0,4.0,4.0,4.0,4.0,100.0,,,,,,,,,,,,,,,,,,,,,,,,,,,,,,,,,,,,,,,,,,,,,,,,,,,,,,,,,,,,,,,,,,,,,,,,,,,,,,,,,,,,,,,,,,,,,,,,,,,,,,,,,,,,,,,,,,,,,,,,,,,,,,,,,,,
1725618195.032202,1725618195.032951,2.0,0.0,4244.871582,4234.230957,4275.128418,4278.333496,4214.358887,4218.846191,4185.512695,4216.282227,4215.641113,4210.384766,4535.256348,4525.256348,4361.538574,4442.820313,2454.0,2.0,36.0,,,,0.0,4.0,4.0,4.0,4.0,4.0,4.0,4.0,4.0,4.0,4.0,4.0,4.0,4.0,4.0,100.0,,,,,,,,,,,,,,,,,1.0,0.0,0.0,,,,,,,,,,,,,,,,,,,,,,,,,,,,,,,,,,,,,0.0,0.0,1.0,0.0,1.0,0.0,1.639009,1.259808,0.375106,0.342573,0.077495,1.140958,0.918129,0.486818,0.338675,0.136943,1.164207,1.031341,0.542601,0.382281,0.098634,0.959667,1.191756,0.481189,0.264512,0.0981,0.622299,0.658825,0.129057,0.163965,0.035212,0.083197,0.29063,0.118865,0.048968,0.065462,0.506869,0.512071,0.225236,0.153699,0.087091,0.651982,2.53163,1.151717,0.338928,0.257437,0.891349,1.35672,0.663637,0.235438,0.078507,1.750999,1.409798,0.945913,0.278226,0.115332,2.231425,1.900482,1.054728,0.389278,0.197263,3.03405,2.181905,1.193167,0.432618,0.260775,2.502535,1.717604,0.886652,0.278844,0.171147,2.139749,1.533222,0.682116,0.386792,0.140818
1725618195.036106,1725618195.036855,3.0,0.0,4244.615234,4233.589844,4273.974121,4277.563965,4213.846191,4219.102539,4185.384766,4217.563965,4216.025879,4211.282227,4533.333496,4526.794922,4359.487305,4443.077148,2466.0,2.0,36.0,,,,0.0,4.0,4.0,4.0,4.0,4.0,4.0,4.0,4.0,4.0,4.0,4.0,4.0,4.0,4.0,100.0,,,,,,,,,,,,,,,,,,,,,,,,,,,,,,,,,,,,,,,,,,,,,,,,,,,,,,,,,,,,,,,,,,,,,,,,,,,,,,,,,,,,,,,,,,,,,,,,,,,,,,,,,,,,,,,,,,,,,,,,,,,,,,,,,,,
1725618195.04001,1725618195.040659,4.0,0.0,4245.384766,4233.333496,4273.846191,4277.05127,4214.102539,4219.487305,4186.025879,4217.563965,4216.666504,4212.94873,4529.871582,4527.05127,4358.974121,4442.820313,2424.0,2.0,36.0,,,,0.0,4.0,4.0,4.0,4.0,4.0,4.0,4.0,4.0,4.0,4.0,4.0,4.0,4.0,4.0,100.0,,,,,,,,,,,,,,,,,,,,,,,,,,,,,,,,,,,,,,,,,,,,,,,,,,,,,,,,,,,,,,,,,,,,,,,,,,,,,,,,,,,,,,,,,,,,,,,,,,,,,,,,,,,,,,,,,,,,,,,,,,,,,,,,,,,
1725618195.043914,1725618195.044564,5.0,0.0,4247.05127,4233.333496,4274.871582,4276.922852,4215.0,4219.871582,4186.538574,4216.794922,4217.820313,4214.615234,4526.794922,4526.922852,4360.128418,4442.307617,2396.0,2.0,36.0,,,,0.0,4.0,4.0,4.0,4.0,4.0,4.0,4.0,4.0,4.0,4.0,4.0,4.0,4.0,4.0,100.0,,,,,,,,,,,,,,,,,,,,,,,,,,,,,,,,,,,,,,,,,,,,,,,,,,,,,,,,,,,,,,,,,,,,,,,,,,,,,,,,,,,,,,,,,,,,,,,,,,,,,,,,,,,,,,,,,,,,,,,,,,,,,,,,,,,
1725618195.047819,1725618195.048468,6.0,0.0,4248.717773,4233.461426,4276.922852,4277.05127,4216.025879,4220.0,4186.666504,4216.153809,4218.846191,4215.641113,4525.512695,4528.205078,4362.179688,4442.307617,2182.0,2.0,36.0,,,,0.0,4.0,4.0,4.0,4.0,4.0,4.0,4.0,4.0,4.0,4.0,4.0,4.0,4.0,4.0,100.0,,,,,,,,,,,,,,,,,,,,,,,,,,,,,,,,,,,,,,,,,,,,,,,,,,,,,,,,,,,,,,,,,,,,,,,,,,,,,,,,,,,,,,,,,,,,,,,,,,,,,,,,,,,,,,,,,,,,,,,,,,,,,,,,,,,
1725618195.051723,1725618195.052472,7.0,0.0,4249.871582,4233.333496,4279.230957,4277.179688,4216.282227,4219.615234,4186.282227,4216.538574,4219.102539,4215.0,4526.666504,4531.794922,4363.974121,4443.589844,2494.0,2.0,36.0,,,,0.0,4.0,4.0,4.0,4.0,4.0,4.0,4.0,4.0,4.0,4.0,4.0,4.0,4.0,4.0,100.0,,,,,,,,,,,,,,,,,,,,,,,,,,,,,,,,,,,,,,,,,,,,,,,,,,,,,,,,,,,,,,,,,,,,,,,,,,,,,,,,,,,,,,,,,,,,,,,,,,,,,,,,,,,,,,,,,,,,,,,,,,,,,,,,,,,
1725618195.055627,1725618195.056376,8.0,0.0,4250.0,4233.205078,4280.769043,4277.436035,4215.512695,4219.102539,4185.769043,4218.077148,4218.589844,4213.077148,4529.102539,4536.410156,4364.615234,4445.641113,2479.0,2.0,36.0,,,,0.0,4.0,4.0,4.0,4.0,4.0,4.0,4.0,4.0,4.0,4.0,4.0,4.0,4.0,4.0,100.0,,,,,,,,,,,,,,,,,,,,,,,,,,,,,,,,,,,,,,,,,,,,,,,,,,,,,,,,,,,,,,,,,,,,,,,,,,,,,,,,,,,,,,,,,,,,,,,,,,,,,,,,,,,,,,,,,,,,,,,,,,,,,,,,,,,
1725618195.059531,1725618195.06028,9.0,0.0,4249.615234,4233.205078,4281.153809,4277.820313,4214.358887,4218.974121,4185.384766,4219.743652,4217.436035,4210.641113,4531.282227,4540.0,4363.974121,4447.179688,2558.0,2.0,36.0,,,,0.0,4.0,4.0,4.0,4.0,4.0,4.0,4.0,4.0,4.0,4.0,4.0,4.0,4.0,4.0,100.0,,,,,,,,,,,,,,,,,,,,,,,,,,,,,,,,,,,,,,,,,,,,,,,,,,,,,,,,,,,,,,,,,,,,,,,,,,,,,,,,,,,,,,,,,,,,,,,,,,,,,,,,,,,,,,,,,,,,,,,,,,,,,,,,,,,
1725618195.063435,1725618195.064184,10.0,0.0,4249.230957,4233.461426,4280.897461,4278.461426,4213.717773,4219.615234,4185.769043,4220.384766,4216.666504,4209.358887,4533.205078,4541.153809,4362.94873,4447.179688,2892.0,2.0,36.0,,,,0.0,4.0,4.0,4.0,4.0,4.0,4.0,4.0,4.0,4.0,4.0,4.0,4.0,4.0,4.0,100.0,,,,,,,,,,,,,,,,,,,,,,,,,,,,,,,,,,,,,,,,,,,,,,,,,,,,,,,,0.0,0.0,1.0,0.0,1.0,0.0,,,,,,,,,,,,,,,,,,,,,,,,,,,,,,,,,,,,,,,,,,,,,,,,,,,,,,,,,,,,,,,,,,,,,,
1725618195.067339,1725618195.068088,11.0,0.0,4249.487305,4233.846191,4280.897461,4279.615234,4213.974121,4220.641113,4187.179688,4220.0,4216.538574,4209.871582,4535.769043,4539.871582,4362.94873,4446.538574,3072.0,2.0,36.0,,,,0.0,4.0,4.0,4.0,4.0,4.0,4.0,4.0,4.0,4.0,4.0,4.0,4.0,4.0,4.0,100.0,,,,,,,,,,,,,,,,,,,,,,,,,,,,,,,,,,,,,,,,,,,,,,,,,,,,,,,,,,,,,,,,,,,,,,,,,,,,,,,,,,,,,,,,,,,,,,,,,,,,,,,,,,,,,,,,,,,,,,,,,,,,,,,,,,,
1725618195.071243,1725618195.071892,12.0,0.0,4250.256348,4234.230957,4281.410156,4281.025879,4215.0,4221.410156,4188.589844,4219.615234,4217.05127,4211.794922,4538.846191,4537.692383,4364.615234,4447.05127,3420.0,2.0,36.0,,,,0.0,4.0,4.0,4.0,4.0,4.0,4.0,4.0,4.0,4.0,4.0,4.0,4.0,4.0,4.0,100.0,,,,,,,,,,,,,,,,,,,,,,,,,,,,,,,,,,,,,,,,,,,,,,,,,,,,,,,,,,,,,,,,,,,,,,,,,,,,,,,,,,,,,,,,,,,,,,,,,,,,,,,,,,,,,,,,,,,,,,,,,,,,,,,,,,,
1725618195.075147,1725618195.075796,13.0,0.0,4251.153809,4234.615234,4282.692383,4282.179688,4215.897461,4221.410156,4188.974121,4219.358887,4217.563965,4213.846191,4541.410156,4536.410156,4366.922852,4448.846191,3887.0,2.0,36.0,,,,0.0,4.0,4.0,4.0,4.0,4.0,4.0,4.0,4.0,4.0,4.0,4.0,4.0,4.0,4.0,100.0,,,,,,,,,,,,,,,,,,,,,,,,,,,,,,,,,,,,,,,,,,,,,,,,,,,,,,,,,,,,,,,,,,,,,,,,,,,,,,,,,,,,,,,,,,,,,,,,,,,,,,,,,,,,,,,,,,,,,,,,,,,,,,,,,,,
1725618195.079051,1725618195.079701,14.0,0.0,4251.410156,4234.743652,4283.589844,4282.563965,4216.282227,4220.384766,4188.461426,4219.102539,4217.179688,4214.871582,4542.179688,4536.410156,4368.717773,4451.153809,2892.0,2.0,36.0,,,,0.0,4.0,4.0,4.0,4.0,4.0,4.0,4.0,4.0,4.0,4.0,4.0,4.0,4.0,4.0,100.0,,,,,,,,,,,,,,,,,,,,,,,,,,,,,,,,,,,,,,,,,,,,,,,,,,,,,,,,,,,,,,,,,,,,,,,,,,,,,,,,,,,,,,,,,,,,,,,,,,,,,,,,,,,,,,,,,,,,,,,,,,,,,,,,,,,
1725618195.082955,1725618195.083505,15.0,0.0,4250.512695,4234.871582,4283.589844,4281.666504,4216.025879,4219.102539,4187.692383,4218.333496,4216.153809,4214.615234,4541.282227,4537.307617,4368.589844,4452.05127,3072.0,2.0,36.0,,,,0.0,4.0,4.0,4.0,4.0,4.0,4.0,4.0,4.0,4.0,4.0,4.0,4.0,4.0,4.0,100.0,,,,,,,,,,,,,,,,,,,,,,,,,,,,,,,,,,,,,,,,,,,,,,,,,,,,,,,,,,,,,,,,,,,,,,,,,,,,,,,,,,,,,,,,,,,,,,,,,,,,,,,,,,,,,,,,,,,,,,,,,,,,,,,,,,,
1725618195.08686,1725618195.087409,16.0,0.0,4248.974121,4235.256348,4282.563965,4280.128418,4215.384766,4218.077148,4187.436035,4217.05127,4215.128418,4213.974121,4539.615234,4538.205078,4367.05127,4451.025879,3420.0,2.0,36.0,,,,0.0,4.0,4.0,4.0,4.0,4.0,4.0,4.0,4.0,4.0,4.0,4.0,4.0,4.0,4.0,100.0,,,,,,,,,,,,,,,,,,,,,,,,,,,,,,,,,,,,,,,,,,,,,,,,,,,,,,,,,,,,,,,,,,,,,,,,,,,,,,,,,,,,,,,,,,,,,,,,,,,,,,,,,,,,,,,,,,,,,,,,,,,,,,,,,,,
1725618195.090764,1725618195.091313,17.0,0.0,4247.692383,4236.153809,4281.666504,4279.230957,4214.871582,4218.077148,4187.820313,4215.512695,4215.128418,4213.974121,4538.205078,4538.205078,4365.384766,4449.102539,3887.0,2.0,36.0,,,,0.0,4.0,4.0,4.0,4.0,4.0,4.0,4.0,4.0,4.0,4.0,4.0,4.0,4.0,4.0,100.0,,,,,,,,,,,,,,,,,,,,,,,,,,,,,,,,,,,,,,,,,,,,,,,,,,,,,,,,,,,,,,,,,,,,,,,,,,,,,,,,,,,,,,,,,,,,,,,,,,,,,,,,,,,,,,,,,,,,,,,,,,,,,,,,,,,
1725618195.094668,1725618195.095217,18.0,0.0,4247.692383,4236.666504,4281.922852,4279.230957,4214.358887,4218.717773,4188.205078,4214.358887,4216.153809,4215.512695,4537.820313,4537.436035,4365.0,4447.692383,2892.0,2.0,36.0,,,,0.0,4.0,4.0,4.0,4.0,4.0,4.0,4.0,4.0,4.0,4.0,4.0,4.0,4.0,4.0,100.0,,,,,,,,,,,,,,,,,,,,,,,,,,,,,,,,,,,,,,,,,,,,,,,,,,,,,,,,0.0,0.0,1.0,0.0,1.0,0.0,,,,,,,,,,,,,,,,,,,,,,,,,,,,,,,,,,,,,,,,,,,,,,,,,,,,,,,,,,,,,,,,,,,,,,
1725618195.098572,1725618195.099021,19.0,0.0,4248.333496,4235.897461,4282.94873,4279.615234,4214.102539,4219.230957,4188.205078,4213.846191,4217.563965,4217.692383,4538.205078,4535.769043,4365.769043,4447.436035,3072.0,2.0,36.0,,,,0.0,4.0,4.0,4.0,4.0,4.0,4.0,4.0,4.0,4.0,4.0,4.0,4.0,4.0,4.0,100.0,,,,,,,,,,,,,,,,,,,,,,,,,,,,,,,,,,,,,,,,,,,,,,,,,,,,,,,,,,,,,,,,,,,,,,,,,,,,,,,,,,,,,,,,,,,,,,,,,,,,,,,,,,,,,,,,,,,,,,,,,,,,,,,,,,,
1725618195.102476,1725618195.102925,20.0,0.0,4248.589844,4233.846191,4282.94873,4279.102539,4214.102539,4218.846191,4187.563965,4213.846191,4218.077148,4218.974121,4538.717773,4532.94873,4367.05127,4448.205078,3420.0,2.0,36.0,,,,0.0,4.0,4.0,4.0,4.0,4.0,4.0,4.0,4.0,4.0,4.0,4.0,4.0,4.0,4.0,100.0,,,,,,,,,,,,,,,,,,,,,,,,,,,,,,,,,,,,,,,,,,,,,,,,,,,,,,,,,,,,,,,,,,,,,,,,,,,,,,,,,,,,,,,,,,,,,,,,,,,,,,,,,,,,,,,,,,,,,,,,,,,,,,,,,,,
1725618195.10638,1725618195.106829,21.0,0.0,4247.563965,4232.179688,4280.512695,4277.05127,4213.846191,4217.436035,4186.538574,4213.974121,4217.692383,4218.589844,4538.846191,4529.487305,4367.94873,4448.717773,3887.0,2.0,36.0,,,,0.0,4.0,4.0,4.0,4.0,4.0,4.0,4.0,4.0,4.0,4.0,4.0,4.0,4.0,4.0,100.0,,,,,,,,,,,,,,,,,,,,,,,,,,,,,,,,,,,,,,,,,,,,,,,,,,,,,,,,,,,,,,,,,,,,,,,,,,,,,,,,,,,,,,,,,,,,,,,,,,,,,,,,,,,,,,,,,,,,,,,,,,,,,,,,,,,
1725618195.110284,1725618195.110833,22.0,0.0,4245.512695,4231.922852,4275.512695,4274.102539,4213.077148,4215.641113,4185.384766,4214.487305,4216.922852,4216.666504,4538.846191,4526.794922,4368.205078,4447.820313,2892.0,2.0,36.0,,,,0.0,4.0,4.0,4.0,4.0,4.0,4.0,4.0,4.0,4.0,4.0,4.0,4.0,4.0,4.0,100.0,,,,,,,,,,,,,,,,,,,,,,,,,,,,,,,,,,,,,,,,,,,,,,,,,,,,,,,,,,,,,,,,,,,,,,,,,,,,,,,,,,,,,,,,,,,,,,,,,,,,,,,,,,,,,,,,,,,,,,,,,,,,,,,,,,,
1725618195.114188,1725618195.114738,23.0,0.0,4243.461426,4232.436035,4269.743652,4271.794922,4211.794922,4214.358887,4184.871582,4215.256348,4216.153809,4214.358887,4538.333496,4525.769043,4367.692383,4445.384766,3072.0,2.0,36.0,,,,0.0,4.0,4.0,4.0,4.0,4.0,4.0,4.0,4.0,4.0,4.0,4.0,4.0,4.0,4.0,100.0,,,,,,,,,,,,,,,,,,,,,,,,,,,,,,,,,,,,,,,,,,,,,,,,,,,,,,,,,,,,,,,,,,,,,,,,,,,,,,,,,,,,,,,,,,,,,,,,,,,,,,,,,,,,,,,,,,,,,,,,,,,,,,,,,,,
1725618195.118092,1725618195.118642,24.0,0.0,4242.563965,4231.794922,4265.256348,4271.153809,4210.512695,4213.974121,4185.128418,4216.282227,4215.897461,4212.820313,4536.538574,4526.153809,4366.794922,4442.05127,3420.0,2.0,36.0,,,,0.0,4.0,4.0,4.0,4.0,4.0,4.0,4.0,4.0,4.0,4.0,4.0,4.0,4.0,4.0,100.0,,,,,,,,,,,,,,,,,,,,,,,,,,,,,,,,,,,,,,,,,,,,,,,,,,,,,,,,,,,,,,,,,,,,,,,,,,,,,,,,,,,,,,,,,,,,,,,,,,,,,,,,,,,,,,,,,,,,,,,,,,,,,,,,,,,
1725618195.121997,1725618195.122546,25.0,0.0,4243.461426,4228.846191,4263.077148,4271.794922,4210.256348,4214.487305,4185.769043,4217.307617,4215.512695,4212.307617,4532.436035,4526.025879,4365.897461,4439.230957,3887.0,2.0,36.0,,,,0.0,4.0,4.0,4.0,4.0,4.0,4.0,4.0,4.0,4.0,4.0,4.0,4.0,4.0,4.0,100.0,,,,,,,,,,,,,,,,,,,,,,,,,,,,,,,,,,,,,,,,,,,,,,,,,,,,,,,,,,,,,,,,,,,,,,,,,,,,,,,,,,,,,,,,,,,,,,,,,,,,,,,,,,,,,,,,,,,,,,,,,,,,,,,,,,,
1725618195.125901,1725618195.12655,26.0,0.0,4245.0,4224.230957,4263.333496,4272.307617,4211.538574,4215.384766,4186.282227,4217.563965,4214.871582,4212.563965,4527.05127,4524.487305,4364.871582,4438.205078,2892.0,2.0,36.0,,,,0.0,4.0,4.0,4.0,4.0,4.0,4.0,4.0,4.0,4.0,4.0,4.0,4.0,4.0,4.0,100.0,,,,,,,,,,,,,,,,,,,,,,,,,,,,,,,,,,,,,,,,,,,,,,,,,,,,,,,,0.0,0.0,1.0,0.0,1.0,0.0,,,,,,,,,,,,,,,,,,,,,,,,,,,,,,,,,,,,,,,,,,,,,,,,,,,,,,,,,,,,,,,,,,,,,,
1725618195.129805,1725618195.130454,27.0,0.0,4245.256348,4220.256348,4264.487305,4271.410156,4213.589844,4216.025879,4186.153809,4216.666504,4214.358887,4213.461426,4523.333496,4522.436035,4363.589844,4439.102539,3072.0,2.0,36.0,,,,0.0,4.0,4.0,4.0,4.0,4.0,4.0,4.0,4.0,4.0,4.0,4.0,4.0,4.0,4.0,100.0,,,,,,,,,,,,,,,,,,,,,,,,,,,,,,,,,,,,,,,,,,,,,,,,,,,,,,,,,,,,,,,,,,,,,,,,,,,,,,,,,,,,,,,,,,,,,,,,,,,,,,,,,,,,,,,,,,,,,,,,,,,,,,,,,,,
1725618195.133709,1725618195.134358,28.0,0.0,4243.717773,4218.589844,4265.0,4269.615234,4214.871582,4216.282227,4185.384766,4215.384766,4214.615234,4214.871582,4523.717773,4522.436035,4362.563965,4440.641113,3420.0,2.0,36.0,,,,0.0,4.0,4.0,4.0,4.0,4.0,4.0,4.0,4.0,4.0,4.0,4.0,4.0,4.0,4.0,100.0,,,,,,,,,,,,,,,,,,,,,,,,,,,,,,,,,,,,,,,,,,,,,,,,,,,,,,,,,,,,,,,,,,,,,,,,,,,,,,,,,,,,,,,,,,,,,,,,,,,,,,,,,,,,,,,,,,,,,,,,,,,,,,,,,,,
1725618195.137613,1725618195.138262,29.0,0.0,4241.666504,4219.743652,4265.128418,4268.077148,4214.102539,4216.282227,4184.743652,4215.384766,4216.025879,4216.666504,4528.461426,4525.897461,4363.077148,4441.922852,3887.0,2.0,36.0,,,,0.0,4.0,4.0,4.0,4.0,4.0,4.0,4.0,4.0,4.0,4.0,4.0,4.0,4.0,4.0,100.0,,,,,,,,,,,,,,,,,,,,,,,,,,,,,,,,,,,,,,,,,,,,,,,,,,,,,,,,,,,,,,,,,,,,,,,,,,,,,,,,,,,,,,,,,,,,,,,,,,,,,,,,,,,,,,,,,,,,,,,,,,,,,,,,,,,
1725618195.141517,1725618195.142166,30.0,0.0,4241.153809,4222.436035,4265.512695,4268.205078,4210.897461,4216.153809,4184.487305,4217.94873,4218.333496,4217.94873,4535.256348,4532.436035,4366.025879,4442.94873,2892.0,2.0,36.0,,,,0.0,4.0,4.0,4.0,4.0,4.0,4.0,4.0,4.0,4.0,4.0,4.0,4.0,4.0,4.0,100.0,,,,,,,,,,,,,,,,,,,,,,,,,,,,,,,,,,,,,,,,,,,,,,,,,,,,,,,,,,,,,,,,,,,,,,,,,,,,,,,,,,,,,,,,,,,,,,,,,,,,,,,,,,,,,,,,,,,,,,,,,,,,,,,,,,,
1725618195.145421,1725618195.14597,31.0,0.0,4242.563965,4223.974121,4266.922852,4269.615234,4206.025879,4216.153809,4184.743652,4222.94873,4220.384766,4218.589844,4540.512695,4538.974121,4370.897461,4444.358887,3072.0,2.0,36.0,,,,0.0,4.0,4.0,4.0,4.0,4.0,4.0,4.0,4.0,4.0,4.0,4.0,4.0,4.0,4.0,100.0,,,,,,,,,,,,,,,,,,,,,,,,,,,,,,,,,,,,,,,,,,,,,,,,,,,,,,,,,,,,,,,,,,,,,,,,,,,,,,,,,,,,,,,,,,,,,,,,,,,,,,,,,,,,,,,,,,,,,,,,,,,,,,,,,,,
1725618195.149325,1725618195.149874,32.0,0.0,4243.974121,4222.820313,4268.589844,4270.384766,4201.794922,4216.153809,4185.128418,4227.692383,4221.666504,4218.589844,4542.05127,4542.563965,4375.256348,4446.282227,0.0,2.0,36.0,,,,0.0,4.0,4.0,4.0,4.0,4.0,4.0,4.0,4.0,4.0,4.0,4.0,4.0,4.0,4.0,100.0,,,,,,,,,,,,,,,,,,,,,,,,,,,,,,,,,,,,,,,,,,,,,,,,,,,,,,,,,,,,,,,,,,,,,,,,,,,,,,,,,,,,,,,,,,,,,,,,,,,,,,,,,,,,,,,,,,,,,,,,,,,,,,,,,,,
1725618195.153229,1725618195.153779,33.0,0.0,4243.461426,4219.102539,4269.358887,4269.230957,4200.512695,4216.153809,4185.128418,4229.230957,4221.410156,4218.589844,4540.512695,4542.179688,4376.282227,4447.94873,0.0,2.0,36.0,,,,0.0,4.0,4.0,4.0,4.0,4.0,4.0,4.0,4.0,4.0,4.0,4.0,4.0,4.0,4.0,100.0,,,,,,,,,,,,,,,,,,,,,,,,,,,,,,,,,,,,,,,,,,,,,,,,,,,,,,,,,,,,,,,,,,,,,,,,,,,,,,,,,,,,,,,,,,,,,,,,,,,,,,,,,,,,,,,,,,,,,,,,,,,,,,,,,,,
1725618195.157133,1725618195.157683,34.0,0.0,4241.025879,4215.0,4268.846191,4266.666504,4202.307617,4216.153809,4184.871582,4226.282227,4220.128418,4218.589844,4537.692383,4539.358887,4373.333496,4448.717773,0.0,2.0,36.0,,,,0.0,4.0,4.0,4.0,4.0,4.0,4.0,4.0,4.0,4.0,4.0,4.0,4.0,4.0,4.0,100.0,,,,,,,,,,,,,,,,,1.0,0.0,0.0,,,,,,,,,,,,,,,,,,,,,,,,,,,,,,,,,,,,,0.0,0.0,1.0,0.0,1.0,0.0,2.05664,1.332564,0.496141,0.443194,0.085962,1.350516,1.003215,0.587198,0.393097,0.134557,1.41539,0.920113,0.608872,0.450148,0.113994,1.154182,1.199395,0.534564,0.322119,0.095083,0.66056,0.810167,0.115344,0.225209,0.033028,0.083163,0.285655,0.109318,0.054556,0.066704,0.556637,0.619529,0.196374,0.172053,0.091744,0.729376,2.439038,1.144666,0.389451,0.273409,1.004166,1.594102,0.657977,0.271214,0.075255,2.147579,1.528817,1.022503,0.286006,0.097816,2.938414,1.855097,1.015911,0.446082,0.190965,3.648849,2.093924,1.135137,0.503295,0.272376,3.312922,1.740156,0.877342,0.329104,0.157401,2.853356,1.464957,0.730828,0.458957,0.124128
1725618195.161038,1725618195.161487,35.0,0.0,4238.461426,4213.205078,4267.436035,4265.256348,4205.641113,4215.897461,4184.615234,4221.538574,4218.974121,4218.589844,4536.025879,4536.666504,4368.589844,4448.717773,0.0,2.0,36.0,,,,0.0,4.0,4.0,4.0,4.0,4.0,4.0,4.0,4.0,4.0,4.0,4.0,4.0,4.0,4.0,100.0,,,,,,,,,,,,,,,,,,,,,,,,,,,,,,,,,,,,,,,,,,,,,,,,,,,,,,,,,,,,,,,,,,,,,,,,,,,,,,,,,,,,,,,,,,,,,,,,,,,,,,,,,,,,,,,,,,,,,,,,,,,,,,,,,,,
1725618195.164942,1725618195.165391,36.0,0.0,4238.333496,4215.512695,4266.666504,4267.05127,4207.820313,4215.641113,4184.743652,4219.102539,4218.589844,4218.333496,4536.025879,4536.025879,4365.384766,4448.333496,0.0,2.0,36.0,,,,0.0,4.0,4.0,4.0,4.0,4.0,4.0,4.0,4.0,4.0,4.0,4.0,4.0,4.0,4.0,100.0,,,,,,,,,,,,,,,,,,,,,,,,,,,,,,,,,,,,,,,,,,,,,,,,,,,,,,,,,,,,,,,,,,,,,,,,,,,,,,,,,,,,,,,,,,,,,,,,,,,,,,,,,,,,,,,,,,,,,,,,,,,,,,,,,,,
1725618195.168846,1725618195.169295,37.0,0.0,4241.410156,4220.769043,4267.820313,4272.179688,4207.436035,4215.512695,4185.256348,4221.922852,4219.358887,4217.94873,4537.307617,4537.436035,4366.282227,4448.205078,0.0,2.0,36.0,,,,0.0,4.0,4.0,4.0,4.0,4.0,4.0,4.0,4.0,4.0,4.0,4.0,4.0,4.0,4.0,100.0,,,,,,,,,,,,,,,,,,,,,,,,,,,,,,,,,,,,,,,,,,,,,,,,,,,,,,,,,,,,,,,,,,,,,,,,,,,,,,,,,,,,,,,,,,,,,,,,,,,,,,,,,,,,,,,,,,,,,,,,,,,,,,,,,,,
1725618195.17275,1725618195.173299,38.0,0.0,4246.666504,4226.794922,4271.282227,4278.077148,4205.256348,4215.641113,4185.512695,4228.461426,4220.384766,4217.94873,4539.230957,4539.743652,4370.384766,4448.333496,0.0,2.0,36.0,,,,0.0,4.0,4.0,4.0,4.0,4.0,4.0,4.0,4.0,4.0,4.0,4.0,4.0,4.0,4.0,100.0,,,,,,,,,,,,,,,,,,,,,,,,,,,,,,,,,,,,,,,,,,,,,,,,,,,,,,,,,,,,,,,,,,,,,,,,,,,,,,,,,,,,,,,,,,,,,,,,,,,,,,,,,,,,,,,,,,,,,,,,,,,,,,,,,,,
1725618195.176654,1725618195.177203,39.0,0.0,4251.153809,4231.282227,4275.769043,4281.538574,4203.717773,4215.897461,4185.256348,4234.487305,4221.025879,4218.461426,4541.153809,4541.538574,4374.230957,4448.717773,0.0,2.0,36.0,,,,0.0,4.0,4.0,4.0,4.0,4.0,4.0,4.0,4.0,4.0,4.0,4.0,4.0,4.0,4.0,100.0,,,,,,,,,,,,,,,,,,,,,,,,,,,,,,,,,,,,,,,,,,,,,,,,,,,,,,,,,,,,,,,,,,,,,,,,,,,,,,,,,,,,,,,,,,,,,,,,,,,,,,,,,,,,,,,,,,,,,,,,,,,,,,,,,,,
1725618195.180558,1725618195.181107,40.0,0.0,4252.563965,4232.820313,4279.102539,4281.538574,4204.743652,4216.153809,4184.871582,4235.256348,4220.769043,4218.846191,4542.563965,4541.025879,4374.743652,4448.846191,0.0,2.0,36.0,,,,0.0,4.0,4.0,4.0,4.0,4.0,4.0,4.0,4.0,4.0,4.0,4.0,4.0,4.0,4.0,100.0,,,,,,,,,,,,,,,,,,,,,,,,,,,,,,,,,,,,,,,,,,,,,,,,,,,,,,,,,,,,,,,,,,,,,,,,,,,,,,,,,,,,,,,,,,,,,,,,,,,,,,,,,,,,,,,,,,,,,,,,,,,,,,,,,,,
