Timestamp,OriginalTimestamp,EEG.Counter,EEG.Interpolated,EEG.AF3,EEG.F7,EEG.F3,EEG.FC5,EEG.T7,EEG.P7,EEG.O1,EEG.O2,EEG.P8,EEG.T8,EEG.FC6,EEG.F4,EEG.F8,EEG.AF4,EEG.RawCq,EEG.Battery,EEG.BatteryPercent,MarkerIndex,MarkerType,MarkerValueInt,EEG.MarkerHardware,CQ.AF3,CQ.F7,CQ.F3,CQ.FC5,CQ.T7,CQ.P7,CQ.O1,CQ.O2,CQ.P8,CQ.T8,CQ.FC6,CQ.F4,CQ.F8,CQ.AF4,CQ.Overall,EQ.SampleRateQuality,EQ.OVERALL,EQ.AF3,EQ.F7,EQ.F3,EQ.FC5,EQ.T7,EQ.P7,EQ.O1,EQ.O2,EQ.P8,EQ.T8,EQ.FC6,EQ.F4,EQ.F8,EQ.AF4,MC.Action,MC.ActionPower,MC.IsActive,PM.Attention.IsActive,PM.Attention.Scaled,PM.Attention.Raw,PM.Attention.Min,PM.Attention.Max,PM.Engagement.IsActive,PM.Engagement.Scaled,PM.Engagement.Raw,PM.Engagement.Min,PM.Engagement.Max,PM.Excitement.IsActive,PM.Excitement.Scaled,PM.Excitement.Raw,PM.Excitement.Min,PM.Excitement.Max,PM.LongTermExcitement,PM.Stress.IsActive,PM.Stress.Scaled,PM.Stress.Raw,PM.Stress.Min,PM.Stress.Max,PM.Relaxation.IsActive,PM.Relaxation.Scaled,PM.Relaxation.Raw,PM.Relaxation.Min,PM.Relaxation.Max,PM.Interest.IsActive,PM.Interest.Scaled,PM.Interest.Raw,PM.Interest.Min,PM.Interest.Max,PM.Focus.IsActive,PM.Focus.Scaled,PM.Focus.Raw,PM.Focus.Min,PM.Focus.Max,FE.BlinkWink,FE.HorizontalEyesDirection,FE.UpperFaceAction,FE.UpperFaceActionPower,FE.LowerFaceAction,FE.LowerFaceActionPower,POW.AF3.Theta,POW.AF3.Alpha,POW.AF3.BetaL,POW.AF3.BetaH,POW.AF3.Gamma,POW.F7.Theta,POW.F7.Alpha,POW.F7.BetaL,POW.F7.BetaH,POW.F7.Gamma,POW.F3.Theta,POW.F3.Alpha,POW.F3.BetaL,POW.F3.BetaH,POW.F3.Gamma,POW.FC5.Theta,POW.FC5.Alpha,POW.FC5.BetaL,POW.FC5.BetaH,POW.FC5.Gamma,POW.T7.Theta,POW.T7.Alpha,POW.T7.BetaL,POW.T7.BetaH,POW.T7.Gamma,POW.P7.Theta,POW.P7.Alpha,POW.P7.BetaL,POW.P7.BetaH,POW.P7.Gamma,POW.O1.Theta,POW.O1.Alpha,POW.O1.BetaL,POW.O1.BetaH,POW.O1.Gamma,POW.O2.Theta,POW.O2.Alpha,POW.O2.BetaL,POW.O2.BetaH,POW.O2.Gamma,POW.P8.Theta,POW.P8.Alpha,POW.P8.BetaL,POW.P8.BetaH,POW.P8.Gamma,POW.T8.Theta,POW.T8.Alpha,POW.T8.BetaL,POW.T8.BetaH,POW.T8.Gamma,POW.FC6.Theta,POW.FC6.Alpha,POW.FC6.BetaL,POW.FC6.BetaH,POW.FC6.Gamma,POW.F4.Theta,POW.F4.Alpha,POW.F4.BetaL,POW.F4.BetaH,POW.F4.Gamma,POW.F8.Theta,POW.F8.Alpha,POW.F8.BetaL,POW.F8.BetaH,POW.F8.Gamma,POW.AF4.Theta,POW.AF4.Alpha,POW.AF4.BetaL,POW.AF4.BetaH,POW.AF4.Gamma
1725717346.237847,1725717346.238443,95.0,0.0,4306.794922,4250.384766,4278.077148,4298.589844,4247.179688,4263.333496,4204.615234,4216.666504,4224.230957,4221.666504,4488.846191,4506.153809,4353.974121,4420.384766,0.0,0.0,10.0,19.0,1.0,1.0,0.0,4.0,4.0,4.0,4.0,4.0,4.0,4.0,4.0,4.0,4.0,4.0,4.0,4.0,4.0,100.0,,,,,,,,,,,,,,,,,,,,,,,,,,,,,,,,,,,,,,,,,,,,,,,,,,,,,,,,,,,,,,,,,,,,,,,,,,,,,,,,,,,,,,,,,,,,,,,,,,,,,,,,,,,,,,,,,,,,,,,,,,,,,,,,,,,
1725717346.241751,1725717346.242248,96.0,0.0,4303.205078,4250.897461,4278.205078,4296.666504,4246.538574,4262.307617,4201.153809,4216.666504,4229.230957,4228.974121,4477.179688,4506.025879,4351.025879,4418.333496,0.0,0.0,10.0,,,,0.0,4.0,4.0,4.0,4.0,4.0,4.0,4.0,4.0,4.0,4.0,4.0,4.0,4.0,4.0,100.0,,,,,,,,,,,,,,,,,,,,,,,,,,,,,,,,,,,,,,,,,,,,,,,,,,,,,,,,,,,,,,,,,,,,,,,,,,,,,,,,,,,,,,,,,,,,,,,,,,,,,,,,,,,,,,,,,,,,,,,,,,,,,,,,,,,
1725717346.245655,1725717346.246152,97.0,0.0,4300.897461,4251.282227,4278.589844,4295.128418,4245.897461,4261.666504,4200.0,4216.025879,4231.410156,4233.205078,4468.717773,4504.102539,4347.05127,4415.512695,0.0,0.0,10.0,,,,0.0,4.0,4.0,4.0,4.0,4.0,4.0,4.0,4.0,4.0,4.0,4.0,4.0,4.0,4.0,100.0,,,,,,,,,,,,,,,,,,,,,,,,,,,,,,,,,,,,,,,,,,,,,,,,,,,,,,,,,,,,,,,,,,,,,,,,,,,,,,,,,,,,,,,,,,,,,,,,,,,,,,,,,,,,,,,,,,,,,,,,,,,,,,,,,,,
1725717346.24956,1725717346.250056,98.0,0.0,4301.410156,4251.153809,4278.461426,4295.769043,4245.897461,4262.179688,4200.897461,4214.743652,4230.897461,4234.102539,4469.102539,4502.307617,4345.128418,4414.358887,0.0,0.0,10.0,,,,0.0,4.0,4.0,4.0,4.0,4.0,4.0,4.0,4.0,4.0,4.0,4.0,4.0,4.0,4.0,100.0,,,,,,,,,,,,,,,,,,,,,,,,,,,,,,,,,,,,,,,,,,,,,,,,,,,,,,,,,,,,,,,,,,,,,,,,,,,,,,,,,,,,,,,,,,,,,,,,,,,,,,,,,,,,,,,,,,,,,,,,,,,,,,,,,,,
1725717346.253464,1725717346.25406,99.0,0.0,4304.230957,4250.769043,4278.333496,4298.846191,4246.538574,4263.333496,4202.94873,4214.615234,4229.358887,4233.205078,4476.794922,4503.461426,4346.922852,4416.666504,0.0,0.0,10.0,,,,0.0,4.0,4.0,4.0,4.0,4.0,4.0,4.0,4.0,4.0,4.0,4.0,4.0,4.0,4.0,100.0,,,,,,,,,,,,,,,,,,,,,,,,,,,,,,,,,,,,,,,,,,,,,,,,,,,,,,,,,,,,,,,,,,,,,,,,,,,,,,,,,,,,,,,,,,,,,,,,,,,,,,,,,,,,,,,,,,,,,,,,,,,,,,,,,,,
1725717346.257368,1725717346.257964,100.0,0.0,4308.461426,4251.410156,4279.487305,4303.205078,4247.820313,4264.615234,4204.871582,4216.538574,4228.717773,4232.436035,4486.025879,4509.358887,4352.179688,4422.307617,0.0,0.0,10.0,,,,0.0,4.0,4.0,4.0,4.0,4.0,4.0,4.0,4.0,4.0,4.0,4.0,4.0,4.0,4.0,100.0,,,,,,,,,,,,,,,,,,,,,,,,,,,,,,,,,,,,,,,,,,,,,,,,,,,,,,,,0.0,0.0,1.0,0.0,1.0,0.0,,,,,,,,,,,,,,,,,,,,,,,,,,,,,,,,,,,,,,,,,,,,,,,,,,,,,,,,,,,,,,,,,,,,,,
1725717346.261272,1725717346.261868,101.0,0.0,4312.820313,4254.230957,4283.205078,4307.05127,4249.230957,4265.769043,4205.512695,4219.615234,4229.743652,4233.333496,4491.538574,4519.358887,4359.102539,4429.871582,0.0,0.0,10.0,,,,0.0,4.0,4.0,4.0,4.0,4.0,4.0,4.0,4.0,4.0,4.0,4.0,4.0,4.0,4.0,100.0,,,,,,,,,,,,,,,,,,,,,,,,,,,,,,,,,,,,,,,,,,,,,,,,,,,,,,,,,,,,,,,,,,,,,,,,,,,,,,,,,,,,,,,,,,,,,,,,,,,,,,,,,,,,,,,,,,,,,,,,,,,,,,,,,,,
1725717346.265176,1725717346.265772,102.0,0.0,4317.05127,4258.974121,4289.102539,4309.487305,4250.128418,4266.538574,4205.256348,4221.282227,4231.794922,4236.025879,4492.563965,4529.871582,4365.641113,4437.307617,0.0,0.0,10.0,,,,0.0,4.0,4.0,4.0,4.0,4.0,4.0,4.0,4.0,4.0,4.0,4.0,4.0,4.0,4.0,100.0,,,,,,,,,,,,,,,,,,,,,,,,,,,,,,,,,,,,,,,,,,,,,,,,,,,,,,,,,,,,,,,,,,,,,,,,,,,,,,,,,,,,,,,,,,,,,,,,,,,,,,,,,,,,,,,,,,,,,,,,,,,,,,,,,,,
1725717346.26908,1725717346.269776,103.0,0.0,4320.897461,4263.589844,4294.743652,4310.512695,4250.128418,4266.666504,4204.743652,4220.384766,4233.589844,4238.846191,4492.820313,4537.436035,4370.0,4443.205078,0.0,0.0,10.0,,,,0.0,4.0,4.0,4.0,4.0,4.0,4.0,4.0,4.0,4.0,4.0,4.0,4.0,4.0,4.0,100.0,,,,,,,,,,,,,,,,,,,,,,,,,,,,,,,,,,,,,,,,,,,,,,,,,,,,,,,,,,,,,,,,,,,,,,,,,,,,,,,,,,,,,,,,,,,,,,,,,,,,,,,,,,,,,,,,,,,,,,,,,,,,,,,,,,,
1725717346.272984,1725717346.27368,104.0,0.0,4323.589844,4266.153809,4298.077148,4311.025879,4249.487305,4265.641113,4204.615234,4218.461426,4234.615234,4240.0,4496.538574,4540.128418,4371.025879,4446.538574,0.0,0.0,10.0,,,,0.0,4.0,4.0,4.0,4.0,4.0,4.0,4.0,4.0,4.0,4.0,4.0,4.0,4.0,4.0,100.0,,,,,,,,,,,,,,,,,,,,,,,,,,,,,,,,,,,,,,,,,,,,,,,,,,,,,,,,,,,,,,,,,,,,,,,,,,,,,,,,,,,,,,,,,,,,,,,,,,,,,,,,,,,,,,,,,,,,,,,,,,,,,,,,,,,
1725717346.276888,1725717346.277584,105.0,0.0,4324.487305,4265.897461,4298.333496,4310.897461,4248.717773,4264.102539,4204.743652,4218.077148,4234.230957,4238.333496,4504.230957,4538.717773,4369.358887,4447.436035,0.0,0.0,10.0,,,,0.0,4.0,4.0,4.0,4.0,4.0,4.0,4.0,4.0,4.0,4.0,4.0,4.0,4.0,4.0,100.0,,,,,,,,,,,,,,,,,,,,,,,,,,,,,,,,,,,,,,,,,,,,,,,,,,,,,,,,,,,,,,,,,,,,,,,,,,,,,,,,,,,,,,,,,,,,,,,,,,,,,,,,,,,,,,,,,,,,,,,,,,,,,,,,,,,
1725717346.280792,1725717346.281488,106.0,0.0,4323.461426,4264.102539,4296.282227,4310.256348,4248.461426,4263.205078,4204.615234,4220.897461,4232.436035,4235.0,4512.179688,4536.282227,4366.794922,4446.666504,0.0,0.0,10.0,,,,0.0,4.0,4.0,4.0,4.0,4.0,4.0,4.0,4.0,4.0,4.0,4.0,4.0,4.0,4.0,100.0,,,,,,,,,,,,,,,,,,,,,,,,,,,,,,,,,,,,,,,,,,,,,,,,,,,,,,,,,,,,,,,,,,,,,,,,,,,,,,,,,,,,,,,,,,,,,,,,,,,,,,,,,,,,,,,,,,,,,,,,,,,,,,,,,,,
1725717346.284696,1725717346.285492,107.0,0.0,4322.05127,4262.820313,4293.846191,4309.487305,4248.589844,4263.974121,4204.102539,4226.282227,4230.256348,4232.05127,4515.384766,4535.769043,4365.512695,4445.512695,0.0,0.0,10.0,,,,0.0,4.0,4.0,4.0,4.0,4.0,4.0,4.0,4.0,4.0,4.0,4.0,4.0,4.0,4.0,100.0,,,,,,,,,,,,,,,,,,,,,,,,,,,,,,,,,,,,,,,,,,,,,,,,,,,,,,,,,,,,,,,,,,,,,,,,,,,,,,,,,,,,,,,,,,,,,,,,,,,,,,,,,,,,,,,,,,,,,,,,,,,,,,,,,,,
1725717346.288601,1725717346.289397,108.0,0.0,4321.794922,4262.94873,4292.820313,4309.230957,4248.589844,4266.153809,4203.205078,4231.666504,4229.230957,4232.307617,4512.179688,4537.94873,4367.179688,4445.384766,0.0,0.0,10.0,,,,0.0,4.0,4.0,4.0,4.0,4.0,4.0,4.0,4.0,4.0,4.0,4.0,4.0,4.0,4.0,100.0,,,,,,,,,,,,,,,,,,,,,,,,,,,,,,,,,,,,,,,,,,,,,,,,,,,,,,,,0.0,0.0,1.0,0.0,1.0,0.0,,,,,,,,,,,,,,,,,,,,,,,,,,,,,,,,,,,,,,,,,,,,,,,,,,,,,,,,,,,,,,,,,,,,,,
1725717346.292505,1725717346.293301,109.0,0.0,4323.205078,4264.102539,4293.717773,4309.743652,4247.94873,4268.333496,4201.922852,4235.128418,4230.897461,4236.410156,4505.897461,4540.769043,4370.512695,4446.153809,0.0,0.0,10.0,,,,0.0,4.0,4.0,4.0,4.0,4.0,4.0,4.0,4.0,4.0,4.0,4.0,4.0,4.0,4.0,100.0,,,,,,,,,,,,,,,,,,,,,,,,,,,,,,,,,,,,,,,,,,,,,,,,,,,,,,,,,,,,,,,,,,,,,,,,,,,,,,,,,,,,,,,,,,,,,,,,,,,,,,,,,,,,,,,,,,,,,,,,,,,,,,,,,,,
1725717346.296409,1725717346.297205,110.0,0.0,4325.512695,4265.512695,4295.897461,4311.794922,4247.436035,4269.230957,4200.512695,4235.512695,4235.0,4243.077148,4502.692383,4541.410156,4373.717773,4447.179688,0.0,0.0,10.0,,,,0.0,4.0,4.0,4.0,4.0,4.0,4.0,4.0,4.0,4.0,4.0,4.0,4.0,4.0,4.0,100.0,,,,,,,,,,,,,,,,,,,,,,,,,,,,,,,,,,,,,,,,,,,,,,,,,,,,,,,,,,,,,,,,,,,,,,,,,,,,,,,,,,,,,,,,,,,,,,,,,,,,,,,,,,,,,,,,,,,,,,,,,,,,,,,,,,,
1725717346.300313,1725717346.301009,111.0,0.0,4327.307617,4265.897461,4297.94873,4315.0,4248.205078,4268.717773,4199.743652,4234.102539,4240.128418,4249.615234,4504.871582,4538.589844,4375.128418,4447.307617,0.0,0.0,10.0,,,,0.0,4.0,4.0,4.0,4.0,4.0,4.0,4.0,4.0,4.0,4.0,4.0,4.0,4.0,4.0,100.0,,,,,,,,,,,,,,,,,,,,,,,,,,,,,,,,,,,,,,,,,,,,,,,,,,,,,,,,,,,,,,,,,,,,,,,,,,,,,,,,,,,,,,,,,,,,,,,,,,,,,,,,,,,,,,,,,,,,,,,,,,,,,,,,,,,
1725717346.304217,1725717346.304913,112.0,0.0,4327.307617,4265.512695,4298.846191,4318.461426,4250.641113,4267.94873,4199.743652,4232.820313,4243.717773,4253.461426,4509.230957,4533.205078,4375.512695,4446.410156,0.0,0.0,10.0,,,,0.0,4.0,4.0,4.0,4.0,4.0,4.0,4.0,4.0,4.0,4.0,4.0,4.0,4.0,4.0,100.0,,,,,,,,,,,,,,,,,,,,,,,,,,,,,,,,,,,,,,,,,,,,,,,,,,,,,,,,,,,,,,,,,,,,,,,,,,,,,,,,,,,,,,,,,,,,,,,,,,,,,,,,,,,,,,,,,,,,,,,,,,,,,,,,,,,
1725717346.308121,1725717346.308817,113.0,0.0,4325.384766,4265.0,4298.846191,4320.512695,4254.102539,4268.461426,4200.0,4232.436035,4243.974121,4253.077148,4509.743652,4527.820313,4375.769043,4444.871582,0.0,0.0,10.0,,,,0.0,4.0,4.0,4.0,4.0,4.0,4.0,4.0,4.0,4.0,4.0,4.0,4.0,4.0,4.0,100.0,,,,,,,,,,,,,,,,,,,,,,,,,,,,,,,,,,,,,,,,,,,,,,,,,,,,,,,,,,,,,,,,,,,,,,,,,,,,,,,,,,,,,,,,,,,,,,,,,,,,,,,,,,,,,,,,,,,,,,,,,,,,,,,,,,,
1725717346.312025,1725717346.312721,114.0,0.0,4322.692383,4265.128418,4298.333496,4320.0,4256.282227,4270.897461,4200.256348,4232.179688,4240.641113,4249.358887,4503.205078,4524.743652,4375.897461,4443.717773,0.0,0.0,10.0,,,,0.0,4.0,4.0,4.0,4.0,4.0,4.0,4.0,4.0,4.0,4.0,4.0,4.0,4.0,4.0,100.0,,,,,,,,,,,,,,,,,,,,,,,,,,,,,,,,,,,,,,,,,,,,,,,,,,,,,,,,,,,,,,,,,,,,,,,,,,,,,,,,,,,,,,,,,,,,,,,,,,,,,,,,,,,,,,,,,,,,,,,,,,,,,,,,,,,
1725717346.315929,1725717346.316526,115.0,0.0,4321.282227,4266.153809,4297.436035,4317.820313,4256.410156,4273.974121,4200.256348,4231.410156,4235.641113,4245.641113,4492.692383,4524.487305,4374.871582,4442.94873,0.0,0.0,10.0,,,,0.0,4.0,4.0,4.0,4.0,4.0,4.0,4.0,4.0,4.0,4.0,4.0,4.0,4.0,4.0,100.0,,,,,,,,,,,,,,,,,,,,,,,,,,,,,,,,,,,,,,,,,,,,,,,,,,,,,,,,,,,,,,,,,,,,,,,,,,,,,,,,,,,,,,,,,,,,,,,,,,,,,,,,,,,,,,,,,,,,,,,,,,,,,,,,,,,
1725717346.319833,1725717346.32043,116.0,0.0,4321.666504,4267.307617,4296.025879,4315.128418,4254.615234,4275.641113,4200.128418,4230.384766,4232.179688,4244.102539,4485.384766,4526.153809,4372.179688,4442.05127,0.0,0.0,10.0,,,,0.0,4.0,4.0,4.0,4.0,4.0,4.0,4.0,4.0,4.0,4.0,4.0,4.0,4.0,4.0,100.0,,,,,,,,,,,,,,,,,1.0,0.0,0.0,,,,,,,,,,,,,,,,,,,,,,,,,,,,,,,,,,,,,0.0,0.0,1.0,0.0,1.0,0.0,3.432053,2.502697,1.030134,0.35484,0.156429,1.517892,1.444558,0.984712,0.230031,0.138141,2.097172,0.89693,0.442513,0.285184,0.108439,1.539154,0.949642,0.656351,0.213306,0.170003,3.541933,1.151926,0.747047,0.340559,0.109592,0.310418,0.267277,0.144319,0.055179,0.035108,1.150418,0.669172,0.280945,0.129061,0.075368,0.781815,0.691837,0.439481,0.211136,0.145736,1.032229,1.570198,0.698377,0.272167,0.202098,2.547652,1.64545,1.01396,0.49531,0.388129,3.790294,2.073711,1.825841,0.724963,0.554065,3.275742,1.760529,1.421554,0.483551,0.334646,4.043136,2.644549,1.356426,0.910884,0.203635,3.85407,1.909099,0.970762,0.502084,0.116431
1725717346.323738,1725717346.324334,117.0,0.0,4322.692383,4267.820313,4294.358887,4313.333496,4252.307617,4274.615234,4200.256348,4229.615234,4231.794922,4245.128418,4487.05127,4527.307617,4368.589844,4440.0,0.0,0.0,10.0,,,,0.0,4.0,4.0,4.0,4.0,4.0,4.0,4.0,4.0,4.0,4.0,4.0,4.0,4.0,4.0,100.0,,,,,,,,,,,,,,,,,,,,,,,,,,,,,,,,,,,,,,,,,,,,,,,,,,,,,,,,,,,,,,,,,,,,,,,,,,,,,,,,,,,,,,,,,,,,,,,,,,,,,,,,,,,,,,,,,,,,,,,,,,,,,,,,,,,
1725717346.327642,1725717346.328238,118.0,0.0,4322.563965,4266.922852,4292.94873,4312.563965,4250.641113,4271.025879,4200.769043,4229.358887,4233.589844,4246.538574,4496.922852,4526.410156,4365.897461,4436.538574,0.0,0.0,10.0,,,,0.0,4.0,4.0,4.0,4.0,4.0,4.0,4.0,4.0,4.0,4.0,4.0,4.0,4.0,4.0,100.0,,,,,,,,,,,,,,,,,,,,,,,,,,,,,,,,,,,,,,,,,,,,,,,,,,,,,,,,,,,,,,,,,,,,,,,,,,,,,,,,,,,,,,,,,,,,,,,,,,,,,,,,,,,,,,,,,,,,,,,,,,,,,,,,,,,
1725717346.331546,1725717346.332042,119.0,0.0,4320.128418,4264.615234,4292.820313,4312.563965,4250.256348,4267.05127,4201.282227,4228.846191,4235.512695,4245.769043,4508.461426,4524.230957,4364.743652,4432.692383,0.0,0.0,10.0,,,,0.0,4.0,4.0,4.0,4.0,4.0,4.0,4.0,4.0,4.0,4.0,4.0,4.0,4.0,4.0,100.0,,,,,,,,,,,,,,,,,,,,,,,,,,,,,,,,,,,,,,,,,,,,,,,,,,,,,,,,,,,,,,,,,,,,,,,,,,,,,,,,,,,,,,,,,,,,,,,,,,,,,,,,,,,,,,,,,,,,,,,,,,,,,,,,,,,
1725717346.33545,1725717346.335946,120.0,0.0,4316.025879,4261.794922,4293.589844,4312.820313,4251.153809,4265.0,4201.410156,4226.922852,4236.282227,4242.307617,4513.077148,4522.692383,4364.871582,4429.487305,0.0,0.0,10.0,,,,0.0,4.0,4.0,4.0,4.0,4.0,4.0,4.0,4.0,4.0,4.0,4.0,4.0,4.0,4.0,100.0,,,,,,,,,,,,,,,,,,,,,,,,,,,,,,,,,,,,,,,,,,,,,,,,,,,,,,,,,,,,,,,,,,,,,,,,,,,,,,,,,,,,,,,,,,,,,,,,,,,,,,,,,,,,,,,,,,,,,,,,,,,,,,,,,,,
1725717346.339354,1725717346.33985,121.0,0.0,4311.922852,4260.128418,4294.615234,4313.077148,4251.794922,4265.512695,4201.025879,4223.205078,4235.641113,4237.179688,4506.410156,4523.077148,4365.0,4427.307617,0.0,0.0,10.0,,,,0.0,4.0,4.0,4.0,4.0,4.0,4.0,4.0,4.0,4.0,4.0,4.0,4.0,4.0,4.0,100.0,,,,,,,,,,,,,,,,,,,,,,,,,,,,,,,,,,,,,,,,,,,,,,,,,,,,,,,,,,,,,,,,,,,,,,,,,,,,,,,,,,,,,,,,,,,,,,,,,,,,,,,,,,,,,,,,,,,,,,,,,,,,,,,,,,,
1725717346.343258,1725717346.343754,122.0,0.0,4309.743652,4260.512695,4294.743652,4312.94873,4251.410156,4267.307617,4200.256348,4218.589844,4233.974121,4232.307617,4490.384766,4524.358887,4364.102539,4425.897461,0.0,0.0,10.0,,,,0.0,4.0,4.0,4.0,4.0,4.0,4.0,4.0,4.0,4.0,4.0,4.0,4.0,4.0,4.0,100.0,,,,,,,,,,,,,,,,,,,,,,,,,,,,,,,,,,,,,,,,,,,,,,,,,,,,,,,,,,,,,,,,,,,,,,,,,,,,,,,,,,,,,,,,,,,,,,,,,,,,,,,,,,,,,,,,,,,,,,,,,,,,,,,,,,,
1725717346.347162,1725717346.347559,123.0,0.0,4310.769043,4262.436035,4293.974121,4312.307617,4250.0,4268.205078,4199.615234,4215.256348,4231.794922,4229.487305,4473.205078,4524.871582,4362.05127,4425.256348,0.0,0.0,10.0,,,,0.0,4.0,4.0,4.0,4.0,4.0,4.0,4.0,4.0,4.0,4.0,4.0,4.0,4.0,4.0,100.0,,,,,,,,,,,,,,,,,,,,,,,,,,,,,,,,,,,,,,,,,,,,,,,,,,,,,,,,,,,,,,,,,,,,,,,,,,,,,,,,,,,,,,,,,,,,,,,,,,,,,,,,,,,,,,,,,,,,,,,,,,,,,,,,,,,
1725717346.351066,1725717346.351463,124.0,0.0,4315.128418,4264.615234,4293.717773,4311.794922,4249.487305,4267.436035,4199.743652,4214.230957,4230.384766,4228.974121,4464.358887,4524.487305,4360.128418,4426.538574,0.0,0.0,10.0,,,,0.0,4.0,4.0,4.0,4.0,4.0,4.0,4.0,4.0,4.0,4.0,4.0,4.0,4.0,4.0,100.0,,,,,,,,,,,,,,,,,,,,,,,,,,,,,,,,,,,,,,,,,,,,,,,,,,,,,,,,0.0,0.0,1.0,0.0,1.0,0.0,,,,,,,,,,,,,,,,,,,,,,,,,,,,,,,,,,,,,,,,,,,,,,,,,,,,,,,,,,,,,,,,,,,,,,
1725717346.35497,1725717346.355367,125.0,0.0,4320.769043,4265.897461,4295.769043,4312.307617,4250.897461,4265.897461,4200.512695,4215.128418,4230.641113,4231.153809,4469.230957,4524.358887,4360.384766,4430.512695,0.0,0.0,10.0,,,,0.0,4.0,4.0,4.0,4.0,4.0,4.0,4.0,4.0,4.0,4.0,4.0,4.0,4.0,4.0,100.0,,,,,,,,,,,,,,,,,,,,,,,,,,,,,,,,,,,,,,,,,,,,,,,,,,,,,,,,,,,,,,,,,,,,,,,,,,,,,,,,,,,,,,,,,,,,,,,,,,,,,,,,,,,,,,,,,,,,,,,,,,,,,,,,,,,
1725717346.358874,1725717346.359371,126.0,0.0,4325.256348,4266.025879,4300.256348,4313.717773,4253.205078,4265.384766,4201.922852,4216.922852,4233.589844,4235.897461,4485.0,4526.153809,4364.230957,4436.410156,0.0,0.0,10.0,,,,0.0,4.0,4.0,4.0,4.0,4.0,4.0,4.0,4.0,4.0,4.0,4.0,4.0,4.0,4.0,100.0,,,,,,,,,,,,,,,,,,,,,,,,,,,,,,,,,,,,,,,,,,,,,,,,,,,,,,,,,,,,,,,,,,,,,,,,,,,,,,,,,,,,,,,,,,,,,,,,,,,,,,,,,,,,,,,,,,,,,,,,,,,,,,,,,,,
1725717346.362779,1725717346.363275,127.0,0.0,4326.922852,4265.897461,4306.025879,4315.512695,4254.743652,4267.05127,4203.333496,4219.102539,4239.358887,4242.436035,4502.820313,4530.128418,4370.769043,4441.922852,0.0,0.0,10.0,,,,0.0,4.0,4.0,4.0,4.0,4.0,4.0,4.0,4.0,4.0,4.0,4.0,4.0,4.0,4.0,100.0,,,,,,,,,,,,,,,,,,,,,,,,,,,,,,,,,,,,,,,,,,,,,,,,,,,,,,,,,,,,,,,,,,,,,,,,,,,,,,,,,,,,,,,,,,,,,,,,,,,,,,,,,,,,,,,,,,,,,,,,,,,,,,,,,,,
1725717346.366683,1725717346.367179,128.0,0.0,4326.538574,4266.922852,4310.641113,4316.538574,4254.102539,4270.641113,4203.333496,4222.179688,4246.282227,4248.205078,4513.974121,4534.871582,4377.05127,4445.384766,2693.0,0.0,10.0,,,,0.0,4.0,4.0,4.0,4.0,4.0,4.0,4.0,4.0,4.0,4.0,4.0,4.0,4.0,4.0,100.0,,,,,,,,,,,,,,,,,,,,,,,,,,,,,,,,,,,,,,,,,,,,,,,,,,,,,,,,,,,,,,,,,,,,,,,,,,,,,,,,,,,,,,,,,,,,,,,,,,,,,,,,,,,,,,,,,,,,,,,,,,,,,,,,,,,
1725717346.370587,1725717346.371183,129.0,0.0,4326.153809,4270.128418,4312.820313,4317.563965,4252.563965,4274.358887,4202.05127,4226.025879,4251.025879,4251.282227,4515.384766,4539.102539,4380.769043,4446.922852,2580.0,0.0,10.0,,,,0.0,4.0,4.0,4.0,4.0,4.0,4.0,4.0,4.0,4.0,4.0,4.0,4.0,4.0,4.0,100.0,,,,,,,,,,,,,,,,,,,,,,,,,,,,,,,,,,,,,,,,,,,,,,,,,,,,,,,,,,,,,,,,,,,,,,,,,,,,,,,,,,,,,,,,,,,,,,,,,,,,,,,,,,,,,,,,,,,,,,,,,,,,,,,,,,,
1725717346.374491,1725717346.375087,130.0,0.0,4327.563965,4275.769043,4312.307617,4319.871582,4252.179688,4276.025879,4200.641113,4230.256348,4251.794922,4251.410156,4511.282227,4542.692383,4382.05127,4448.589844,2513.0,0.0,10.0,,,,0.0,4.0,4.0,4.0,4.0,4.0,4.0,4.0,4.0,4.0,4.0,4.0,4.0,4.0,4.0,100.0,,,,,,,,,,,,,,,,,,,,,,,,,,,,,,,,,,,,,,,,,,,,,,,,,,,,,,,,,,,,,,,,,,,,,,,,,,,,,,,,,,,,,,,,,,,,,,,,,,,,,,,,,,,,,,,,,,,,,,,,,,,,,,,,,,,
1725717346.378395,1725717346.378991,131.0,0.0,4330.769043,4281.282227,4310.256348,4323.589844,4254.102539,4274.358887,4200.641113,4233.717773,4250.128418,4250.512695,4509.230957,4546.282227,4382.692383,4452.179688,2471.0,0.0,10.0,,,,0.0,4.0,4.0,4.0,4.0,4.0,4.0,4.0,4.0,4.0,4.0,4.0,4.0,4.0,4.0,100.0,,,,,,,,,,,,,,,,,,,,,,,,,,,,,,,,,,,,,,,,,,,,,,,,,,,,,,,,,,,,,,,,,,,,,,,,,,,,,,,,,,,,,,,,,,,,,,,,,,,,,,,,,,,,,,,,,,,,,,,,,,,,,,,,,,,
1725717346.382299,1725717346.382895,132.0,0.0,4334.358887,4283.333496,4308.077148,4326.794922,4257.94873,4270.641113,4202.563965,4236.153809,4248.974121,4250.512695,4513.589844,4550.384766,4383.589844,4457.563965,2443.0,0.0,10.0,,,,0.0,4.0,4.0,4.0,4.0,4.0,4.0,4.0,4.0,4.0,4.0,4.0,4.0,4.0,4.0,100.0,,,,,,,,,,,,,,,,,,,,,,,,,,,,,,,,,,,,,,,,,,,,,,,,,,,,,,,,0.0,0.0,1.0,0.0,1.0,0.0,,,,,,,,,,,,,,,,,,,,,,,,,,,,,,,,,,,,,,,,,,,,,,,,,,,,,,,,,,,,,,,,,,,,,,
1725717346.386203,1725717346.386799,133.0,0.0,4336.538574,4280.0,4307.436035,4326.922852,4261.666504,4267.179688,4204.230957,4237.436035,4250.256348,4251.666504,4522.563965,4553.846191,4383.589844,4461.922852,2403.0,0.0,10.0,,,,0.0,4.0,4.0,4.0,4.0,4.0,4.0,4.0,4.0,4.0,4.0,4.0,4.0,4.0,4.0,100.0,,,,,,,,,,,,,,,,,,,,,,,,,,,,,,,,,,,,,,,,,,,,,,,,,,,,,,,,,,,,,,,,,,,,,,,,,,,,,,,,,,,,,,,,,,,,,,,,,,,,,,,,,,,,,,,,,,,,,,,,,,,,,,,,,,,
1725717346.390107,1725717346.390803,134.0,0.0,4336.666504,4273.077148,4308.717773,4323.846191,4263.589844,4266.538574,4202.820313,4237.692383,4252.307617,4252.820313,4529.743652,4555.0,4380.384766,4461.922852,2446.0,0.0,10.0,,,,0.0,4.0,4.0,4.0,4.0,4.0,4.0,4.0,4.0,4.0,4.0,4.0,4.0,4.0,4.0,100.0,,,,,,,,,,,,,,,,,,,,,,,,,,,,,,,,,,,,,,,,,,,,,,,,,,,,,,,,,,,,,,,,,,,,,,,,,,,,,,,,,,,,,,,,,,,,,,,,,,,,,,,,,,,,,,,,,,,,,,,,,,,,,,,,,,,
1725717346.394011,1725717346.394707,135.0,0.0,4335.384766,4267.179688,4311.153809,4320.384766,4263.333496,4268.974121,4197.692383,4236.410156,4252.179688,4251.410156,4528.461426,4552.820313,4373.974121,4456.538574,2498.0,0.0,10.0,,,,0.0,4.0,4.0,4.0,4.0,4.0,4.0,4.0,4.0,4.0,4.0,4.0,4.0,4.0,4.0,100.0,,,,,,,,,,,,,,,,,,,,,,,,,,,,,,,,,,,,,,,,,,,,,,,,,,,,,,,,,,,,,,,,,,,,,,,,,,,,,,,,,,,,,,,,,,,,,,,,,,,,,,,,,,,,,,,,,,,,,,,,,,,,,,,,,,,
1725717346.397915,1725717346.398612,136.0,0.0,4333.974121,4266.153809,4313.205078,4319.615234,4261.538574,4272.436035,4190.769043,4233.461426,4248.205078,4246.153809,4518.333496,4547.94873,4367.692383,4448.717773,2468.0,0.0,10.0,,,,0.0,4.0,4.0,4.0,4.0,4.0,4.0,4.0,4.0,4.0,4.0,4.0,4.0,4.0,4.0,100.0,,,,,,,,,,,,,,,,,,,,,,,,,,,,,,,,,,,,,,,,,,,,,,,,,,,,,,,,,,,,,,,,,,,,,,,,,,,,,,,,,,,,,,,,,,,,,,,,,,,,,,,,,,,,,,,,,,,,,,,,,,,,,,,,,,,
1725717346.401819,1725717346.402516,137.0,0.0,4333.589844,4270.384766,4313.205078,4322.307617,4260.128418,4274.487305,4185.128418,4228.461426,4241.410156,4238.589844,4504.871582,4541.794922,4365.384766,4443.077148,2556.0,0.0,10.0,,,,0.0,4.0,4.0,4.0,4.0,4.0,4.0,4.0,4.0,4.0,4.0,4.0,4.0,4.0,4.0,100.0,,,,,,,,,,,,,,,,,,,,,,,,,,,,,,,,,,,,,,,,,,,,,,,,,,,,,,,,,,,,,,,,,,,,,,,,,,,,,,,,,,,,,,,,,,,,,,,,,,,,,,,,,,,,,,,,,,,,,,,,,,,,,,,,,,,
1725717346.405723,1725717346.40632,138.0,0.0,4334.358887,4276.410156,4310.384766,4325.897461,4259.743652,4274.102539,4182.820313,4223.077148,4235.128418,4232.820313,4494.743652,4536.410156,4368.717773,4441.922852,2877.0,0.0,10.0,,,,0.0,4.0,4.0,4.0,4.0,4.0,4.0,4.0,4.0,4.0,4.0,4.0,4.0,4.0,4.0,100.0,,,,,,,,,,,,,,,,,,,,,,,,,,,,,,,,,,,,,,,,,,,,,,,,,,,,,,,,,,,,,,,,,,,,,,,,,,,,,,,,,,,,,,,,,,,,,,,,,,,,,,,,,,,,,,,,,,,,,,,,,,,,,,,,,,,
1725717346.409628,1725717346.410224,139.0,0.0,4334.871582,4280.384766,4305.769043,4326.922852,4259.487305,4272.307617,4182.692383,4218.589844,4231.794922,4231.922852,4490.384766,4532.563965,4375.384766,4444.230957,3131.0,0.0,10.0,,,,0.0,4.0,4.0,4.0,4.0,4.0,4.0,4.0,4.0,4.0,4.0,4.0,4.0,4.0,4.0,100.0,,,,,,,,,,,,,,,,,,,,,,,,,,,,,,,,,,,,,,,,,,,,,,,,,,,,,,,,,,,,,,,,,,,,,,,,,,,,,,,,,,,,,,,,,,,,,,,,,,,,,,,,,,,,,,,,,,,,,,,,,,,,,,,,,,,
1725717346.413532,1725717346.414128,140.0,0.0,4333.589844,4280.512695,4300.897461,4323.461426,4257.307617,4271.282227,4182.436035,4216.666504,4231.666504,4235.769043,4489.230957,4529.871582,4380.641113,4446.153809,3381.0,0.0,10.0,,,,0.0,4.0,4.0,4.0,4.0,4.0,4.0,4.0,4.0,4.0,4.0,4.0,4.0,4.0,4.0,100.0,,,,,,,,,,,,,,,,,,,,,,,,,,,,,,,,,,,,,,,,,,,,,,,,,,,,,,,,0.0,0.0,1.0,0.0,1.0,0.0,,,,,,,,,,,,,,,,,,,,,,,,,,,,,,,,,,,,,,,,,,,,,,,,,,,,,,,,,,,,,,,,,,,,,,
1725717346.417436,1725717346.418032,141.0,0.0,4330.128418,4278.461426,4297.307617,4316.538574,4253.333496,4271.922852,4179.615234,4217.307617,4233.205078,4240.769043,4487.179688,4527.05127,4380.769043,4444.615234,3886.0,0.0,10.0,,,,0.0,4.0,4.0,4.0,4.0,4.0,4.0,4.0,4.0,4.0,4.0,4.0,4.0,4.0,4.0,100.0,,,,,,,,,,,,,,,,,,,,,,,,,,,,,,,,,,,,,,,,,,,,,,,,,,,,,,,,,,,,,,,,,,,,,,,,,,,,,,,,,,,,,,,,,,,,,,,,,,,,,,,,,,,,,,,,,,,,,,,,,,,,,,,,,,,
1725717346.42134,1725717346.421836,142.0,0.0,4326.153809,4276.410156,4295.897461,4309.487305,4249.871582,4273.717773,4174.102539,4220.256348,4234.871582,4242.94873,4483.205078,4523.717773,4375.384766,4440.0,2877.0,0.0,10.0,,,,0.0,4.0,4.0,4.0,4.0,4.0,4.0,4.0,4.0,4.0,4.0,4.0,4.0,4.0,4.0,100.0,,,,,,,,,,,,,,,,,,,,,,,,,,,,,,,,,,,,,,,,,,,,,,,,,,,,,,,,,,,,,,,,,,,,,,,,,,,,,,,,,,,,,,,,,,,,,,,,,,,,,,,,,,,,,,,,,,,,,,,,,,,,,,,,,,,
1725717346.425244,1725717346.425741,143.0,0.0,4323.589844,4274.487305,4296.025879,4305.512695,4249.871582,4275.0,4167.820313,4224.487305,4236.538574,4241.282227,4480.128418,4521.538574,4367.307617,4434.487305,3131.0,0.0,10.0,,,,0.0,4.0,4.0,4.0,4.0,4.0,4.0,4.0,4.0,4.0,4.0,4.0,4.0,4.0,4.0,100.0,,,,,,,,,,,,,,,,,,,,,,,,,,,,,,,,,,,,,,,,,,,,,,,,,,,,,,,,,,,,,,,,,,,,,,,,,,,,,,,,,,,,,,,,,,,,,,,,,,,,,,,,,,,,,,,,,,,,,,,,,,,,,,,,,,,
1725717346.429148,1725717346.429645,144.0,0.0,4323.333496,4270.512695,4296.922852,4305.897461,4253.333496,4275.0,4163.589844,4228.333496,4238.333496,4237.05127,4481.794922,4522.05127,4361.282227,4431.025879,3381.0,0.0,10.0,,,,0.0,4.0,4.0,4.0,4.0,4.0,4.0,4.0,4.0,4.0,4.0,4.0,4.0,4.0,4.0,100.0,,,,,,,,,,,,,,,,,,,,,,,,,,,,,,,,,,,,,,,,,,,,,,,,,,,,,,,,,,,,,,,,,,,,,,,,,,,,,,,,,,,,,,,,,,,,,,,,,,,,,,,,,,,,,,,,,,,,,,,,,,,,,,,,,,,
1725717346.433052,1725717346.433549,145.0,0.0,4324.358887,4262.05127,4297.179688,4308.846191,4257.179688,4274.102539,4163.589844,4230.128418,4240.256348,4233.205078,4488.333496,4523.846191,4360.512695,4430.128418,3886.0,0.0,10.0,,,,0.0,4.0,4.0,4.0,4.0,4.0,4.0,4.0,4.0,4.0,4.0,4.0,4.0,4.0,4.0,100.0,,,,,,,,,,,,,,,,,,,,,,,,,,,,,,,,,,,,,,,,,,,,,,,,,,,,,,,,,,,,,,,,,,,,,,,,,,,,,,,,,,,,,,,,,,,,,,,,,,,,,,,,,,,,,,,,,,,,,,,,,,,,,,,,,,,
1725717346.436956,1725717346.437353,146.0,0.0,4324.871582,4249.487305,4296.538574,4311.025879,4258.333496,4273.461426,4167.692383,4229.358887,4241.410156,4231.538574,4495.897461,4523.974121,4364.230957,4430.256348,2877.0,0.0,10.0,,,,0.0,4.0,4.0,4.0,4.0,4.0,4.0,4.0,4.0,4.0,4.0,4.0,4.0,4.0,4.0,100.0,,,,,,,,,,,,,,,,,,,,,,,,,,,,,,,,,,,,,,,,,,,,,,,,,,,,,,,,,,,,,,,,,,,,,,,,,,,,,,,,,,,,,,,,,,,,,,,,,,,,,,,,,,,,,,,,,,,,,,,,,,,,,,,,,,,
1725717346.44086,1725717346.441257,147.0,0.0,4323.974121,4236.153809,4295.256348,4310.769043,4256.410156,4274.230957,4173.974121,4226.153809,4240.641113,4232.307617,4498.974121,4520.256348,4367.94873,4429.487305,3131.0,0.0,10.0,,,,0.0,4.0,4.0,4.0,4.0,4.0,4.0,4.0,4.0,4.0,4.0,4.0,4.0,4.0,4.0,100.0,,,,,,,,,,,,,,,,,,,,,,,,,,,,,,,,,,,,,,,,,,,,,,,,,,,,,,,,,,,,,,,,,,,,,,,,,,,,,,,,,,,,,,,,,,,,,,,,,,,,,,,,,,,,,,,,,,,,,,,,,,,,,,,,,,,
1725717346.444765,1725717346.445161,148.0,0.0,4321.538574,4226.282227,4294.102539,4309.102539,4253.974121,4275.897461,4179.615234,4221.794922,4237.692383,4233.974121,4495.256348,4513.717773,4366.922852,4427.563965,3381.0,0.0,10.0,,,,0.0,4.0,4.0,4.0,4.0,4.0,4.0,4.0,4.0,4.0,4.0,4.0,4.0,4.0,4.0,100.0,,,,,,,,,,,,,,,,,1.0,0.0,0.0,,,,,,,,,,,,,,,,,,,,,,,,,,,,,,,,,,,,,0.0,0.0,1.0,0.0,1.0,0.0,4.05409,2.533092,1.129367,0.373455,0.162103,1.726635,1.25441,0.879466,0.203004,0.144392,1.995141,0.824837,0.409925,0.265234,0.108583,1.383815,0.877815,0.633795,0.207834,0.174329,5.332933,1.773516,1.08331,0.466458,0.133148,0.293267,0.335858,0.138619,0.069958,0.032404,1.28774,0.808366,0.310898,0.172407,0.083567,0.671598,0.520573,0.363071,0.171774,0.160629,0.79499,1.221021,0.601717,0.245404,0.188394,2.162007,1.292677,0.803094,0.465522,0.396327,3.207633,1.919227,1.946649,0.628413,0.574586,3.360993,1.809014,1.144657,0.408929,0.368077,3.604807,2.163562,1.241726,0.7727,0.188667,3.702675,1.782239,0.921622,0.41635,0.130837
1725717346.448669,1725717346.449065,149.0,0.0,4319.102539,4223.077148,4293.846191,4308.589844,4253.461426,4277.179688,4183.333496,4217.563965,4233.846191,4234.358887,4487.563965,4507.820313,4360.256348,4425.769043,3886.0,0.0,10.0,,,,0.0,4.0,4.0,4.0,4.0,4.0,4.0,4.0,4.0,4.0,4.0,4.0,4.0,4.0,4.0,100.0,,,,,,,,,,,,,,,,,,,,,,,,,,,,,,,,,,,,,,,,,,,,,,,,,,,,,,,,,,,,,,,,,,,,,,,,,,,,,,,,,,,,,,,,,,,,,,,,,,,,,,,,,,,,,,,,,,,,,,,,,,,,,,,,,,,
1725717346.452573,1725717346.452869,150.0,0.0,4317.692383,4225.641113,4294.358887,4310.256348,4256.025879,4277.05127,4185.0,4214.871582,4231.025879,4232.692383,4481.666504,4506.153809,4351.153809,4425.256348,2877.0,0.0,10.0,,,,0.0,4.0,4.0,4.0,4.0,4.0,4.0,4.0,4.0,4.0,4.0,4.0,4.0,4.0,4.0,100.0,,,,,,,,,,,,,,,,,,,,,,,,,,,,,,,,,,,,,,,,,,,,,,,,,,,,,,,,,,,,,,,,,,,,,,,,,,,,,,,,,,,,,,,,,,,,,,,,,,,,,,,,,,,,,,,,,,,,,,,,,,,,,,,,,,,
1725717346.456477,1725717346.456774,151.0,0.0,4318.205078,4230.384766,4295.256348,4313.205078,4259.743652,4275.384766,4185.512695,4214.230957,4230.897461,4229.871582,4481.922852,4509.487305,4345.0,4426.025879,3131.0,0.0,10.0,,,,0.0,4.0,4.0,4.0,4.0,4.0,4.0,4.0,4.0,4.0,4.0,4.0,4.0,4.0,4.0,100.0,,,,,,,,,,,,,,,,,,,,,,,,,,,,,,,,,,,,,,,,,,,,,,,,,,,,,,,,,,,,,,,,,,,,,,,,,,,,,,,,,,,,,,,,,,,,,,,,,,,,,,,,,,,,,,,,,,,,,,,,,,,,,,,,,,,
1725717346.460381,1725717346.460678,152.0,0.0,4320.256348,4233.589844,4296.153809,4314.743652,4262.563965,4273.205078,4185.384766,4214.871582,4233.205078,4227.94873,4487.179688,4515.512695,4345.512695,4427.307617,3381.0,0.0,10.0,,,,0.0,4.0,4.0,4.0,4.0,4.0,4.0,4.0,4.0,4.0,4.0,4.0,4.0,4.0,4.0,100.0,,,,,,,,,,,,,,,,,,,,,,,,,,,,,,,,,,,,,,,,,,,,,,,,,,,,,,,,,,,,,,,,,,,,,,,,,,,,,,,,,,,,,,,,,,,,,,,,,,,,,,,,,,,,,,,,,,,,,,,,,,,,,,,,,,,
1725717346.464285,1725717346.464682,153.0,0.0,4323.077148,4235.0,4297.05127,4313.846191,4262.820313,4272.05127,4185.256348,4215.641113,4235.512695,4229.230957,4492.179688,4521.025879,4352.179688,4428.077148,3886.0,0.0,10.0,,,,0.0,4.0,4.0,4.0,4.0,4.0,4.0,4.0,4.0,4.0,4.0,4.0,4.0,4.0,4.0,100.0,,,,,,,,,,,,,,,,,,,,,,,,,,,,,,,,,,,,,,,,,,,,,,,,,,,,,,,,,,,,,,,,,,,,,,,,,,,,,,,,,,,,,,,,,,,,,,,,,,,,,,,,,,,,,,,,,,,,,,,,,,,,,,,,,,,
1725717346.468189,1725717346.468586,154.0,0.0,4326.025879,4237.179688,4298.077148,4311.794922,4261.538574,4272.436035,4185.256348,4215.384766,4236.282227,4234.102539,4492.563965,4524.230957,4361.922852,4429.358887,2877.0,0.0,10.0,,,,0.0,4.0,4.0,4.0,4.0,4.0,4.0,4.0,4.0,4.0,4.0,4.0,4.0,4.0,4.0,100.0,,,,,,,,,,,,,,,,,,,,,,,,,,,,,,,,,,,,,,,,,,,,,,,,,,,,,,,,,,,,,,,,,,,,,,,,,,,,,,,,,,,,,,,,,,,,,,,,,,,,,,,,,,,,,,,,,,,,,,,,,,,,,,,,,,,
1725717346.472093,1725717346.47249,155.0,0.0,4328.974121,4241.922852,4298.974121,4311.025879,4260.512695,4273.846191,4185.769043,4214.615234,4235.641113,4240.769043,4489.743652,4525.0,4371.282227,4432.05127,3131.0,0.0,10.0,,,,0.0,4.0,4.0,4.0,4.0,4.0,4.0,4.0,4.0,4.0,4.0,4.0,4.0,4.0,4.0,100.0,,,,,,,,,,,,,,,,,,,,,,,,,,,,,,,,,,,,,,,,,,,,,,,,,,,,,,,,,,,,,,,,,,,,,,,,,,,,,,,,,,,,,,,,,,,,,,,,,,,,,,,,,,,,,,,,,,,,,,,,,,,,,,,,,,,
1725717346.475997,1725717346.476494,156.0,0.0,4331.922852,4248.974121,4299.230957,4312.692383,4260.897461,4274.358887,4186.794922,4214.102539,4235.256348,4246.922852,4489.230957,4524.487305,4377.563965,4436.410156,3381.0,0.0,10.0,,,,0.0,4.0,4.0,4.0,4.0,4.0,4.0,4.0,4.0,4.0,4.0,4.0,4.0,4.0,4.0,100.0,,,,,,,,,,,,,,,,,,,,,,,,,,,,,,,,,,,,,,,,,,,,,,,,,,,,,,,,0.0,0.0,1.0,0.0,1.0,0.0,,,,,,,,,,,,,,,,,,,,,,,,,,,,,,,,,,,,,,,,,,,,,,,,,,,,,,,,,,,,,,,,,,,,,,
1725717346.479901,1725717346.480398,157.0,0.0,4334.487305,4255.512695,4300.128418,4316.666504,4262.307617,4273.077148,4187.563965,4214.102539,4235.512695,4250.897461,4494.871582,4523.461426,4379.358887,4440.641113,3886.0,0.0,10.0,,,,0.0,4.0,4.0,4.0,4.0,4.0,4.0,4.0,4.0,4.0,4.0,4.0,4.0,4.0,4.0,100.0,,,,,,,,,,,,,,,,,,,,,,,,,,,,,,,,,,,,,,,,,,,,,,,,,,,,,,,,,,,,,,,,,,,,,,,,,,,,,,,,,,,,,,,,,,,,,,,,,,,,,,,,,,,,,,,,,,,,,,,,,,,,,,,,,,,
1725717346.483806,1725717346.484302,158.0,0.0,4336.025879,4258.717773,4302.820313,4321.282227,4262.94873,4270.128418,4187.563965,4214.358887,4235.512695,4252.563965,4503.974121,4523.205078,4376.922852,4442.820313,2877.0,0.0,10.0,,,,0.0,4.0,4.0,4.0,4.0,4.0,4.0,4.0,4.0,4.0,4.0,4.0,4.0,4.0,4.0,100.0,,,,,,,,,,,,,,,,,,,,,,,,,,,,,,,,,,,,,,,,,,,,,,,,,,,,,,,,,,,,,,,,,,,,,,,,,,,,,,,,,,,,,,,,,,,,,,,,,,,,,,,,,,,,,,,,,,,,,,,,,,,,,,,,,,,
1725717346.48771,1725717346.488206,159.0,0.0,4336.025879,4257.692383,4307.307617,4324.743652,4261.922852,4267.05127,4186.410156,4214.102539,4234.102539,4251.666504,4509.102539,4523.717773,4371.922852,4442.179688,3131.0,0.0,10.0,,,,0.0,4.0,4.0,4.0,4.0,4.0,4.0,4.0,4.0,4.0,4.0,4.0,4.0,4.0,4.0,100.0,,,,,,,,,,,,,,,,,,,,,,,,,,,,,,,,,,,,,,,,,,,,,,,,,,,,,,,,,,,,,,,,,,,,,,,,,,,,,,,,,,,,,,,,,,,,,,,,,,,,,,,,,,,,,,,,,,,,,,,,,,,,,,,,,,,
1725717346.491614,1725717346.49221,160.0,0.0,4334.487305,4253.461426,4311.025879,4325.128418,4259.743652,4266.153809,4183.974121,4213.846191,4232.179688,4248.205078,4504.615234,4524.487305,4366.538574,4439.615234,3381.0,0.0,10.0,,,,0.0,4.0,4.0,4.0,4.0,4.0,4.0,4.0,4.0,4.0,4.0,4.0,4.0,4.0,4.0,100.0,,,,,,,,,,,,,,,,,,,,,,,,,,,,,,,,,,,,,,,,,,,,,,,,,,,,,,,,,,,,,,,,,,,,,,,,,,,,,,,,,,,,,,,,,,,,,,,,,,,,,,,,,,,,,,,,,,,,,,,,,,,,,,,,,,,
1725717346.495518,1725717346.496114,161.0,0.0,4332.05127,4248.846191,4311.153809,4322.307617,4258.333496,4268.974121,4180.512695,4214.743652,4232.179688,4242.820313,4492.692383,4524.743652,4362.307617,4437.563965,3886.0,0.0,10.0,,,,0.0,4.0,4.0,4.0,4.0,4.0,4.0,4.0,4.0,4.0,4.0,4.0,4.0,4.0,4.0,100.0,,,,,,,,,,,,,,,,,,,,,,,,,,,,,,,,,,,,,,,,,,,,,,,,,,,,,,,,,,,,,,,,,,,,,,,,,,,,,,,,,,,,,,,,,,,,,,,,,,,,,,,,,,,,,,,,,,,,,,,,,,,,,,,,,,,
1725717346.499422,1725717346.500018,162.0,0.0,4329.743652,4246.666504,4307.179688,4318.974121,4259.102539,4275.0,4176.666504,4217.436035,4235.256348,4237.436035,4481.153809,4524.743652,4359.743652,4437.563965,2877.0,0.0,10.0,,,,0.0,4.0,4.0,4.0,4.0,4.0,4.0,4.0,4.0,4.0,4.0,4.0,4.0,4.0,4.0,100.0,,,,,,,,,,,,,,,,,,,,,,,,,,,,,,,,,,,,,,,,,,,,,,,,,,,,,,,,,,,,,,,,,,,,,,,,,,,,,,,,,,,,,,,,,,,,,,,,,,,,,,,,,,,,,,,,,,,,,,,,,,,,,,,,,,,
1725717346.503326,1725717346.503923,163.0,0.0,4328.077148,4248.461426,4301.794922,4317.692383,4261.538574,4281.282227,4173.589844,4221.153809,4240.384766,4234.487305,4477.94873,4524.358887,4358.846191,4439.358887,3131.0,0.0,10.0,,,,0.0,4.0,4.0,4.0,4.0,4.0,4.0,4.0,4.0,4.0,4.0,4.0,4.0,4.0,4.0,100.0,,,,,,,,,,,,,,,,,,,,,,,,,,,,,,,,,,,,,,,,,,,,,,,,,,,,,,,,,,,,,,,,,,,,,,,,,,,,,,,,,,,,,,,,,,,,,,,,,,,,,,,,,,,,,,,,,,,,,,,,,,,,,,,,,,,
1725717346.50723,1725717346.507827,164.0,0.0,4326.922852,4253.461426,4298.717773,4318.974121,4263.974121,4283.846191,4172.436035,4224.743652,4243.974121,4234.871582,4484.487305,4523.717773,4359.743652,4441.794922,3381.0,0.0,10.0,,,,0.0,4.0,4.0,4.0,4.0,4.0,4.0,4.0,4.0,4.0,4.0,4.0,4.0,4.0,4.0,100.0,,,,,,,,,,,,,,,,,,,,,,,,,,,,,,,,,,,,,,,,,,,,,,,,,,,,,,,,0.0,0.0,1.0,0.0,1.0,0.0,,,,,,,,,,,,,,,,,,,,,,,,,,,,,,,,,,,,,,,,,,,,,,,,,,,,,,,,,,,,,,,,,,,,,,
1725717346.511134,1725717346.511631,165.0,0.0,4326.025879,4258.974121,4299.358887,4320.769043,4264.743652,4281.025879,4172.692383,4227.820313,4243.333496,4237.05127,4495.769043,4522.820313,4362.692383,4443.205078,3886.0,0.0,10.0,,,,0.0,4.0,4.0,4.0,4.0,4.0,4.0,4.0,4.0,4.0,4.0,4.0,4.0,4.0,4.0,100.0,,,,,,,,,,,,,,,,,,,,,,,,,,,,,,,,,,,,,,,,,,,,,,,,,,,,,,,,,,,,,,,,,,,,,,,,,,,,,,,,,,,,,,,,,,,,,,,,,,,,,,,,,,,,,,,,,,,,,,,,,,,,,,,,,,,
1725717346.515038,1725717346.515535,166.0,0.0,4325.128418,4262.307617,4301.922852,4320.769043,4263.589844,4274.230957,4173.205078,4230.641113,4238.846191,4237.94873,4503.717773,4521.922852,4366.922852,4442.94873,2877.0,0.0,10.0,,,,0.0,4.0,4.0,4.0,4.0,4.0,4.0,4.0,4.0,4.0,4.0,4.0,4.0,4.0,4.0,100.0,,,,,,,,,,,,,,,,,,,,,,,,,,,,,,,,,,,,,,,,,,,,,,,,,,,,,,,,,,,,,,,,,,,,,,,,,,,,,,,,,,,,,,,,,,,,,,,,,,,,,,,,,,,,,,,,,,,,,,,,,,,,,,,,,,,
1725717346.518942,1725717346.519439,167.0,0.0,4324.230957,4262.563965,4302.820313,4318.846191,4261.025879,4267.692383,4172.820313,4232.692383,4233.717773,4235.256348,4503.461426,4521.794922,4370.256348,4441.666504,3131.0,0.0,10.0,,,,0.0,4.0,4.0,4.0,4.0,4.0,4.0,4.0,4.0,4.0,4.0,4.0,4.0,4.0,4.0,100.0,,,,,,,,,,,,,,,,,,,,,,,,,,,,,,,,,,,,,,,,,,,,,,,,,,,,,,,,,,,,,,,,,,,,,,,,,,,,,,,,,,,,,,,,,,,,,,,,,,,,,,,,,,,,,,,,,,,,,,,,,,,,,,,,,,,
1725717346.522847,1725717346.523343,168.0,0.0,4324.102539,4261.282227,4300.512695,4316.794922,4258.717773,4264.871582,4171.153809,4233.205078,4232.307617,4230.641113,4496.666504,4522.179688,4370.641113,4440.769043,3381.0,0.0,10.0,,,,0.0,4.0,4.0,4.0,4.0,4.0,4.0,4.0,4.0,4.0,4.0,4.0,4.0,4.0,4.0,100.0,,,,,,,,,,,,,,,,,,,,,,,,,,,,,,,,,,,,,,,,,,,,,,,,,,,,,,,,,,,,,,,,,,,,,,,,,,,,,,,,,,,,,,,,,,,,,,,,,,,,,,,,,,,,,,,,,,,,,,,,,,,,,,,,,,,
1725717346.526751,1725717346.527147,169.0,0.0,4325.256348,4260.897461,4296.922852,4316.282227,4257.94873,4266.666504,4169.358887,4231.025879,4236.922852,4227.94873,4489.615234,4522.563965,4367.94873,4440.769043,3886.0,0.0,10.0,,,,0.0,4.0,4.0,4.0,4.0,4.0,4.0,4.0,4.0,4.0,4.0,4.0,4.0,4.0,4.0,100.0,,,,,,,,,,,,,,,,,,,,,,,,,,,,,,,,,,,,,,,,,,,,,,,,,,,,,,,,,,,,,,,,,,,,,,,,,,,,,,,,,,,,,,,,,,,,,,,,,,,,,,,,,,,,,,,,,,,,,,,,,,,,,,,,,,,
1725717346.530655,1725717346.531051,170.0,0.0,4326.794922,4262.692383,4295.384766,4316.922852,4258.974121,4270.512695,4168.205078,4226.666504,4245.128418,4230.641113,4487.436035,4522.563965,4364.230957,4441.153809,2877.0,0.0,10.0,,,,0.0,4.0,4.0,4.0,4.0,4.0,4.0,4.0,4.0,4.0,4.0,4.0,4.0,4.0,4.0,100.0,,,,,,,,,,,,,,,,,,,,,,,,,,,,,,,,,,,,,,,,,,,,,,,,,,,,,,,,,,,,,,,,,,,,,,,,,,,,,,,,,,,,,,,,,,,,,,,,,,,,,,,,,,,,,,,,,,,,,,,,,,,,,,,,,,,
1725717346.534559,1725717346.534956,171.0,0.0,4327.436035,4266.153809,4296.410156,4316.794922,4260.641113,4273.077148,4167.820313,4221.666504,4251.025879,4238.717773,4490.641113,4522.05127,4361.666504,4440.897461,3131.0,0.0,10.0,,,,0.0,4.0,4.0,4.0,4.0,4.0,4.0,4.0,4.0,4.0,4.0,4.0,4.0,4.0,4.0,100.0,,,,,,,,,,,,,,,,,,,,,,,,,,,,,,,,,,,,,,,,,,,,,,,,,,,,,,,,,,,,,,,,,,,,,,,,,,,,,,,,,,,,,,,,,,,,,,,,,,,,,,,,,,,,,,,,,,,,,,,,,,,,,,,,,,,
1725717346.538463,1725717346.53886,172.0,0.0,4326.538574,4269.358887,4298.461426,4315.0,4261.282227,4272.563965,4167.692383,4217.820313,4249.871582,4247.563965,4495.512695,4521.666504,4362.179688,4439.743652,3381.0,0.0,10.0,,,,0.0,4.0,4.0,4.0,4.0,4.0,4.0,4.0,4.0,4.0,4.0,4.0,4.0,4.0,4.0,100.0,,,,,,,,,,,,,,,,,,,,,,,,,,,,,,,,,,,,,,,,,,,,,,,,,,,,,,,,0.0,0.0,1.0,0.0,1.0,0.0,,,,,,,,,,,,,,,,,,,,,,,,,,,,,,,,,,,,,,,,,,,,,,,,,,,,,,,,,,,,,,,,,,,,,,
1725717346.542367,1725717346.542664,173.0,0.0,4325.128418,4270.769043,4299.102539,4313.333496,4260.512695,4269.230957,4167.179688,4215.897461,4241.794922,4251.666504,4498.461426,4521.538574,4365.769043,4438.333496,3886.0,0.0,10.0,,,,0.0,4.0,4.0,4.0,4.0,4.0,4.0,4.0,4.0,4.0,4.0,4.0,4.0,4.0,4.0,100.0,,,,,,,,,,,,,,,,,,,,,,,,,,,,,,,,,,,,,,,,,,,,,,,,,,,,,,,,,,,,,,,,,,,,,,,,,,,,,,,,,,,,,,,,,,,,,,,,,,,,,,,,,,,,,,,,,,,,,,,,,,,,,,,,,,,
1725717346.546271,1725717346.546568,174.0,0.0,4325.0,4269.871582,4298.205078,4313.717773,4258.974121,4265.384766,4166.538574,4216.282227,4232.563965,4248.846191,4498.846191,4521.666504,4371.410156,4438.205078,2877.0,0.0,10.0,,,,0.0,4.0,4.0,4.0,4.0,4.0,4.0,4.0,4.0,4.0,4.0,4.0,4.0,4.0,4.0,100.0,,,,,,,,,,,,,,,,,,,,,,,,,,,,,,,,,,,,,,,,,,,,,,,,,,,,,,,,,,,,,,,,,,,,,,,,,,,,,,,,,,,,,,,,,,,,,,,,,,,,,,,,,,,,,,,,,,,,,,,,,,,,,,,,,,,
1725717346.550175,1725717346.550472,175.0,0.0,4327.05127,4267.563965,4297.820313,4315.897461,4258.589844,4263.205078,4166.025879,4218.205078,4228.461426,4242.307617,4498.461426,4522.307617,4377.436035,4439.615234,3131.0,0.0,10.0,,,,0.0,4.0,4.0,4.0,4.0,4.0,4.0,4.0,4.0,4.0,4.0,4.0,4.0,4.0,4.0,100.0,,,,,,,,,,,,,,,,,,,,,,,,,,,,,,,,,,,,,,,,,,,,,,,,,,,,,,,,,,,,,,,,,,,,,,,,,,,,,,,,,,,,,,,,,,,,,,,,,,,,,,,,,,,,,,,,,,,,,,,,,,,,,,,,,,,
1725717346.554079,1725717346.554376,176.0,0.0,4330.512695,4265.256348,4300.128418,4317.820313,4259.871582,4264.102539,4166.153809,4220.512695,4232.05127,4238.461426,4499.102539,4523.333496,4382.179688,4442.179688,3381.0,0.0,10.0,,,,0.0,4.0,4.0,4.0,4.0,4.0,4.0,4.0,4.0,4.0,4.0,4.0,4.0,4.0,4.0,100.0,,,,,,,,,,,,,,,,,,,,,,,,,,,,,,,,,,,,,,,,,,,,,,,,,,,,,,,,,,,,,,,,,,,,,,,,,,,,,,,,,,,,,,,,,,,,,,,,,,,,,,,,,,,,,,,,,,,,,,,,,,,,,,,,,,,
1725717346.557983,1725717346.55818,177.0,0.0,4332.94873,4264.358887,4304.871582,4317.94873,4261.666504,4267.692383,4166.666504,4221.666504,4240.128418,4240.128418,4500.641113,4524.615234,4384.743652,4444.743652,3886.0,0.0,10.0,,,,0.0,4.0,4.0,4.0,4.0,4.0,4.0,4.0,4.0,4.0,4.0,4.0,4.0,4.0,4.0,100.0,,,,,,,,,,,,,,,,,,,,,,,,,,,,,,,,,,,,,,,,,,,,,,,,,,,,,,,,,,,,,,,,,,,,,,,,,,,,,,,,,,,,,,,,,,,,,,,,,,,,,,,,,,,,,,,,,,,,,,,,,,,,,,,,,,,
1725717346.561887,1725717346.562084,178.0,0.0,4332.692383,4265.769043,4308.846191,4316.153809,4261.666504,4272.563965,4167.307617,4221.538574,4247.05127,4245.512695,4502.820313,4525.512695,4384.871582,4446.153809,2877.0,0.0,10.0,,,,0.0,4.0,4.0,4.0,4.0,4.0,4.0,4.0,4.0,4.0,4.0,4.0,4.0,4.0,4.0,100.0,,,,,,,,,,,,,,,,,,,,,,,,,,,,,,,,,,,,,,,,,,,,,,,,,,,,,,,,,,,,,,,,,,,,,,,,,,,,,,,,,,,,,,,,,,,,,,,,,,,,,,,,,,,,,,,,,,,,,,,,,,,,,,,,,,,
1725717346.565791,1725717346.565989,179.0,0.0,4329.743652,4268.846191,4308.717773,4313.974121,4258.717773,4275.897461,4167.692383,4221.025879,4249.358887,4250.128418,4505.641113,4525.512695,4382.94873,4445.769043,3131.0,0.0,10.0,,,,0.0,4.0,4.0,4.0,4.0,4.0,4.0,4.0,4.0,4.0,4.0,4.0,4.0,4.0,4.0,100.0,,,,,,,,,,,,,,,,,,,,,,,,,,,,,,,,,,,,,,,,,,,,,,,,,,,,,,,,,,,,,,,,,,,,,,,,,,,,,,,,,,,,,,,,,,,,,,,,,,,,,,,,,,,,,,,,,,,,,,,,,,,,,,,,,,,
1725717346.569696,1725717346.569993,180.0,0.0,4325.897461,4271.922852,4303.589844,4313.077148,4253.717773,4275.897461,4168.077148,4221.153809,4247.820313,4251.922852,4509.487305,4524.358887,4379.871582,4444.230957,3381.0,0.0,10.0,,,,0.0,4.0,4.0,4.0,4.0,4.0,4.0,4.0,4.0,4.0,4.0,4.0,4.0,4.0,4.0,100.0,1.0,83.333336,4.0,4.0,4.0,4.0,3.0,4.0,3.0,4.0,4.0,4.0,4.0,4.0,4.0,4.0,1.0,0.0,0.0,,,,,,,,,,,,,,,,,,,,,,,,,,,,,,,,,,,,,0.0,0.0,1.0,0.0,1.0,0.0,4.562047,2.501584,1.251075,0.388913,0.163662,2.245455,1.192142,0.813345,0.197517,0.151814,1.902961,0.834337,0.422032,0.250904,0.102816,1.288305,0.866777,0.696024,0.203458,0.173893,6.976542,2.370093,1.430617,0.586354,0.154261,0.310637,0.433188,0.147777,0.090546,0.032174,1.450568,0.960438,0.374268,0.218986,0.088879,0.647385,0.449389,0.313527,0.134184,0.172777,0.630807,1.009794,0.596362,0.233449,0.174562,1.877787,1.054444,0.704245,0.475085,0.394153,2.793328,1.870713,2.034391,0.579109,0.597575,3.604288,1.937142,0.977441,0.357454,0.375776,3.425811,1.797885,1.275014,0.660178,0.183077,3.593089,1.748158,0.959709,0.369747,0.14499
1725717346.5736,1725717346.573897,181.0,0.0,4323.461426,4273.461426,4296.666504,4313.846191,4249.615234,4273.077148,4168.717773,4222.820313,4245.641113,4251.794922,4512.436035,4522.94873,4377.179688,4442.692383,3886.0,0.0,10.0,,,,0.0,4.0,4.0,4.0,4.0,4.0,4.0,4.0,4.0,4.0,4.0,4.0,4.0,4.0,4.0,100.0,,,,,,,,,,,,,,,,,,,,,,,,,,,,,,,,,,,,,,,,,,,,,,,,,,,,,,,,,,,,,,,,,,,,,,,,,,,,,,,,,,,,,,,,,,,,,,,,,,,,,,,,,,,,,,,,,,,,,,,,,,,,,,,,,,,
1725717346.577504,1725717346.577801,182.0,0.0,4323.589844,4272.563965,4292.307617,4315.384766,4248.846191,4269.358887,4169.102539,4225.769043,4245.256348,4251.153809,4511.922852,4522.692383,4375.641113,4442.692383,2877.0,0.0,10.0,,,,0.0,4.0,4.0,4.0,4.0,4.0,4.0,4.0,4.0,4.0,4.0,4.0,4.0,4.0,4.0,100.0,,,,,,,,,,,,,,,,,,,,,,,,,,,,,,,,,,,,,,,,,,,,,,,,,,,,,,,,,,,,,,,,,,,,,,,,,,,,,,,,,,,,,,,,,,,,,,,,,,,,,,,,,,,,,,,,,,,,,,,,,,,,,,,,,,,
1725717346.581408,1725717346.581805,183.0,0.0,4325.512695,4269.743652,4292.692383,4315.641113,4251.922852,4266.794922,4168.974121,4229.230957,4246.922852,4249.871582,4507.179688,4523.974121,4375.256348,4443.846191,3131.0,0.0,10.0,,,,0.0,4.0,4.0,4.0,4.0,4.0,4.0,4.0,4.0,4.0,4.0,4.0,4.0,4.0,4.0,100.0,,,,,,,,,,,,,,,,,,,,,,,,,,,,,,,,,,,,,,,,,,,,,,,,,,,,,,,,,,,,,,,,,,,,,,,,,,,,,,,,,,,,,,,,,,,,,,,,,,,,,,,,,,,,,,,,,,,,,,,,,,,,,,,,,,,
1725717346.585312,1725717346.585709,184.0,0.0,4327.307617,4266.538574,4295.641113,4313.717773,4256.666504,4266.538574,4167.692383,4232.05127,4248.846191,4246.410156,4500.512695,4525.897461,4375.0,4444.358887,3381.0,0.0,10.0,,,,0.0,4.0,4.0,4.0,4.0,4.0,4.0,4.0,4.0,4.0,4.0,4.0,4.0,4.0,4.0,100.0,,,,,,,,,,,,,,,,,,,,,,,,,,,,,,,,,,,,,,,,,,,,,,,,,,,,,,,,,,,,,,,,,,,,,,,,,,,,,,,,,,,,,,,,,,,,,,,,,,,,,,,,,,,,,,,,,,,,,,,,,,,,,,,,,,,
1725717346.589216,1725717346.589613,185.0,0.0,4327.692383,4264.615234,4297.94873,4310.384766,4260.0,4268.461426,4165.897461,4233.461426,4248.717773,4240.256348,4495.897461,4526.794922,4373.717773,4442.307617,3886.0,0.0,10.0,,,,0.0,4.0,4.0,4.0,4.0,4.0,4.0,4.0,4.0,4.0,4.0,4.0,4.0,4.0,4.0,100.0,,,,,,,,,,,,,,,,,,,,,,,,,,,,,,,,,,,,,,,,,,,,,,,,,,,,,,,,,,,,,,,,,,,,,,,,,,,,,,,,,,,,,,,,,,,,,,,,,,,,,,,,,,,,,,,,,,,,,,,,,,,,,,,,,,,
1725717346.59312,1725717346.593517,186.0,0.0,4326.538574,4264.230957,4297.563965,4308.077148,4260.512695,4271.410156,4164.487305,4233.205078,4246.666504,4234.358887,4496.538574,4525.128418,4371.410156,4437.820313,2877.0,0.0,10.0,,,,0.0,4.0,4.0,4.0,4.0,4.0,4.0,4.0,4.0,4.0,4.0,4.0,4.0,4.0,4.0,100.0,,,,,,,,,,,,,,,,,,,,,,,,,,,,,,,,,,,,,,,,,,,,,,,,,,,,,,,,,,,,,,,,,,,,,,,,,,,,,,,,,,,,,,,,,,,,,,,,,,,,,,,,,,,,,,,,,,,,,,,,,,,,,,,,,,,
1725717346.597024,1725717346.597521,187.0,0.0,4324.871582,4265.128418,4295.512695,4308.589844,4259.358887,4273.846191,4164.102539,4232.436035,4244.615234,4233.333496,4501.922852,4521.666504,4369.615234,4433.333496,3131.0,0.0,10.0,,,,0.0,4.0,4.0,4.0,4.0,4.0,4.0,4.0,4.0,4.0,4.0,4.0,4.0,4.0,4.0,100.0,,,,,,,,,,,,,,,,,,,,,,,,,,,,,,,,,,,,,,,,,,,,,,,,,,,,,,,,,,,,,,,,,,,,,,,,,,,,,,,,,,,,,,,,,,,,,,,,,,,,,,,,,,,,,,,,,,,,,,,,,,,,,,,,,,,
1725717346.600928,1725717346.601425,188.0,0.0,4324.230957,4266.410156,4293.974121,4311.282227,4258.333496,4274.358887,4165.128418,4232.307617,4245.0,4239.102539,4508.077148,4518.717773,4370.384766,4431.282227,3381.0,0.0,10.0,,,,0.0,4.0,4.0,4.0,4.0,4.0,4.0,4.0,4.0,4.0,4.0,4.0,4.0,4.0,4.0,100.0,,,,,,,,,,,,,,,,,,,,,,,,,,,,,,,,,,,,,,,,,,,,,,,,,,,,,,,,0.0,0.0,1.0,0.0,1.0,0.0,,,,,,,,,,,,,,,,,,,,,,,,,,,,,,,,,,,,,,,,,,,,,,,,,,,,,,,,,,,,,,,,,,,,,,
1725717346.604833,1725717346.605329,189.0,0.0,4324.743652,4267.436035,4294.230957,4313.333496,4258.589844,4273.461426,4166.794922,4232.94873,4247.820313,4247.94873,4510.0,4518.846191,4373.846191,4432.436035,3886.0,0.0,10.0,,,,0.0,4.0,4.0,4.0,4.0,4.0,4.0,4.0,4.0,4.0,4.0,4.0,4.0,4.0,4.0,100.0,,,,,,,,,,,,,,,,,,,,,,,,,,,,,,,,,,,,,,,,,,,,,,,,,,,,,,,,,,,,,,,,,,,,,,,,,,,,,,,,,,,,,,,,,,,,,,,,,,,,,,,,,,,,,,,,,,,,,,,,,,,,,,,,,,,
1725717346.608737,1725717346.609233,190.0,0.0,4325.897461,4267.692383,4295.769043,4313.205078,4260.0,4272.820313,4168.205078,4233.077148,4250.641113,4253.589844,4504.358887,4521.794922,4376.666504,4434.871582,2877.0,0.0,10.0,,,,0.0,4.0,4.0,4.0,4.0,4.0,4.0,4.0,4.0,4.0,4.0,4.0,4.0,4.0,4.0,100.0,,,,,,,,,,,,,,,,,,,,,,,,,,,,,,,,,,,,,,,,,,,,,,,,,,,,,,,,,,,,,,,,,,,,,,,,,,,,,,,,,,,,,,,,,,,,,,,,,,,,,,,,,,,,,,,,,,,,,,,,,,,,,,,,,,,
1725717346.612641,1725717346.613138,191.0,0.0,4326.410156,4266.538574,4297.307617,4311.282227,4262.05127,4273.974121,4168.846191,4231.025879,4250.512695,4251.538574,4492.820313,4524.743652,4375.641113,4436.153809,3131.0,0.0,10.0,,,,0.0,4.0,4.0,4.0,4.0,4.0,4.0,4.0,4.0,4.0,4.0,4.0,4.0,4.0,4.0,100.0,,,,,,,,,,,,,,,,,,,,,,,,,,,,,,,,,,,,,,,,,,,,,,,,,,,,,,,,,,,,,,,,,,,,,,,,,,,,,,,,,,,,,,,,,,,,,,,,,,,,,,,,,,,,,,,,,,,,,,,,,,,,,,,,,,,
1725717346.616545,1725717346.616942,192.0,0.0,4326.153809,4263.461426,4298.333496,4309.230957,4263.589844,4276.153809,4168.717773,4226.282227,4246.410156,4243.077148,4481.794922,4524.358887,4370.128418,4434.358887,3381.0,0.0,10.0,,,,0.0,4.0,4.0,4.0,4.0,4.0,4.0,4.0,4.0,4.0,4.0,4.0,4.0,4.0,4.0,100.0,,,,,,,,,,,,,,,,,,,,,,,,,,,,,,,,,,,,,,,,,,,,,,,,,,,,,,,,,,,,,,,,,,,,,,,,,,,,,,,,,,,,,,,,,,,,,,,,,,,,,,,,,,,,,,,,,,,,,,,,,,,,,,,,,,,
1725717346.620449,1725717346.620846,193.0,0.0,4325.384766,4258.461426,4298.846191,4308.589844,4263.589844,4277.179688,4168.205078,4220.256348,4239.615234,4233.461426,4477.05127,4519.615234,4363.974121,4430.512695,3886.0,0.0,10.0,,,,0.0,4.0,4.0,4.0,4.0,4.0,4.0,4.0,4.0,4.0,4.0,4.0,4.0,4.0,4.0,100.0,,,,,,,,,,,,,,,,,,,,,,,,,,,,,,,,,,,,,,,,,,,,,,,,,,,,,,,,,,,,,,,,,,,,,,,,,,,,,,,,,,,,,,,,,,,,,,,,,,,,,,,,,,,,,,,,,,,,,,,,,,,,,,,,,,,
1725717346.624353,1725717346.62475,194.0,0.0,4324.743652,4252.692383,4298.717773,4309.230957,4261.410156,4275.256348,4168.077148,4215.384766,4233.205078,4228.333496,4479.615234,4512.820313,4361.922852,4426.666504,2877.0,0.0,10.0,,,,0.0,4.0,4.0,4.0,4.0,4.0,4.0,4.0,4.0,4.0,4.0,4.0,4.0,4.0,4.0,100.0,,,,,,,,,,,,,,,,,,,,,,,,,,,,,,,,,,,,,,,,,,,,,,,,,,,,,,,,,,,,,,,,,,,,,,,,,,,,,,,,,,,,,,,,,,,,,,,,,,,,,,,,,,,,,,,,,,,,,,,,,,,,,,,,,,,
1725717346.628257,1725717346.628654,195.0,0.0,4324.743652,4247.94873,4297.692383,4309.615234,4257.307617,4271.153809,4168.205078,4213.974121,4229.871582,4229.358887,4485.769043,4507.692383,4365.897461,4425.384766,3131.0,0.0,10.0,,,,0.0,4.0,4.0,4.0,4.0,4.0,4.0,4.0,4.0,4.0,4.0,4.0,4.0,4.0,4.0,100.0,,,,,,,,,,,,,,,,,,,,,,,,,,,,,,,,,,,,,,,,,,,,,,,,,,,,,,,,,,,,,,,,,,,,,,,,,,,,,,,,,,,,,,,,,,,,,,,,,,,,,,,,,,,,,,,,,,,,,,,,,,,,,,,,,,,
1725717346.632161,1725717346.632458,196.0,0.0,4325.641113,4245.769043,4296.025879,4308.846191,4253.077148,4267.436035,4168.589844,4215.641113,4230.641113,4234.102539,4491.666504,4506.410156,4372.692383,4427.179688,3381.0,0.0,10.0,,,,0.0,4.0,4.0,4.0,4.0,4.0,4.0,4.0,4.0,4.0,4.0,4.0,4.0,4.0,4.0,100.0,,,,,,,,,,,,,,,,,,,,,,,,,,,,,,,,,,,,,,,,,,,,,,,,,,,,,,,,0.0,0.0,1.0,0.0,1.0,0.0,,,,,,,,,,,,,,,,,,,,,,,,,,,,,,,,,,,,,,,,,,,,,,,,,,,,,,,,,,,,,,,,,,,,,,
1725717346.636065,1725717346.636362,197.0,0.0,4326.794922,4246.282227,4294.871582,4306.410156,4250.897461,4266.282227,4169.102539,4218.077148,4234.358887,4237.692383,4495.384766,4508.077148,4376.922852,4430.512695,3886.0,0.0,10.0,,,,0.0,4.0,4.0,4.0,4.0,4.0,4.0,4.0,4.0,4.0,4.0,4.0,4.0,4.0,4.0,100.0,,,,,,,,,,,,,,,,,,,,,,,,,,,,,,,,,,,,,,,,,,,,,,,,,,,,,,,,,,,,,,,,,,,,,,,,,,,,,,,,,,,,,,,,,,,,,,,,,,,,,,,,,,,,,,,,,,,,,,,,,,,,,,,,,,,
1725717346.639969,1725717346.640266,198.0,0.0,4327.179688,4247.820313,4295.256348,4303.205078,4252.05127,4268.077148,4169.615234,4218.717773,4238.461426,4237.94873,4497.179688,4510.0,4375.384766,4432.692383,2877.0,0.0,10.0,,,,0.0,4.0,4.0,4.0,4.0,4.0,4.0,4.0,4.0,4.0,4.0,4.0,4.0,4.0,4.0,100.0,,,,,,,,,,,,,,,,,,,,,,,,,,,,,,,,,,,,,,,,,,,,,,,,,,,,,,,,,,,,,,,,,,,,,,,,,,,,,,,,,,,,,,,,,,,,,,,,,,,,,,,,,,,,,,,,,,,,,,,,,,,,,,,,,,,
1725717346.643874,1725717346.644171,199.0,0.0,4326.025879,4248.717773,4296.666504,4301.410156,4256.153809,4271.282227,4169.871582,4217.05127,4241.666504,4236.282227,4496.666504,4510.0,4369.487305,4432.436035,3131.0,0.0,10.0,,,,0.0,4.0,4.0,4.0,4.0,4.0,4.0,4.0,4.0,4.0,4.0,4.0,4.0,4.0,4.0,100.0,,,,,,,,,,,,,,,,,,,,,,,,,,,,,,,,,,,,,,,,,,,,,,,,,,,,,,,,,,,,,,,,,,,,,,,,,,,,,,,,,,,,,,,,,,,,,,,,,,,,,,,,,,,,,,,,,,,,,,,,,,,,,,,,,,,
1725717346.647778,1725717346.647975,200.0,0.0,4323.333496,4248.077148,4297.94873,4302.692383,4260.256348,4274.358887,4169.871582,4214.871582,4243.589844,4235.256348,4492.94873,4508.333496,4364.358887,4430.0,3381.0,0.0,10.0,,,,0.0,4.0,4.0,4.0,4.0,4.0,4.0,4.0,4.0,4.0,4.0,4.0,4.0,4.0,4.0,100.0,,,,,,,,,,,,,,,,,,,,,,,,,,,,,,,,,,,,,,,,,,,,,,,,,,,,,,,,,,,,,,,,,,,,,,,,,,,,,,,,,,,,,,,,,,,,,,,,,,,,,,,,,,,,,,,,,,,,,,,,,,,,,,,,,,,
1725717346.651682,1725717346.651879,201.0,0.0,4320.128418,4246.282227,4298.077148,4306.666504,4261.666504,4276.538574,4170.256348,4215.0,4244.743652,4236.025879,4486.666504,4506.922852,4363.205078,4427.179688,3886.0,0.0,10.0,,,,0.0,4.0,4.0,4.0,4.0,4.0,4.0,4.0,4.0,4.0,4.0,4.0,4.0,4.0,4.0,100.0,,,,,,,,,,,,,,,,,,,,,,,,,,,,,,,,,,,,,,,,,,,,,,,,,,,,,,,,,,,,,,,,,,,,,,,,,,,,,,,,,,,,,,,,,,,,,,,,,,,,,,,,,,,,,,,,,,,,,,,,,,,,,,,,,,,
1725717346.655586,1725717346.655783,202.0,0.0,4317.94873,4245.128418,4296.666504,4310.769043,4259.358887,4277.820313,4171.153809,4218.974121,4245.512695,4237.436035,4481.153809,4507.307617,4365.512695,4426.025879,2877.0,0.0,10.0,,,,0.0,4.0,4.0,4.0,4.0,4.0,4.0,4.0,4.0,4.0,4.0,4.0,4.0,4.0,4.0,100.0,,,,,,,,,,,,,,,,,,,,,,,,,,,,,,,,,,,,,,,,,,,,,,,,,,,,,,,,,,,,,,,,,,,,,,,,,,,,,,,,,,,,,,,,,,,,,,,,,,,,,,,,,,,,,,,,,,,,,,,,,,,,,,,,,,,
1725717346.65949,1725717346.659787,203.0,0.0,4317.436035,4245.769043,4294.871582,4311.538574,4254.615234,4277.94873,4172.307617,4225.128418,4245.512695,4237.692383,4480.0,4508.974121,4367.436035,4426.538574,3131.0,0.0,10.0,,,,0.0,4.0,4.0,4.0,4.0,4.0,4.0,4.0,4.0,4.0,4.0,4.0,4.0,4.0,4.0,100.0,,,,,,,,,,,,,,,,,,,,,,,,,,,,,,,,,,,,,,,,,,,,,,,,,,,,,,,,,,,,,,,,,,,,,,,,,,,,,,,,,,,,,,,,,,,,,,,,,,,,,,,,,,,,,,,,,,,,,,,,,,,,,,,,,,,
1725717346.663394,1725717346.663691,204.0,0.0,4318.077148,4247.692383,4293.333496,4307.820313,4249.871582,4276.410156,4172.563965,4230.384766,4245.128418,4236.282227,4483.589844,4509.743652,4366.666504,4427.820313,3381.0,0.0,10.0,,,,0.0,4.0,4.0,4.0,4.0,4.0,4.0,4.0,4.0,4.0,4.0,4.0,4.0,4.0,4.0,100.0,,,,,,,,,,,,,,,,,,,,,,,,,,,,,,,,,,,,,,,,,,,,,,,,,,,,,,,,0.0,0.0,1.0,0.0,1.0,0.0,,,,,,,,,,,,,,,,,,,,,,,,,,,,,,,,,,,,,,,,,,,,,,,,,,,,,,,,,,,,,,,,,,,,,,
1725717346.667298,1725717346.667595,205.0,0.0,4318.974121,4248.589844,4292.94873,4302.179688,4247.436035,4273.205078,4171.153809,4232.307617,4245.128418,4234.230957,4489.615234,4508.717773,4364.615234,4428.333496,3886.0,0.0,10.0,,,,0.0,4.0,4.0,4.0,4.0,4.0,4.0,4.0,4.0,4.0,4.0,4.0,4.0,4.0,4.0,100.0,,,,,,,,,,,,,,,,,,,,,,,,,,,,,,,,,,,,,,,,,,,,,,,,,,,,,,,,,,,,,,,,,,,,,,,,,,,,,,,,,,,,,,,,,,,,,,,,,,,,,,,,,,,,,,,,,,,,,,,,,,,,,,,,,,,
1725717346.671202,1725717346.671499,206.0,0.0,4319.358887,4246.666504,4293.205078,4298.461426,4247.436035,4269.230957,4169.102539,4231.538574,4246.025879,4233.205078,4495.384766,4507.307617,4364.743652,4428.333496,2877.0,0.0,10.0,,,,0.0,4.0,4.0,4.0,4.0,4.0,4.0,4.0,4.0,4.0,4.0,4.0,4.0,4.0,4.0,100.0,,,,,,,,,,,,,,,,,,,,,,,,,,,,,,,,,,,,,,,,,,,,,,,,,,,,,,,,,,,,,,,,,,,,,,,,,,,,,,,,,,,,,,,,,,,,,,,,,,,,,,,,,,,,,,,,,,,,,,,,,,,,,,,,,,,
1725717346.675106,1725717346.675304,207.0,0.0,4319.102539,4242.563965,4293.974121,4298.846191,4248.974121,4266.282227,4168.589844,4230.512695,4247.692383,4234.230957,4498.974121,4508.333496,4368.461426,4428.974121,3131.0,0.0,10.0,,,,0.0,4.0,4.0,4.0,4.0,4.0,4.0,4.0,4.0,4.0,4.0,4.0,4.0,4.0,4.0,100.0,,,,,,,,,,,,,,,,,,,,,,,,,,,,,,,,,,,,,,,,,,,,,,,,,,,,,,,,,,,,,,,,,,,,,,,,,,,,,,,,,,,,,,,,,,,,,,,,,,,,,,,,,,,,,,,,,,,,,,,,,,,,,,,,,,,
1725717346.679011,1725717346.679208,208.0,0.0,4318.461426,4238.974121,4295.0,4301.922852,4250.128418,4265.128418,4172.05127,4231.538574,4248.077148,4236.025879,4499.358887,4512.692383,4373.333496,4430.512695,3381.0,0.0,10.0,,,,0.0,4.0,4.0,4.0,4.0,4.0,4.0,4.0,4.0,4.0,4.0,4.0,4.0,4.0,4.0,100.0,,,,,,,,,,,,,,,,,,,,,,,,,,,,,,,,,,,,,,,,,,,,,,,,,,,,,,,,,,,,,,,,,,,,,,,,,,,,,,,,,,,,,,,,,,,,,,,,,,,,,,,,,,,,,,,,,,,,,,,,,,,,,,,,,,,
1725717346.682915,1725717346.683112,209.0,0.0,4317.563965,4237.05127,4295.641113,4304.358887,4250.256348,4265.641113,4178.717773,4234.230957,4245.769043,4237.179688,4496.153809,4518.589844,4375.128418,4431.666504,3886.0,0.0,10.0,,,,0.0,4.0,4.0,4.0,4.0,4.0,4.0,4.0,4.0,4.0,4.0,4.0,4.0,4.0,4.0,100.0,,,,,,,,,,,,,,,,,,,,,,,,,,,,,,,,,,,,,,,,,,,,,,,,,,,,,,,,,,,,,,,,,,,,,,,,,,,,,,,,,,,,,,,,,,,,,,,,,,,,,,,,,,,,,,,,,,,,,,,,,,,,,,,,,,,
1725717346.686819,1725717346.687116,210.0,0.0,4316.282227,4236.153809,4296.025879,4303.717773,4249.871582,4266.794922,4184.743652,4235.897461,4240.897461,4236.538574,4490.769043,4521.538574,4371.153809,4430.897461,2877.0,0.0,10.0,,,,0.0,4.0,4.0,4.0,4.0,4.0,4.0,4.0,4.0,4.0,4.0,4.0,4.0,4.0,4.0,100.0,,,,,,,,,,,,,,,,,,,,,,,,,,,,,,,,,,,,,,,,,,,,,,,,,,,,,,,,,,,,,,,,,,,,,,,,,,,,,,,,,,,,,,,,,,,,,,,,,,,,,,,,,,,,,,,,,,,,,,,,,,,,,,,,,,,
1725717346.690723,1725717346.69102,211.0,0.0,4314.102539,4234.487305,4295.641113,4300.384766,4249.487305,4267.436035,4186.410156,4234.102539,4235.641113,4234.743652,4485.769043,4518.974121,4362.692383,4427.692383,3131.0,0.0,10.0,,,,0.0,4.0,4.0,4.0,4.0,4.0,4.0,4.0,4.0,4.0,4.0,4.0,4.0,4.0,4.0,100.0,,,,,,,,,,,,,,,,,,,,,,,,,,,,,,,,,,,,,,,,,,,,,,,,,,,,,,,,,,,,,,,,,,,,,,,,,,,,,,,,,,,,,,,,,,,,,,,,,,,,,,,,,,,,,,,,,,,,,,,,,,,,,,,,,,,
1725717346.694627,1725717346.694924,212.0,0.0,4311.153809,4231.922852,4294.871582,4296.538574,4249.102539,4267.05127,4182.94873,4228.077148,4232.179688,4233.077148,4483.205078,4511.666504,4355.128418,4423.077148,3381.0,0.0,10.0,,,,0.0,4.0,4.0,4.0,4.0,4.0,4.0,4.0,4.0,4.0,4.0,4.0,4.0,4.0,4.0,100.0,,,,,,,,,,,,,,,,,1.0,0.0,0.0,,,,,,,,,,,,,,,,,,,,,,,,,,,,,,,,,,,,,0.0,0.0,1.0,0.0,2048.0,0.029079,4.786452,2.431315,1.342174,0.393729,0.158867,3.107589,1.333431,0.80332,0.222427,0.159769,1.865743,0.927378,0.471943,0.246784,0.092854,1.317202,0.934572,0.827129,0.203094,0.170214,7.90939,2.752785,1.687507,0.661806,0.166638,0.345724,0.528378,0.171098,0.113703,0.034571,1.516826,1.073878,0.453329,0.256504,0.090432,0.70482,0.500668,0.313055,0.114624,0.178279,0.563626,0.962979,0.683567,0.247655,0.168039,1.801847,0.993055,0.733934,0.538954,0.383502,2.688869,2.021914,2.061828,0.599712,0.622369,3.969121,2.211127,0.943108,0.349252,0.354524,3.648394,1.668487,1.43142,0.599933,0.187283,3.623582,1.900483,1.071395,0.381663,0.156499
1725717346.698531,1725717346.698828,213.0,0.0,4308.717773,4230.641113,4293.846191,4294.615234,4248.717773,4265.641113,4177.436035,4220.384766,4231.410156,4232.436035,4483.717773,4504.230957,4353.333496,4419.871582,3886.0,0.0,10.0,,,,0.0,4.0,4.0,4.0,4.0,4.0,4.0,4.0,4.0,4.0,4.0,4.0,4.0,4.0,4.0,100.0,,,,,,,,,,,,,,,,,,,,,,,,,,,,,,,,,,,,,,,,,,,,,,,,,,,,,,,,,,,,,,,,,,,,,,,,,,,,,,,,,,,,,,,,,,,,,,,,,,,,,,,,,,,,,,,,,,,,,,,,,,,,,,,,,,,
1725717346.702435,1725717346.702832,214.0,0.0,4307.692383,4232.563965,4293.461426,4295.256348,4248.205078,4262.94873,4174.230957,4214.615234,4232.820313,4232.692383,4486.153809,4500.641113,4358.846191,4419.743652,2877.0,0.0,10.0,,,,0.0,4.0,4.0,4.0,4.0,4.0,4.0,4.0,4.0,4.0,4.0,4.0,4.0,4.0,4.0,100.0,,,,,,,,,,,,,,,,,,,,,,,,,,,,,,,,,,,,,,,,,,,,,,,,,,,,,,,,,,,,,,,,,,,,,,,,,,,,,,,,,,,,,,,,,,,,,,,,,,,,,,,,,,,,,,,,,,,,,,,,,,,,,,,,,,,
1725717346.706339,1725717346.706736,215.0,0.0,4308.717773,4238.077148,4293.461426,4297.05127,4247.820313,4259.615234,4175.384766,4213.333496,4234.615234,4233.333496,4488.461426,4502.307617,4368.333496,4422.94873,3131.0,0.0,10.0,,,,0.0,4.0,4.0,4.0,4.0,4.0,4.0,4.0,4.0,4.0,4.0,4.0,4.0,4.0,4.0,100.0,,,,,,,,,,,,,,,,,,,,,,,,,,,,,,,,,,,,,,,,,,,,,,,,,,,,,,,,,,,,,,,,,,,,,,,,,,,,,,,,,,,,,,,,,,,,,,,,,,,,,,,,,,,,,,,,,,,,,,,,,,,,,,,,,,,
1725717346.710243,1725717346.71064,216.0,0.0,4310.769043,4244.358887,4293.461426,4297.692383,4247.94873,4255.897461,4179.358887,4216.153809,4235.512695,4233.717773,4489.615234,4506.282227,4375.897461,4427.436035,3381.0,0.0,10.0,,,,0.0,4.0,4.0,4.0,4.0,4.0,4.0,4.0,4.0,4.0,4.0,4.0,4.0,4.0,4.0,100.0,,,,,,,,,,,,,,,,,,,,,,,,,,,,,,,,,,,,,,,,,,,,,,,,,,,,,,,,,,,,,,,,,,,,,,,,,,,,,,,,,,,,,,,,,,,,,,,,,,,,,,,,,,,,,,,,,,,,,,,,,,,,,,,,,,,
1725717346.714147,1725717346.714544,217.0,0.0,4312.563965,4247.820313,4293.205078,4296.282227,4248.205078,4252.563965,4182.179688,4220.256348,4235.384766,4233.717773,4489.615234,4508.974121,4377.563965,4430.384766,3886.0,0.0,10.0,,,,0.0,4.0,4.0,4.0,4.0,4.0,4.0,4.0,4.0,4.0,4.0,4.0,4.0,4.0,4.0,100.0,,,,,,,,,,,,,,,,,,,,,,,,,,,,,,,,,,,,,,,,,,,,,,,,,,,,,,,,,,,,,,,,,,,,,,,,,,,,,,,,,,,,,,,,,,,,,,,,,,,,,,,,,,,,,,,,,,,,,,,,,,,,,,,,,,,
1725717346.718051,1725717346.718448,218.0,0.0,4312.94873,4246.282227,4292.563965,4293.846191,4247.94873,4250.512695,4180.897461,4222.179688,4234.871582,4233.205078,4489.487305,4508.077148,4373.461426,4430.512695,2877.0,0.0,10.0,,,,0.0,4.0,4.0,4.0,4.0,4.0,4.0,4.0,4.0,4.0,4.0,4.0,4.0,4.0,4.0,100.0,,,,,,,,,,,,,,,,,,,,,,,,,,,,,,,,,,,,,,,,,,,,,,,,,,,,,,,,,,,,,,,,,,,,,,,,,,,,,,,,,,,,,,,,,,,,,,,,,,,,,,,,,,,,,,,,,,,,,,,,,,,,,,,,,,,
1725717346.721955,1725717346.722253,219.0,0.0,4311.922852,4240.641113,4292.436035,4292.179688,4247.179688,4250.256348,4176.282227,4220.641113,4235.0,4232.563965,4489.743652,4504.615234,4366.538574,4428.461426,3131.0,0.0,10.0,,,,0.0,4.0,4.0,4.0,4.0,4.0,4.0,4.0,4.0,4.0,4.0,4.0,4.0,4.0,4.0,100.0,,,,,,,,,,,,,,,,,,,,,,,,,,,,,,,,,,,,,,,,,,,,,,,,,,,,,,,,,,,,,,,,,,,,,,,,,,,,,,,,,,,,,,,,,,,,,,,,,,,,,,,,,,,,,,,,,,,,,,,,,,,,,,,,,,,
1725717346.72586,1725717346.726157,220.0,0.0,4310.0,4234.358887,4292.94873,4292.820313,4246.025879,4251.794922,4171.794922,4217.307617,4235.256348,4231.922852,4489.743652,4501.538574,4359.871582,4426.025879,3381.0,0.0,10.0,,,,0.0,4.0,4.0,4.0,4.0,4.0,4.0,4.0,4.0,4.0,4.0,4.0,4.0,4.0,4.0,100.0,,,,,,,,,,,,,,,,,,,,,,,,,,,,,,,,,,,,,,,,,,,,,,,,,,,,,,,,0.0,0.0,1.0,0.0,2048.0,0.029079,,,,,,,,,,,,,,,,,,,,,,,,,,,,,,,,,,,,,,,,,,,,,,,,,,,,,,,,,,,,,,,,,,,,,,
1725717346.729764,1725717346.730061,221.0,0.0,4308.461426,4230.512695,4294.358887,4295.256348,4245.384766,4253.974121,4170.769043,4215.512695,4234.743652,4231.410156,4487.436035,4501.794922,4354.487305,4424.871582,3886.0,0.0,10.0,,,,0.0,4.0,4.0,4.0,4.0,4.0,4.0,4.0,4.0,4.0,4.0,4.0,4.0,4.0,4.0,100.0,,,,,,,,,,,,,,,,,,,,,,,,,,,,,,,,,,,,,,,,,,,,,,,,,,,,,,,,,,,,,,,,,,,,,,,,,,,,,,,,,,,,,,,,,,,,,,,,,,,,,,,,,,,,,,,,,,,,,,,,,,,,,,,,,,,
1725717346.733668,1725717346.733965,222.0,0.0,4308.077148,4230.0,4295.512695,4297.94873,4245.384766,4255.641113,4173.205078,4217.563965,4233.589844,4231.282227,4481.666504,4505.641113,4351.025879,4425.128418,2877.0,0.0,10.0,,,,0.0,4.0,4.0,4.0,4.0,4.0,4.0,4.0,4.0,4.0,4.0,4.0,4.0,4.0,4.0,100.0,,,,,,,,,,,,,,,,,,,,,,,,,,,,,,,,,,,,,,,,,,,,,,,,,,,,,,,,,,,,,,,,,,,,,,,,,,,,,,,,,,,,,,,,,,,,,,,,,,,,,,,,,,,,,,,,,,,,,,,,,,,,,,,,,,,
1725717346.737572,1725717346.737769,223.0,0.0,4308.589844,4231.153809,4295.512695,4299.230957,4245.769043,4256.153809,4175.641113,4223.333496,4233.333496,4231.922852,4474.615234,4510.384766,4349.487305,4426.282227,3131.0,0.0,10.0,,,,0.0,4.0,4.0,4.0,4.0,4.0,4.0,4.0,4.0,4.0,4.0,4.0,4.0,4.0,4.0,100.0,,,,,,,,,,,,,,,,,,,,,,,,,,,,,,,,,,,,,,,,,,,,,,,,,,,,,,,,,,,,,,,,,,,,,,,,,,,,,,,,,,,,,,,,,,,,,,,,,,,,,,,,,,,,,,,,,,,,,,,,,,,,,,,,,,,
1725717346.741476,1725717346.741673,224.0,0.0,4309.102539,4231.666504,4293.846191,4298.205078,4245.897461,4256.538574,4175.512695,4229.871582,4235.512695,4233.077148,4470.641113,4512.94873,4350.384766,4427.05127,3381.0,0.0,10.0,,,,0.0,4.0,4.0,4.0,4.0,4.0,4.0,4.0,4.0,4.0,4.0,4.0,4.0,4.0,4.0,100.0,,,,,,,,,,,,,,,,,,,,,,,,,,,,,,,,,,,,,,,,,,,,,,,,,,,,,,,,,,,,,,,,,,,,,,,,,,,,,,,,,,,,,,,,,,,,,,,,,,,,,,,,,,,,,,,,,,,,,,,,,,,,,,,,,,,
1725717346.74538,1725717346.745577,225.0,0.0,4309.358887,4231.025879,4291.794922,4295.384766,4245.256348,4258.205078,4173.461426,4233.846191,4239.615234,4234.230957,4473.205078,4511.794922,4353.846191,4427.307617,3886.0,0.0,10.0,,,,0.0,4.0,4.0,4.0,4.0,4.0,4.0,4.0,4.0,4.0,4.0,4.0,4.0,4.0,4.0,100.0,,,,,,,,,,,,,,,,,,,,,,,,,,,,,,,,,,,,,,,,,,,,,,,,,,,,,,,,,,,,,,,,,,,,,,,,,,,,,,,,,,,,,,,,,,,,,,,,,,,,,,,,,,,,,,,,,,,,,,,,,,,,,,,,,,,
1725717346.749284,1725717346.749581,226.0,0.0,4309.871582,4230.256348,4291.153809,4292.94873,4244.615234,4261.153809,4172.436035,4234.230957,4243.717773,4234.743652,4481.922852,4508.717773,4358.846191,4427.563965,2877.0,0.0,10.0,,,,0.0,4.0,4.0,4.0,4.0,4.0,4.0,4.0,4.0,4.0,4.0,4.0,4.0,4.0,4.0,100.0,,,,,,,,,,,,,,,,,,,,,,,,,,,,,,,,,,,,,,,,,,,,,,,,,,,,,,,,,,,,,,,,,,,,,,,,,,,,,,,,,,,,,,,,,,,,,,,,,,,,,,,,,,,,,,,,,,,,,,,,,,,,,,,,,,,
1725717346.753188,1725717346.753485,227.0,0.0,4311.025879,4230.897461,4292.820313,4293.205078,4244.743652,4264.102539,4174.743652,4233.077148,4246.282227,4234.358887,4491.666504,4507.563965,4364.230957,4428.717773,3131.0,0.0,10.0,,,,0.0,4.0,4.0,4.0,4.0,4.0,4.0,4.0,4.0,4.0,4.0,4.0,4.0,4.0,4.0,100.0,,,,,,,,,,,,,,,,,,,,,,,,,,,,,,,,,,,,,,,,,,,,,,,,,,,,,,,,,,,,,,,,,,,,,,,,,,,,,,,,,,,,,,,,,,,,,,,,,,,,,,,,,,,,,,,,,,,,,,,,,,,,,,,,,,,
1725717346.757092,1725717346.75739,228.0,0.0,4313.333496,4232.692383,4296.153809,4297.179688,4246.666504,4265.641113,4179.230957,4233.205078,4247.179688,4233.589844,4496.666504,4510.897461,4368.717773,4430.384766,3381.0,0.0,10.0,,,,0.0,4.0,4.0,4.0,4.0,4.0,4.0,4.0,4.0,4.0,4.0,4.0,4.0,4.0,4.0,100.0,,,,,,,,,,,,,,,,,,,,,,,,,,,,,,,,,,,,,,,,,,,,,,,,,,,,,,,,0.0,0.0,1.0,0.0,2048.0,0.029079,,,,,,,,,,,,,,,,,,,,,,,,,,,,,,,,,,,,,,,,,,,,,,,,,,,,,,,,,,,,,,,,,,,,,,
1725717346.760996,1725717346.761294,229.0,0.0,4316.538574,4234.358887,4299.743652,4303.077148,4249.743652,4265.512695,4182.307617,4235.256348,4246.666504,4233.077148,4495.641113,4518.077148,4370.769043,4432.307617,3886.0,0.0,10.0,,,,0.0,4.0,4.0,4.0,4.0,4.0,4.0,4.0,4.0,4.0,4.0,4.0,4.0,4.0,4.0,100.0,,,,,,,,,,,,,,,,,,,,,,,,,,,,,,,,,,,,,,,,,,,,,,,,,,,,,,,,,,,,,,,,,,,,,,,,,,,,,,,,,,,,,,,,,,,,,,,,,,,,,,,,,,,,,,,,,,,,,,,,,,,,,,,,,,,
1725717346.764901,1725717346.765298,230.0,0.0,4319.743652,4234.615234,4301.794922,4307.307617,4252.307617,4264.871582,4181.282227,4236.794922,4245.0,4233.461426,4491.538574,4525.384766,4369.358887,4433.461426,2877.0,0.0,10.0,,,,0.0,4.0,4.0,4.0,4.0,4.0,4.0,4.0,4.0,4.0,4.0,4.0,4.0,4.0,4.0,100.0,,,,,,,,,,,,,,,,,,,,,,,,,,,,,,,,,,,,,,,,,,,,,,,,,,,,,,,,,,,,,,,,,,,,,,,,,,,,,,,,,,,,,,,,,,,,,,,,,,,,,,,,,,,,,,,,,,,,,,,,,,,,,,,,,,,
1725717346.768805,1725717346.769202,231.0,0.0,4321.794922,4233.846191,4301.410156,4306.922852,4252.94873,4264.487305,4176.666504,4235.128418,4241.922852,4234.615234,4489.230957,4528.077148,4364.871582,4433.589844,3131.0,0.0,10.0,,,,0.0,4.0,4.0,4.0,4.0,4.0,4.0,4.0,4.0,4.0,4.0,4.0,4.0,4.0,4.0,100.0,,,,,,,,,,,,,,,,,,,,,,,,,,,,,,,,,,,,,,,,,,,,,,,,,,,,,,,,,,,,,,,,,,,,,,,,,,,,,,,,,,,,,,,,,,,,,,,,,,,,,,,,,,,,,,,,,,,,,,,,,,,,,,,,,,,
1725717346.772709,1725717346.773106,232.0,0.0,4321.666504,4233.333496,4298.846191,4302.05127,4251.538574,4263.717773,4171.410156,4229.487305,4238.333496,4235.897461,4490.641113,4523.589844,4359.871582,4432.179688,3381.0,0.0,10.0,,,,0.0,4.0,4.0,4.0,4.0,4.0,4.0,4.0,4.0,4.0,4.0,4.0,4.0,4.0,4.0,100.0,,,,,,,,,,,,,,,,,,,,,,,,,,,,,,,,,,,,,,,,,,,,,,,,,,,,,,,,,,,,,,,,,,,,,,,,,,,,,,,,,,,,,,,,,,,,,,,,,,,,,,,,,,,,,,,,,,,,,,,,,,,,,,,,,,,
1725717346.776613,1725717346.77701,233.0,0.0,4319.743652,4233.461426,4295.512695,4296.410156,4249.230957,4261.666504,4168.461426,4222.563965,4235.769043,4236.410156,4493.717773,4514.487305,4357.436035,4430.128418,3886.0,0.0,10.0,,,,0.0,4.0,4.0,4.0,4.0,4.0,4.0,4.0,4.0,4.0,4.0,4.0,4.0,4.0,4.0,100.0,,,,,,,,,,,,,,,,,,,,,,,,,,,,,,,,,,,,,,,,,,,,,,,,,,,,,,,,,,,,,,,,,,,,,,,,,,,,,,,,,,,,,,,,,,,,,,,,,,,,,,,,,,,,,,,,,,,,,,,,,,,,,,,,,,,
1725717346.780517,1725717346.780814,234.0,0.0,4317.563965,4234.102539,4293.461426,4294.102539,4247.563965,4258.205078,4168.461426,4218.205078,4235.641113,4235.384766,4495.128418,4506.025879,4359.102539,4428.461426,2877.0,0.0,10.0,,,,0.0,4.0,4.0,4.0,4.0,4.0,4.0,4.0,4.0,4.0,4.0,4.0,4.0,4.0,4.0,100.0,,,,,,,,,,,,,,,,,,,,,,,,,,,,,,,,,,,,,,,,,,,,,,,,,,,,,,,,,,,,,,,,,,,,,,,,,,,,,,,,,,,,,,,,,,,,,,,,,,,,,,,,,,,,,,,,,,,,,,,,,,,,,,,,,,,
1725717346.784421,1725717346.784718,235.0,0.0,4317.05127,4234.615234,4294.230957,4296.922852,4247.307617,4254.615234,4170.0,4218.846191,4238.333496,4233.205078,4493.717773,4503.077148,4363.461426,4428.461426,3131.0,0.0,10.0,,,,0.0,4.0,4.0,4.0,4.0,4.0,4.0,4.0,4.0,4.0,4.0,4.0,4.0,4.0,4.0,100.0,,,,,,,,,,,,,,,,,,,,,,,,,,,,,,,,,,,,,,,,,,,,,,,,,,,,,,,,,,,,,,,,,,,,,,,,,,,,,,,,,,,,,,,,,,,,,,,,,,,,,,,,,,,,,,,,,,,,,,,,,,,,,,,,,,,
1725717346.788325,1725717346.788622,236.0,0.0,4319.102539,4235.0,4298.077148,4303.717773,4248.333496,4251.794922,4171.282227,4223.846191,4242.563965,4231.410156,4491.666504,4506.922852,4367.692383,4429.615234,3381.0,0.0,10.0,,,,0.0,4.0,4.0,4.0,4.0,4.0,4.0,4.0,4.0,4.0,4.0,4.0,4.0,4.0,4.0,100.0,,,,,,,,,,,,,,,,,,,,,,,,,,,,,,,,,,,,,,,,,,,,,,,,,,,,,,,,0.0,0.0,1.0,0.0,2048.0,0.029079,,,,,,,,,,,,,,,,,,,,,,,,,,,,,,,,,,,,,,,,,,,,,,,,,,,,,,,,,,,,,,,,,,,,,,
1725717346.792229,1725717346.792626,237.0,0.0,4322.820313,4235.384766,4303.205078,4311.025879,4249.358887,4250.256348,4171.410156,4230.0,4246.410156,4231.538574,4491.922852,4514.615234,4369.871582,4430.769043,3886.0,0.0,10.0,,,,0.0,4.0,4.0,4.0,4.0,4.0,4.0,4.0,4.0,4.0,4.0,4.0,4.0,4.0,4.0,100.0,,,,,,,,,,,,,,,,,,,,,,,,,,,,,,,,,,,,,,,,,,,,,,,,,,,,,,,,,,,,,,,,,,,,,,,,,,,,,,,,,,,,,,,,,,,,,,,,,,,,,,,,,,,,,,,,,,,,,,,,,,,,,,,,,,,
1725717346.796133,1725717346.796531,238.0,0.0,4326.282227,4235.641113,4307.179688,4315.512695,4249.743652,4249.743652,4170.897461,4234.358887,4248.846191,4234.102539,4494.102539,4521.794922,4370.384766,4431.282227,2877.0,0.0,10.0,,,,0.0,4.0,4.0,4.0,4.0,4.0,4.0,4.0,4.0,4.0,4.0,4.0,4.0,4.0,4.0,100.0,,,,,,,,,,,,,,,,,,,,,,,,,,,,,,,,,,,,,,,,,,,,,,,,,,,,,,,,,,,,,,,,,,,,,,,,,,,,,,,,,,,,,,,,,,,,,,,,,,,,,,,,,,,,,,,,,,,,,,,,,,,,,,,,,,,
1725717346.800038,1725717346.800435,239.0,0.0,4327.179688,4235.641113,4307.692383,4315.769043,4249.743652,4249.871582,4170.512695,4235.897461,4249.487305,4237.563965,4494.743652,4525.512695,4370.384766,4431.410156,3131.0,0.0,10.0,,,,0.0,4.0,4.0,4.0,4.0,4.0,4.0,4.0,4.0,4.0,4.0,4.0,4.0,4.0,4.0,100.0,,,,,,,,,,,,,,,,,,,,,,,,,,,,,,,,,,,,,,,,,,,,,,,,,,,,,,,,,,,,,,,,,,,,,,,,,,,,,,,,,,,,,,,,,,,,,,,,,,,,,,,,,,,,,,,,,,,,,,,,,,,,,,,,,,,
1725717346.803942,1725717346.804439,240.0,0.0,4325.0,4234.871582,4304.358887,4312.05127,4249.871582,4250.512695,4170.897461,4235.128418,4249.487305,4239.871582,4491.025879,4525.256348,4370.512695,4431.282227,3381.0,0.0,10.0,,,,0.0,4.0,4.0,4.0,4.0,4.0,4.0,4.0,4.0,4.0,4.0,4.0,4.0,4.0,4.0,100.0,,,,,,,,,,,,,,,,,,,,,,,,,,,,,,,,,,,,,,,,,,,,,,,,,,,,,,,,,,,,,,,,,,,,,,,,,,,,,,,,,,,,,,,,,,,,,,,,,,,,,,,,,,,,,,,,,,,,,,,,,,,,,,,,,,,
1725717346.807846,1725717346.808343,241.0,0.0,4320.256348,4233.846191,4299.102539,4306.794922,4250.769043,4251.282227,4171.153809,4232.820313,4249.487305,4239.487305,4484.615234,4522.179688,4370.0,4430.641113,3886.0,0.0,10.0,,,,0.0,4.0,4.0,4.0,4.0,4.0,4.0,4.0,4.0,4.0,4.0,4.0,4.0,4.0,4.0,100.0,,,,,,,,,,,,,,,,,,,,,,,,,,,,,,,,,,,,,,,,,,,,,,,,,,,,,,,,,,,,,,,,,,,,,,,,,,,,,,,,,,,,,,,,,,,,,,,,,,,,,,,,,,,,,,,,,,,,,,,,,,,,,,,,,,,
1725717346.81175,1725717346.812247,242.0,0.0,4314.743652,4233.077148,4294.487305,4301.922852,4252.05127,4251.538574,4170.512695,4229.102539,4249.102539,4236.666504,4479.358887,4517.05127,4368.077148,4428.846191,2877.0,0.0,10.0,,,,0.0,4.0,4.0,4.0,4.0,4.0,4.0,4.0,4.0,4.0,4.0,4.0,4.0,4.0,4.0,100.0,,,,,,,,,,,,,,,,,,,,,,,,,,,,,,,,,,,,,,,,,,,,,,,,,,,,,,,,,,,,,,,,,,,,,,,,,,,,,,,,,,,,,,,,,,,,,,,,,,,,,,,,,,,,,,,,,,,,,,,,,,,,,,,,,,,
1725717346.815654,1725717346.816151,243.0,0.0,4310.128418,4232.436035,4292.05127,4298.717773,4252.692383,4251.410156,4168.974121,4224.487305,4246.794922,4233.333496,4477.436035,4511.025879,4364.487305,4425.641113,3131.0,0.0,10.0,,,,0.0,4.0,4.0,4.0,4.0,4.0,4.0,4.0,4.0,4.0,4.0,4.0,4.0,4.0,4.0,100.0,,,,,,,,,,,,,,,,,,,,,,,,,,,,,,,,,,,,,,,,,,,,,,,,,,,,,,,,,,,,,,,,,,,,,,,,,,,,,,,,,,,,,,,,,,,,,,,,,,,,,,,,,,,,,,,,,,,,,,,,,,,,,,,,,,,
1725717346.819558,1725717346.820055,244.0,0.0,4308.205078,4232.05127,4292.436035,4297.05127,4252.179688,4250.769043,4167.179688,4220.384766,4241.666504,4231.282227,4478.717773,4506.153809,4360.384766,4421.922852,3381.0,0.0,10.0,,,,0.0,4.0,4.0,4.0,4.0,4.0,4.0,4.0,4.0,4.0,4.0,4.0,4.0,4.0,4.0,100.0,,,,,,,,,,,,,,,,,1.0,0.0,0.0,,,,,,,,,,,,,,,,,,,,,,,,,,,,,,,,,,,,,0.0,0.0,1.0,0.0,2048.0,0.049141,4.62328,2.348649,1.344508,0.379673,0.147349,4.243546,1.646924,0.833564,0.27805,0.167021,1.85762,1.082442,0.527732,0.249243,0.08183,1.434898,1.065583,0.963749,0.203639,0.164203,7.783103,2.788249,1.766863,0.664351,0.166134,0.387903,0.584461,0.200352,0.134105,0.040017,1.548452,1.129572,0.522858,0.273376,0.088418,0.807647,0.653011,0.364202,0.121367,0.17485,0.578807,1.030155,0.811895,0.284087,0.171771,1.898218,1.081352,0.838269,0.643891,0.36673,2.830573,2.371838,1.997474,0.68398,0.653836,4.298909,2.634992,0.980576,0.376351,0.309479,4.144788,1.76066,1.6051,0.588452,0.200028,3.744417,2.251448,1.18658,0.436419,0.162701
1725717346.823462,1725717346.823959,245.0,0.0,4309.615234,4231.922852,4294.615234,4296.666504,4250.897461,4249.743652,4166.410156,4218.974121,4235.641113,4231.538574,4482.307617,4505.128418,4357.94873,4420.0,3886.0,0.0,10.0,,,,0.0,4.0,4.0,4.0,4.0,4.0,4.0,4.0,4.0,4.0,4.0,4.0,4.0,4.0,4.0,100.0,,,,,,,,,,,,,,,,,,,,,,,,,,,,,,,,,,,,,,,,,,,,,,,,,,,,,,,,,,,,,,,,,,,,,,,,,,,,,,,,,,,,,,,,,,,,,,,,,,,,,,,,,,,,,,,,,,,,,,,,,,,,,,,,,,,
1725717346.827366,1725717346.827763,246.0,0.0,4313.333496,4232.307617,4296.922852,4297.179688,4249.743652,4248.461426,4166.794922,4222.436035,4232.05127,4233.461426,4487.820313,4509.102539,4358.974121,4421.666504,2877.0,0.0,10.0,,,,0.0,4.0,4.0,4.0,4.0,4.0,4.0,4.0,4.0,4.0,4.0,4.0,4.0,4.0,4.0,100.0,,,,,,,,,,,,,,,,,,,,,,,,,,,,,,,,,,,,,,,,,,,,,,,,,,,,,,,,,,,,,,,,,,,,,,,,,,,,,,,,,,,,,,,,,,,,,,,,,,,,,,,,,,,,,,,,,,,,,,,,,,,,,,,,,,,
1725717346.83127,1725717346.831667,247.0,0.0,4317.05127,4233.333496,4298.205078,4297.94873,4249.358887,4247.307617,4167.94873,4230.0,4233.205078,4235.897461,4494.743652,4516.922852,4362.692383,4426.794922,3131.0,0.0,10.0,,,,0.0,4.0,4.0,4.0,4.0,4.0,4.0,4.0,4.0,4.0,4.0,4.0,4.0,4.0,4.0,100.0,,,,,,,,,,,,,,,,,,,,,,,,,,,,,,,,,,,,,,,,,,,,,,,,,,,,,,,,,,,,,,,,,,,,,,,,,,,,,,,,,,,,,,,,,,,,,,,,,,,,,,,,,,,,,,,,,,,,,,,,,,,,,,,,,,,
1725717346.835174,1725717346.835572,248.0,0.0,4318.717773,4234.871582,4298.717773,4298.333496,4249.615234,4247.307617,4168.974121,4237.563965,4237.436035,4237.179688,4500.769043,4524.358887,4366.666504,4432.94873,3381.0,0.0,10.0,,,,0.0,4.0,4.0,4.0,4.0,4.0,4.0,4.0,4.0,4.0,4.0,4.0,4.0,4.0,4.0,100.0,,,,,,,,,,,,,,,,,,,,,,,,,,,,,,,,,,,,,,,,,,,,,,,,,,,,,,,,,,,,,,,,,,,,,,,,,,,,,,,,,,,,,,,,,,,,,,,,,,,,,,,,,,,,,,,,,,,,,,,,,,,,,,,,,,,
1725717346.839079,1725717346.839476,249.0,0.0,4318.205078,4236.282227,4298.846191,4298.333496,4249.615234,4248.333496,4170.128418,4239.487305,4241.282227,4236.410156,4503.461426,4527.820313,4368.205078,4436.794922,3886.0,0.0,10.0,,,,0.0,4.0,4.0,4.0,4.0,4.0,4.0,4.0,4.0,4.0,4.0,4.0,4.0,4.0,4.0,100.0,,,,,,,,,,,,,,,,,,,,,,,,,,,,,,,,,,,,,,,,,,,,,,,,,,,,,,,,,,,,,,,,,,,,,,,,,,,,,,,,,,,,,,,,,,,,,,,,,,,,,,,,,,,,,,,,,,,,,,,,,,,,,,,,,,,
1725717346.842983,1725717346.84328,250.0,0.0,4316.666504,4237.307617,4299.230957,4298.205078,4249.102539,4249.230957,4171.410156,4234.743652,4241.794922,4234.487305,4501.025879,4526.410156,4367.563965,4436.666504,2877.0,0.0,10.0,,,,0.0,4.0,4.0,4.0,4.0,4.0,4.0,4.0,4.0,4.0,4.0,4.0,4.0,4.0,4.0,100.0,,,,,,,,,,,,,,,,,,,,,,,,,,,,,,,,,,,,,,,,,,,,,,,,,,,,,,,,,,,,,,,,,,,,,,,,,,,,,,,,,,,,,,,,,,,,,,,,,,,,,,,,,,,,,,,,,,,,,,,,,,,,,,,,,,,
1725717346.846887,1725717346.847184,251.0,0.0,4315.641113,4237.179688,4298.974121,4298.205078,4248.589844,4248.846191,4172.563965,4227.05127,4238.974121,4233.717773,4495.0,4522.820313,4366.794922,4433.333496,3131.0,0.0,10.0,,,,0.0,4.0,4.0,4.0,4.0,4.0,4.0,4.0,4.0,4.0,4.0,4.0,4.0,4.0,4.0,100.0,,,,,,,,,,,,,,,,,,,,,,,,,,,,,,,,,,,,,,,,,,,,,,,,,,,,,,,,,,,,,,,,,,,,,,,,,,,,,,,,,,,,,,,,,,,,,,,,,,,,,,,,,,,,,,,,,,,,,,,,,,,,,,,,,,,
1725717346.850791,1725717346.851088,252.0,0.0,4316.025879,4235.897461,4298.077148,4298.461426,4248.589844,4247.307617,4173.717773,4222.436035,4235.384766,4235.256348,4488.461426,4520.641113,4367.307617,4430.128418,3381.0,0.0,10.0,,,,0.0,4.0,4.0,4.0,4.0,4.0,4.0,4.0,4.0,4.0,4.0,4.0,4.0,4.0,4.0,100.0,,,,,,,,,,,,,,,,,,,,,,,,,,,,,,,,,,,,,,,,,,,,,,,,,,,,,,,,0.0,0.0,1.0,0.0,2048.0,0.049141,,,,,,,,,,,,,,,,,,,,,,,,,,,,,,,,,,,,,,,,,,,,,,,,,,,,,,,,,,,,,,,,,,,,,,
1725717346.854695,1725717346.854992,253.0,0.0,4318.077148,4234.102539,4297.05127,4298.589844,4248.846191,4246.025879,4174.743652,4223.589844,4233.589844,4237.692383,4484.871582,4521.922852,4368.846191,4429.615234,3886.0,0.0,10.0,,,,0.0,4.0,4.0,4.0,4.0,4.0,4.0,4.0,4.0,4.0,4.0,4.0,4.0,4.0,4.0,100.0,,,,,,,,,,,,,,,,,,,,,,,,,,,,,,,,,,,,,,,,,,,,,,,,,,,,,,,,,,,,,,,,,,,,,,,,,,,,,,,,,,,,,,,,,,,,,,,,,,,,,,,,,,,,,,,,,,,,,,,,,,,,,,,,,,,
1725717346.858599,1725717346.858796,254.0,0.0,4320.641113,4232.692383,4297.307617,4298.589844,4248.717773,4246.025879,4175.641113,4228.589844,4234.487305,4237.692383,4485.512695,4525.128418,4370.0,4431.666504,2877.0,0.0,10.0,,,,0.0,4.0,4.0,4.0,4.0,4.0,4.0,4.0,4.0,4.0,4.0,4.0,4.0,4.0,4.0,100.0,,,,,,,,,,,,,,,,,,,,,,,,,,,,,,,,,,,,,,,,,,,,,,,,,,,,,,,,,,,,,,,,,,,,,,,,,,,,,,,,,,,,,,,,,,,,,,,,,,,,,,,,,,,,,,,,,,,,,,,,,,,,,,,,,,,
1725717346.862503,1725717346.862701,255.0,0.0,4322.307617,4232.436035,4298.077148,4298.205078,4248.589844,4246.538574,4176.025879,4232.436035,4236.538574,4233.974121,4489.358887,4526.794922,4369.871582,4434.230957,10.0,0.0,10.0,,,,0.0,4.0,4.0,4.0,4.0,4.0,4.0,4.0,4.0,4.0,4.0,4.0,4.0,4.0,4.0,100.0,,,,,,,,,,,,,,,,,,,,,,,,,,,,,,,,,,,,,,,,,,,,,,,,,,,,,,,,,,,,,,,,,,,,,,,,,,,,,,,,,,,,,,,,,,,,,,,,,,,,,,,,,,,,,,,,,,,,,,,,,,,,,,,,,,,
1725717346.866407,1725717346.866605,0.0,0.0,4321.922852,4233.077148,4298.205078,4297.820313,4248.461426,4246.025879,4175.769043,4231.025879,4236.538574,4227.94873,4493.717773,4523.846191,4368.717773,4433.974121,2698.0,0.0,10.0,,,,0.0,4.0,4.0,4.0,4.0,4.0,4.0,4.0,4.0,4.0,4.0,4.0,4.0,4.0,4.0,100.0,,,,,,,,,,,,,,,,,,,,,,,,,,,,,,,,,,,,,,,,,,,,,,,,,,,,,,,,,,,,,,,,,,,,,,,,,,,,,,,,,,,,,,,,,,,,,,,,,,,,,,,,,,,,,,,,,,,,,,,,,,,,,,,,,,,
1725717346.870311,1725717346.870609,1.0,0.0,4318.717773,4233.461426,4296.153809,4297.307617,4248.461426,4243.333496,4174.871582,4224.615234,4232.94873,4222.179688,4495.256348,4515.512695,4366.410156,4429.743652,2580.0,0.0,10.0,,,,0.0,4.0,4.0,4.0,4.0,4.0,4.0,4.0,4.0,4.0,4.0,4.0,4.0,4.0,4.0,100.0,,,,,,,,,,,,,,,,,,,,,,,,,,,,,,,,,,,,,,,,,,,,,,,,,,,,,,,,,,,,,,,,,,,,,,,,,,,,,,,,,,,,,,,,,,,,,,,,,,,,,,,,,,,,,,,,,,,,,,,,,,,,,,,,,,,
1725717346.874215,1725717346.874513,2.0,0.0,4313.205078,4232.436035,4292.05127,4296.794922,4247.563965,4238.974121,4173.974121,4216.538574,4226.666504,4218.205078,4491.410156,4503.717773,4362.692383,4422.436035,2513.0,0.0,10.0,,,,0.0,4.0,4.0,4.0,4.0,4.0,4.0,4.0,4.0,4.0,4.0,4.0,4.0,4.0,4.0,100.0,,,,,,,,,,,,,,,,,,,,,,,,,,,,,,,,,,,,,,,,,,,,,,,,,,,,,,,,,,,,,,,,,,,,,,,,,,,,,,,,,,,,,,,,,,,,,,,,,,,,,,,,,,,,,,,,,,,,,,,,,,,,,,,,,,,
1725717346.87812,1725717346.878417,3.0,0.0,4306.410156,4229.358887,4286.922852,4295.641113,4245.384766,4234.102539,4173.077148,4211.025879,4220.384766,4216.025879,4481.538574,4492.05127,4356.410156,4414.102539,2478.0,0.0,10.0,,,,0.0,4.0,4.0,4.0,4.0,4.0,4.0,4.0,4.0,4.0,4.0,4.0,4.0,4.0,4.0,100.0,,,,,,,,,,,,,,,,,,,,,,,,,,,,,,,,,,,,,,,,,,,,,,,,,,,,,,,,,,,,,,,,,,,,,,,,,,,,,,,,,,,,,,,,,,,,,,,,,,,,,,,,,,,,,,,,,,,,,,,,,,,,,,,,,,,
1725717346.882024,1725717346.882321,4.0,0.0,4298.974121,4223.974121,4281.666504,4292.179688,4241.666504,4230.769043,4171.794922,4209.615234,4216.153809,4213.717773,4467.307617,4482.692383,4346.538574,4405.641113,2443.0,0.0,10.0,,,,0.0,4.0,4.0,4.0,4.0,4.0,4.0,4.0,4.0,4.0,4.0,4.0,4.0,4.0,4.0,100.0,,,,,,,,,,,,,,,,,,,,,,,,,,,,,,,,,,,,,,,,,,,,,,,,,,,,,,,,0.0,0.0,1.0,0.0,2048.0,0.049141,,,,,,,,,,,,,,,,,,,,,,,,,,,,,,,,,,,,,,,,,,,,,,,,,,,,,,,,,,,,,,,,,,,,,,
1725717346.885928,1725717346.886125,5.0,0.0,4290.897461,4217.179688,4276.282227,4284.871582,4236.666504,4230.0,4169.487305,4210.769043,4213.846191,4209.487305,4451.666504,4476.410156,4332.436035,4397.05127,2403.0,0.0,10.0,,,,0.0,4.0,4.0,4.0,4.0,4.0,4.0,4.0,4.0,4.0,4.0,4.0,4.0,4.0,4.0,100.0,,,,,,,,,,,,,,,,,,,,,,,,,,,,,,,,,,,,,,,,,,,,,,,,,,,,,,,,,,,,,,,,,,,,,,,,,,,,,,,,,,,,,,,,,,,,,,,,,,,,,,,,,,,,,,,,,,,,,,,,,,,,,,,,,,,
1725717346.889832,1725717346.890029,6.0,0.0,4282.436035,4210.0,4271.025879,4274.102539,4231.410156,4231.153809,4165.897461,4211.794922,4212.307617,4202.94873,4436.922852,4472.436035,4315.641113,4388.205078,2446.0,0.0,10.0,,,,0.0,4.0,4.0,4.0,4.0,4.0,4.0,4.0,4.0,4.0,4.0,4.0,4.0,4.0,4.0,100.0,,,,,,,,,,,,,,,,,,,,,,,,,,,,,,,,,,,,,,,,,,,,,,,,,,,,,,,,,,,,,,,,,,,,,,,,,,,,,,,,,,,,,,,,,,,,,,,,,,,,,,,,,,,,,,,,,,,,,,,,,,,,,,,,,,,
1725717346.893736,1725717346.893933,7.0,0.0,4275.256348,4203.461426,4265.897461,4263.461426,4227.307617,4232.436035,4161.410156,4211.282227,4210.641113,4196.025879,4426.153809,4470.641113,4300.384766,4380.384766,2498.0,0.0,10.0,,,,0.0,4.0,4.0,4.0,4.0,4.0,4.0,4.0,4.0,4.0,4.0,4.0,4.0,4.0,4.0,100.0,,,,,,,,,,,,,,,,,,,,,,,,,,,,,,,,,,,,,,,,,,,,,,,,,,,,,,,,,,,,,,,,,,,,,,,,,,,,,,,,,,,,,,,,,,,,,,,,,,,,,,,,,,,,,,,,,,,,,,,,,,,,,,,,,,,
1725717346.89764,1725717346.897937,8.0,0.0,4271.666504,4197.94873,4262.563965,4258.205078,4225.897461,4232.179688,4157.692383,4211.410156,4210.384766,4192.436035,4423.077148,4471.025879,4292.436035,4376.282227,2468.0,0.0,10.0,,,,0.0,4.0,4.0,4.0,4.0,4.0,4.0,4.0,4.0,4.0,4.0,4.0,4.0,4.0,4.0,100.0,,,,,,,,,,,,,,,,,,,,,,,,,,,,,,,,,,,,,,,,,,,,,,,,,,,,,,,,,,,,,,,,,,,,,,,,,,,,,,,,,,,,,,,,,,,,,,,,,,,,,,,,,,,,,,,,,,,,,,,,,,,,,,,,,,,
1725717346.901544,1725717346.901841,9.0,0.0,4273.461426,4194.743652,4262.436035,4261.282227,4228.077148,4230.641113,4156.922852,4215.641113,4214.358887,4196.025879,4430.641113,4474.358887,4296.794922,4379.230957,2541.0,0.0,10.0,,,,0.0,4.0,4.0,4.0,4.0,4.0,4.0,4.0,4.0,4.0,4.0,4.0,4.0,4.0,4.0,100.0,,,,,,,,,,,,,,,,,,,,,,,,,,,,,,,,,,,,,,,,,,,,,,,,,,,,,,,,,,,,,,,,,,,,,,,,,,,,,,,,,,,,,,,,,,,,,,,,,,,,,,,,,,,,,,,,,,,,,,,,,,,,,,,,,,,
1725717346.905448,1725717346.905746,10.0,0.0,4280.641113,4196.025879,4266.794922,4271.538574,4233.589844,4229.871582,4160.897461,4225.769043,4224.230957,4207.692383,4448.077148,4482.05127,4314.102539,4390.0,2869.0,0.0,10.0,,,,0.0,4.0,4.0,4.0,4.0,4.0,4.0,4.0,4.0,4.0,4.0,4.0,4.0,4.0,4.0,100.0,,,,,,,,,,,,,,,,,,,,,,,,,,,,,,,,,,,,,,,,,,,,,,,,,,,,,,,,,,,,,,,,,,,,,,,,,,,,,,,,,,,,,,,,,,,,,,,,,,,,,,,,,,,,,,,,,,,,,,,,,,,,,,,,,,,
1725717346.909352,1725717346.90975,11.0,0.0,4291.922852,4203.974121,4275.0,4284.487305,4240.641113,4231.922852,4168.333496,4239.487305,4237.820313,4224.358887,4469.487305,4494.615234,4339.230957,4406.153809,3134.0,0.0,10.0,,,,0.0,4.0,4.0,4.0,4.0,4.0,4.0,4.0,4.0,4.0,4.0,4.0,4.0,4.0,4.0,100.0,,,,,,,,,,,,,,,,,,,,,,,,,,,,,,,,,,,,,,,,,,,,,,,,,,,,,,,,,,,,,,,,,,,,,,,,,,,,,,,,,,,,,,,,,,,,,,,,,,,,,,,,,,,,,,,,,,,,,,,,,,,,,,,,,,,
1725717346.913256,1725717346.913654,12.0,0.0,4303.846191,4218.077148,4285.128418,4295.256348,4247.179688,4236.538574,4176.153809,4250.641113,4250.384766,4239.743652,4488.461426,4510.0,4362.94873,4422.436035,3383.0,0.0,10.0,,,,0.0,4.0,4.0,4.0,4.0,4.0,4.0,4.0,4.0,4.0,4.0,4.0,4.0,4.0,4.0,100.0,,,,,,,,,,,,,,,,,,,,,,,,,,,,,,,,,,,,,,,,,,,,,,,,,,,,,,,,0.0,0.0,1.0,0.0,2048.0,0.049141,,,,,,,,,,,,,,,,,,,,,,,,,,,,,,,,,,,,,,,,,,,,,,,,,,,,,,,,,,,,,,,,,,,,,,
1725717346.91716,1725717346.917558,13.0,0.0,4312.94873,4233.333496,4293.974121,4301.410156,4251.794922,4241.794922,4180.512695,4254.615234,4256.410156,4248.461426,4500.769043,4523.333496,4376.794922,4433.974121,3884.0,0.0,10.0,,,,0.0,4.0,4.0,4.0,4.0,4.0,4.0,4.0,4.0,4.0,4.0,4.0,4.0,4.0,4.0,100.0,,,,,,,,,,,,,,,,,,,,,,,,,,,,,,,,,,,,,,,,,,,,,,,,,,,,,,,,,,,,,,,,,,,,,,,,,,,,,,,,,,,,,,,,,,,,,,,,,,,,,,,,,,,,,,,,,,,,,,,,,,,,,,,,,,,
1725717346.921065,1725717346.921462,14.0,0.0,4316.922852,4241.794922,4298.974121,4303.077148,4253.589844,4245.384766,4179.743652,4250.769043,4254.487305,4248.717773,4505.384766,4529.615234,4377.436035,4437.692383,2869.0,0.0,10.0,,,,0.0,4.0,4.0,4.0,4.0,4.0,4.0,4.0,4.0,4.0,4.0,4.0,4.0,4.0,4.0,100.0,,,,,,,,,,,,,,,,,,,,,,,,,,,,,,,,,,,,,,,,,,,,,,,,,,,,,,,,,,,,,,,,,,,,,,,,,,,,,,,,,,,,,,,,,,,,,,,,,,,,,,,,,,,,,,,,,,,,,,,,,,,,,,,,,,,
1725717346.924969,1725717346.925366,15.0,0.0,4316.025879,4236.666504,4299.743652,4302.307617,4253.333496,4246.666504,4174.871582,4242.307617,4246.922852,4243.205078,4502.820313,4527.94873,4368.717773,4434.487305,3134.0,0.0,10.0,,,,0.0,4.0,4.0,4.0,4.0,4.0,4.0,4.0,4.0,4.0,4.0,4.0,4.0,4.0,4.0,100.0,,,,,,,,,,,,,,,,,,,,,,,,,,,,,,,,,,,,,,,,,,,,,,,,,,,,,,,,,,,,,,,,,,,,,,,,,,,,,,,,,,,,,,,,,,,,,,,,,,,,,,,,,,,,,,,,,,,,,,,,,,,,,,,,,,,
1725717346.928873,1725717346.92927,16.0,0.0,4312.692383,4217.692383,4298.077148,4301.282227,4251.666504,4246.666504,4168.589844,4233.461426,4238.461426,4236.025879,4495.256348,4520.897461,4358.589844,4427.692383,3383.0,0.0,10.0,,,,0.0,4.0,4.0,4.0,4.0,4.0,4.0,4.0,4.0,4.0,4.0,4.0,4.0,4.0,4.0,100.0,,,,,,,,,,,,,,,,,,,,,,,,,,,,,,,,,,,,,,,,,,,,,,,,,,,,,,,,,,,,,,,,,,,,,,,,,,,,,,,,,,,,,,,,,,,,,,,,,,,,,,,,,,,,,,,,,,,,,,,,,,,,,,,,,,,
1725717346.932777,1725717346.933074,17.0,0.0,4310.128418,4191.794922,4296.538574,4300.256348,4250.0,4246.666504,4164.358887,4226.922852,4232.820313,4230.769043,4486.153809,4512.692383,4354.102539,4421.025879,3884.0,0.0,10.0,,,,0.0,4.0,4.0,4.0,4.0,4.0,4.0,4.0,4.0,4.0,4.0,4.0,4.0,4.0,4.0,100.0,,,,,,,,,,,,,,,,,,,,,,,,,,,,,,,,,,,,,,,,,,,,,,,,,,,,,,,,,,,,,,,,,,,,,,,,,,,,,,,,,,,,,,,,,,,,,,,,,,,,,,,,,,,,,,,,,,,,,,,,,,,,,,,,,,,
1725717346.936681,1725717346.936978,18.0,0.0,4309.615234,4169.615234,4296.282227,4299.102539,4249.230957,4247.820313,4163.077148,4223.205078,4230.128418,4228.589844,4478.974121,4506.410156,4356.666504,4416.538574,2869.0,0.0,10.0,,,,0.0,4.0,4.0,4.0,4.0,4.0,4.0,4.0,4.0,4.0,4.0,4.0,4.0,4.0,4.0,100.0,,,,,,,,,,,,,,,,,,,,,,,,,,,,,,,,,,,,,,,,,,,,,,,,,,,,,,,,,,,,,,,,,,,,,,,,,,,,,,,,,,,,,,,,,,,,,,,,,,,,,,,,,,,,,,,,,,,,,,,,,,,,,,,,,,,
1725717346.940585,1725717346.940882,19.0,0.0,4310.128418,4159.358887,4297.307617,4297.692383,4249.871582,4249.743652,4163.974121,4221.153809,4228.589844,4228.589844,4475.384766,4502.307617,4361.794922,4414.358887,3134.0,0.0,10.0,,,,0.0,4.0,4.0,4.0,4.0,4.0,4.0,4.0,4.0,4.0,4.0,4.0,4.0,4.0,4.0,100.0,,,,,,,,,,,,,,,,,,,,,,,,,,,,,,,,,,,,,,,,,,,,,,,,,,,,,,,,,,,,,,,,,,,,,,,,,,,,,,,,,,,,,,,,,,,,,,,,,,,,,,,,,,,,,,,,,,,,,,,,,,,,,,,,,,,
1725717346.944489,1725717346.944886,20.0,0.0,4310.0,4162.179688,4298.333496,4296.794922,4250.897461,4251.282227,4165.769043,4219.230957,4226.282227,4228.205078,4473.589844,4499.230957,4363.333496,4413.461426,3383.0,0.0,10.0,,,,0.0,4.0,4.0,4.0,4.0,4.0,4.0,4.0,4.0,4.0,4.0,4.0,4.0,4.0,4.0,100.0,,,,,,,,,,,,,,,,,1.0,0.0,0.0,,,,,,,,,,,,,,,,,,,,,,,,,,,,,,,,,,,,,0.0,0.0,1.0,0.0,2048.0,0.035331,4.08604,2.266865,1.229575,0.342841,0.131008,5.472097,2.015206,0.865757,0.357623,0.171414,1.821129,1.256245,0.551706,0.248816,0.072934,1.56676,1.215506,1.031294,0.198825,0.156449,6.620066,2.468376,1.637748,0.590575,0.153152,0.413835,0.581528,0.228033,0.147712,0.049035,1.449373,1.136678,0.5588,0.264192,0.08428,0.889466,0.846474,0.46163,0.152355,0.162939,0.630323,1.1163,0.912571,0.325633,0.183734,2.035527,1.223014,0.927192,0.75293,0.346927,3.036525,2.826226,1.830023,0.79689,0.695782,4.418817,3.122251,0.996432,0.410592,0.252819,4.629107,1.945632,1.671187,0.601497,0.220156,3.836164,2.715158,1.22316,0.493058,0.161893
1725717346.948393,1725717346.948791,21.0,0.0,4308.461426,4172.436035,4298.717773,4297.179688,4250.897461,4251.538574,4167.179688,4216.794922,4222.94873,4225.384766,4471.410156,4496.282227,4358.589844,4412.94873,3884.0,0.0,10.0,,,,0.0,4.0,4.0,4.0,4.0,4.0,4.0,4.0,4.0,4.0,4.0,4.0,4.0,4.0,4.0,100.0,,,,,,,,,,,,,,,,,,,,,,,,,,,,,,,,,,,,,,,,,,,,,,,,,,,,,,,,,,,,,,,,,,,,,,,,,,,,,,,,,,,,,,,,,,,,,,,,,,,,,,,,,,,,,,,,,,,,,,,,,,,,,,,,,,,
1725717346.952297,1725717346.952695,22.0,0.0,4306.025879,4182.307617,4298.205078,4299.358887,4249.743652,4250.256348,4167.179688,4214.487305,4219.230957,4220.256348,4468.333496,4494.230957,4350.0,4412.436035,2869.0,0.0,10.0,,,,0.0,4.0,4.0,4.0,4.0,4.0,4.0,4.0,4.0,4.0,4.0,4.0,4.0,4.0,4.0,100.0,,,,,,,,,,,,,,,,,,,,,,,,,,,,,,,,,,,,,,,,,,,,,,,,,,,,,,,,,,,,,,,,,,,,,,,,,,,,,,,,,,,,,,,,,,,,,,,,,,,,,,,,,,,,,,,,,,,,,,,,,,,,,,,,,,,
1725717346.956201,1725717346.956599,23.0,0.0,4304.102539,4186.666504,4296.922852,4301.666504,4248.077148,4248.333496,4166.025879,4213.333496,4216.538574,4215.256348,4465.641113,4494.230957,4342.94873,4412.179688,3134.0,0.0,10.0,,,,0.0,4.0,4.0,4.0,4.0,4.0,4.0,4.0,4.0,4.0,4.0,4.0,4.0,4.0,4.0,100.0,,,,,,,,,,,,,,,,,,,,,,,,,,,,,,,,,,,,,,,,,,,,,,,,,,,,,,,,,,,,,,,,,,,,,,,,,,,,,,,,,,,,,,,,,,,,,,,,,,,,,,,,,,,,,,,,,,,,,,,,,,,,,,,,,,,
1725717346.960106,1725717346.960403,24.0,0.0,4303.974121,4185.897461,4295.897461,4302.94873,4247.05127,4246.922852,4164.615234,4214.358887,4215.897461,4213.077148,4465.128418,4495.769043,4341.025879,4412.179688,3383.0,0.0,10.0,,,,0.0,4.0,4.0,4.0,4.0,4.0,4.0,4.0,4.0,4.0,4.0,4.0,4.0,4.0,4.0,100.0,,,,,,,,,,,,,,,,,,,,,,,,,,,,,,,,,,,,,,,,,,,,,,,,,,,,,,,,,,,,,,,,,,,,,,,,,,,,,,,,,,,,,,,,,,,,,,,,,,,,,,,,,,,,,,,,,,,,,,,,,,,,,,,,,,,
1725717346.96401,1725717346.964307,25.0,0.0,4305.256348,4183.333496,4295.641113,4302.692383,4246.922852,4246.794922,4163.974121,4216.538574,4217.692383,4214.358887,4467.307617,4496.922852,4344.743652,4412.179688,3884.0,0.0,10.0,,,,0.0,4.0,4.0,4.0,4.0,4.0,4.0,4.0,4.0,4.0,4.0,4.0,4.0,4.0,4.0,100.0,,,,,,,,,,,,,,,,,,,,,,,,,,,,,,,,,,,,,,,,,,,,,,,,,,,,,,,,,,,,,,,,,,,,,,,,,,,,,,,,,,,,,,,,,,,,,,,,,,,,,,,,,,,,,,,,,,,,,,,,,,,,,,,,,,,
1725717346.967914,1725717346.968211,26.0,0.0,4306.922852,4182.563965,4296.153809,4302.307617,4247.692383,4247.436035,4164.743652,4217.563965,4221.153809,4217.692383,4471.153809,4495.897461,4351.025879,4412.307617,2869.0,0.0,10.0,,,,0.0,4.0,4.0,4.0,4.0,4.0,4.0,4.0,4.0,4.0,4.0,4.0,4.0,4.0,4.0,100.0,,,,,,,,,,,,,,,,,,,,,,,,,,,,,,,,,,,,,,,,,,,,,,,,,,,,,,,,,,,,,,,,,,,,,,,,,,,,,,,,,,,,,,,,,,,,,,,,,,,,,,,,,,,,,,,,,,,,,,,,,,,,,,,,,,,
1725717346.971818,1725717346.972115,27.0,0.0,4308.205078,4184.230957,4296.410156,4302.94873,4248.846191,4247.94873,4166.025879,4216.538574,4225.0,4220.256348,4475.512695,4493.205078,4356.410156,4413.077148,3134.0,0.0,10.0,,,,0.0,4.0,4.0,4.0,4.0,4.0,4.0,4.0,4.0,4.0,4.0,4.0,4.0,4.0,4.0,100.0,,,,,,,,,,,,,,,,,,,,,,,,,,,,,,,,,,,,,,,,,,,,,,,,,,,,,,,,,,,,,,,,,,,,,,,,,,,,,,,,,,,,,,,,,,,,,,,,,,,,,,,,,,,,,,,,,,,,,,,,,,,,,,,,,,,
1725717346.975722,1725717346.976119,28.0,0.0,4308.846191,4186.666504,4296.282227,4304.230957,4250.0,4247.820313,4167.05127,4214.871582,4228.333496,4220.769043,4480.384766,4491.666504,4358.974121,4415.512695,3383.0,0.0,10.0,,,,0.0,4.0,4.0,4.0,4.0,4.0,4.0,4.0,4.0,4.0,4.0,4.0,4.0,4.0,4.0,100.0,,,,,,,,,,,,,,,,,,,,,,,,,,,,,,,,,,,,,,,,,,,,,,,,,,,,,,,,0.0,0.0,1.0,0.0,2048.0,0.035331,,,,,,,,,,,,,,,,,,,,,,,,,,,,,,,,,,,,,,,,,,,,,,,,,,,,,,,,,,,,,,,,,,,,,,
1725717346.979626,1725717346.980023,29.0,0.0,4309.230957,4187.94873,4296.538574,4304.871582,4250.512695,4247.436035,4167.692383,4215.384766,4231.025879,4219.871582,4485.769043,4493.974121,4359.487305,4418.846191,3884.0,0.0,10.0,,,,0.0,4.0,4.0,4.0,4.0,4.0,4.0,4.0,4.0,4.0,4.0,4.0,4.0,4.0,4.0,100.0,,,,,,,,,,,,,,,,,,,,,,,,,,,,,,,,,,,,,,,,,,,,,,,,,,,,,,,,,,,,,,,,,,,,,,,,,,,,,,,,,,,,,,,,,,,,,,,,,,,,,,,,,,,,,,,,,,,,,,,,,,,,,,,,,,,
1725717346.98353,1725717346.983928,30.0,0.0,4309.743652,4187.820313,4297.94873,4304.743652,4250.128418,4247.179688,4168.205078,4219.358887,4232.94873,4218.846191,4489.743652,4500.512695,4359.743652,4421.538574,2869.0,0.0,10.0,,,,0.0,4.0,4.0,4.0,4.0,4.0,4.0,4.0,4.0,4.0,4.0,4.0,4.0,4.0,4.0,100.0,,,,,,,,,,,,,,,,,,,,,,,,,,,,,,,,,,,,,,,,,,,,,,,,,,,,,,,,,,,,,,,,,,,,,,,,,,,,,,,,,,,,,,,,,,,,,,,,,,,,,,,,,,,,,,,,,,,,,,,,,,,,,,,,,,,
1725717346.987434,1725717346.987932,31.0,0.0,4310.384766,4187.05127,4300.256348,4304.615234,4249.358887,4247.179688,4168.205078,4225.512695,4233.333496,4218.333496,4489.743652,4507.436035,4360.384766,4421.922852,3134.0,0.0,10.0,,,,0.0,4.0,4.0,4.0,4.0,4.0,4.0,4.0,4.0,4.0,4.0,4.0,4.0,4.0,4.0,100.0,,,,,,,,,,,,,,,,,,,,,,,,,,,,,,,,,,,,,,,,,,,,,,,,,,,,,,,,,,,,,,,,,,,,,,,,,,,,,,,,,,,,,,,,,,,,,,,,,,,,,,,,,,,,,,,,,,,,,,,,,,,,,,,,,,,
1725717346.991338,1725717346.991836,32.0,0.0,4310.641113,4186.922852,4302.307617,4305.0,4248.717773,4247.436035,4167.820313,4230.512695,4231.794922,4218.205078,4485.0,4510.384766,4359.871582,4419.487305,0.0,0.0,10.0,,,,0.0,4.0,4.0,4.0,4.0,4.0,4.0,4.0,4.0,4.0,4.0,4.0,4.0,4.0,4.0,100.0,,,,,,,,,,,,,,,,,,,,,,,,,,,,,,,,,,,,,,,,,,,,,,,,,,,,,,,,,,,,,,,,,,,,,,,,,,,,,,,,,,,,,,,,,,,,,,,,,,,,,,,,,,,,,,,,,,,,,,,,,,,,,,,,,,,
1725717346.995242,1725717346.99574,33.0,0.0,4309.871582,4187.563965,4302.820313,4305.641113,4248.717773,4247.563965,4167.307617,4231.922852,4228.461426,4217.820313,4477.563965,4507.820313,4357.05127,4415.512695,0.0,0.0,10.0,,,,0.0,4.0,4.0,4.0,4.0,4.0,4.0,4.0,4.0,4.0,4.0,4.0,4.0,4.0,4.0,100.0,,,,,,,,,,,,,,,,,,,,,,,,,,,,,,,,,,,,,,,,,,,,,,,,,,,,,,,,,,,,,,,,,,,,,,,,,,,,,,,,,,,,,,,,,,,,,,,,,,,,,,,,,,,,,,,,,,,,,,,,,,,,,,,,,,,
1725717346.999147,1725717346.999644,34.0,0.0,4307.94873,4188.205078,4301.666504,4305.512695,4248.717773,4247.563965,4167.179688,4229.358887,4224.358887,4217.307617,4470.897461,4501.922852,4352.05127,4411.922852,0.0,0.0,10.0,,,,0.0,4.0,4.0,4.0,4.0,4.0,4.0,4.0,4.0,4.0,4.0,4.0,4.0,4.0,4.0,100.0,,,,,,,,,,,,,,,,,,,,,,,,,,,,,,,,,,,,,,,,,,,,,,,,,,,,,,,,,,,,,,,,,,,,,,,,,,,,,,,,,,,,,,,,,,,,,,,,,,,,,,,,,,,,,,,,,,,,,,,,,,,,,,,,,,,
1725717347.003051,1725717347.003648,35.0,0.0,4305.384766,4188.333496,4299.230957,4303.974121,4247.820313,4247.692383,4167.436035,4224.358887,4220.512695,4216.794922,4468.077148,4497.05127,4346.922852,4410.769043,0.0,0.0,10.0,,,,0.0,4.0,4.0,4.0,4.0,4.0,4.0,4.0,4.0,4.0,4.0,4.0,4.0,4.0,4.0,100.0,,,,,,,,,,,,,,,,,,,,,,,,,,,,,,,,,,,,,,,,,,,,,,,,,,,,,,,,,,,,,,,,,,,,,,,,,,,,,,,,,,,,,,,,,,,,,,,,,,,,,,,,,,,,,,,,,,,,,,,,,,,,,,,,,,,
1725717347.006955,1725717347.007552,36.0,0.0,4303.205078,4187.692383,4296.794922,4300.897461,4245.769043,4247.94873,4167.563965,4219.615234,4217.436035,4216.153809,4470.384766,4495.256348,4344.615234,4411.922852,0.0,0.0,10.0,,,,0.0,4.0,4.0,4.0,4.0,4.0,4.0,4.0,4.0,4.0,4.0,4.0,4.0,4.0,4.0,100.0,,,,,,,,,,,,,,,,,,,,,,,,,,,,,,,,,,,,,,,,,,,,,,,,,,,,,,,,0.0,0.0,1.0,0.0,2048.0,0.035331,,,,,,,,,,,,,,,,,,,,,,,,,,,,,,,,,,,,,,,,,,,,,,,,,,,,,,,,,,,,,,,,,,,,,,
1725717347.010859,1725717347.011456,37.0,0.0,4302.05127,4186.538574,4294.743652,4296.922852,4243.333496,4247.820313,4167.05127,4216.922852,4215.769043,4215.641113,4476.410156,4495.0,4346.410156,4413.717773,0.0,0.0,10.0,,,,0.0,4.0,4.0,4.0,4.0,4.0,4.0,4.0,4.0,4.0,4.0,4.0,4.0,4.0,4.0,100.0,,,,,,,,,,,,,,,,,,,,,,,,,,,,,,,,,,,,,,,,,,,,,,,,,,,,,,,,,,,,,,,,,,,,,,,,,,,,,,,,,,,,,,,,,,,,,,,,,,,,,,,,,,,,,,,,,,,,,,,,,,,,,,,,,,,
1725717347.014763,1725717347.01546,38.0,0.0,4301.922852,4186.153809,4293.461426,4293.461426,4241.922852,4247.179688,4166.282227,4216.794922,4216.153809,4216.025879,4482.436035,4494.358887,4351.538574,4414.743652,0.0,0.0,10.0,,,,0.0,4.0,4.0,4.0,4.0,4.0,4.0,4.0,4.0,4.0,4.0,4.0,4.0,4.0,4.0,100.0,,,,,,,,,,,,,,,,,,,,,,,,,,,,,,,,,,,,,,,,,,,,,,,,,,,,,,,,,,,,,,,,,,,,,,,,,,,,,,,,,,,,,,,,,,,,,,,,,,,,,,,,,,,,,,,,,,,,,,,,,,,,,,,,,,,
1725717347.018667,1725717347.019364,39.0,0.0,4302.307617,4187.05127,4293.077148,4292.05127,4242.05127,4246.666504,4165.769043,4218.461426,4218.205078,4217.820313,4484.102539,4493.461426,4357.436035,4414.230957,0.0,0.0,10.0,,,,0.0,4.0,4.0,4.0,4.0,4.0,4.0,4.0,4.0,4.0,4.0,4.0,4.0,4.0,4.0,100.0,,,,,,,,,,,,,,,,,,,,,,,,,,,,,,,,,,,,,,,,,,,,,,,,,,,,,,,,,,,,,,,,,,,,,,,,,,,,,,,,,,,,,,,,,,,,,,,,,,,,,,,,,,,,,,,,,,,,,,,,,,,,,,,,,,,
1725717347.022571,1725717347.023268,40.0,0.0,4302.692383,4188.205078,4293.461426,4292.692383,4243.333496,4246.794922,4166.153809,4220.0,4220.128418,4220.128418,4479.871582,4493.205078,4360.897461,4413.077148,0.0,0.0,10.0,,,,0.0,4.0,4.0,4.0,4.0,4.0,4.0,4.0,4.0,4.0,4.0,4.0,4.0,4.0,4.0,100.0,,,,,,,,,,,,,,,,,,,,,,,,,,,,,,,,,,,,,,,,,,,,,,,,,,,,,,,,,,,,,,,,,,,,,,,,,,,,,,,,,,,,,,,,,,,,,,,,,,,,,,,,,,,,,,,,,,,,,,,,,,,,,,,,,,,
1725717347.026475,1725717347.027172,41.0,0.0,4303.077148,4188.333496,4293.974121,4294.230957,4244.871582,4247.563965,4167.05127,4219.871582,4220.0,4220.256348,4472.436035,4494.230957,4360.0,4411.794922,0.0,0.0,10.0,,,,0.0,4.0,4.0,4.0,4.0,4.0,4.0,4.0,4.0,4.0,4.0,4.0,4.0,4.0,4.0,100.0,,,,,,,,,,,,,,,,,,,,,,,,,,,,,,,,,,,,,,,,,,,,,,,,,,,,,,,,,,,,,,,,,,,,,,,,,,,,,,,,,,,,,,,,,,,,,,,,,,,,,,,,,,,,,,,,,,,,,,,,,,,,,,,,,,,
1725717347.030379,1725717347.031076,42.0,0.0,4303.205078,4187.05127,4293.846191,4295.0,4246.025879,4248.077148,4168.205078,4218.205078,4218.077148,4216.922852,4466.922852,4495.128418,4355.0,4410.512695,0.0,0.0,10.0,,,,0.0,4.0,4.0,4.0,4.0,4.0,4.0,4.0,4.0,4.0,4.0,4.0,4.0,4.0,4.0,100.0,,,,,,,,,,,,,,,,,,,,,,,,,,,,,,,,,,,,,,,,,,,,,,,,,,,,,,,,,,,,,,,,,,,,,,,,,,,,,,,,,,,,,,,,,,,,,,,,,,,,,,,,,,,,,,,,,,,,,,,,,,,,,,,,,,,
1725717347.034284,1725717347.03508,43.0,0.0,4302.692383,4186.025879,4292.94873,4294.487305,4246.282227,4247.05127,4169.102539,4216.666504,4216.410156,4211.282227,4466.922852,4494.743652,4349.615234,4409.102539,0.0,0.0,10.0,,,,0.0,4.0,4.0,4.0,4.0,4.0,4.0,4.0,4.0,4.0,4.0,4.0,4.0,4.0,4.0,100.0,,,,,,,,,,,,,,,,,,,,,,,,,,,,,,,,,,,,,,,,,,,,,,,,,,,,,,,,,,,,,,,,,,,,,,,,,,,,,,,,,,,,,,,,,,,,,,,,,,,,,,,,,,,,,,,,,,,,,,,,,,,,,,,,,,,
1725717347.038188,1725717347.038985,44.0,0.0,4301.410156,4186.410156,4291.922852,4294.102539,4246.025879,4244.230957,4169.358887,4217.692383,4218.077148,4207.563965,4471.666504,4493.077148,4347.436035,4407.94873,0.0,0.0,10.0,,,,0.0,4.0,4.0,4.0,4.0,4.0,4.0,4.0,4.0,4.0,4.0,4.0,4.0,4.0,4.0,100.0,,,,,,,,,,,,,,,,,,,,,,,,,,,,,,,,,,,,,,,,,,,,,,,,,,,,,,,,0.0,0.0,1.0,0.0,2048.0,0.035331,,,,,,,,,,,,,,,,,,,,,,,,,,,,,,,,,,,,,,,,,,,,,,,,,,,,,,,,,,,,,,,,,,,,,,
1725717347.042092,1725717347.042889,45.0,0.0,4299.358887,4187.94873,4291.282227,4294.358887,4245.512695,4240.769043,4169.230957,4222.05127,4223.333496,4209.358887,4476.922852,4491.794922,4350.0,4407.436035,0.0,0.0,10.0,,,,0.0,4.0,4.0,4.0,4.0,4.0,4.0,4.0,4.0,4.0,4.0,4.0,4.0,4.0,4.0,100.0,,,,,,,,,,,,,,,,,,,,,,,,,,,,,,,,,,,,,,,,,,,,,,,,,,,,,,,,,,,,,,,,,,,,,,,,,,,,,,,,,,,,,,,,,,,,,,,,,,,,,,,,,,,,,,,,,,,,,,,,,,,,,,,,,,,
1725717347.045996,1725717347.046793,46.0,0.0,4297.05127,4187.820313,4291.282227,4295.0,4245.384766,4238.717773,4169.230957,4228.589844,4230.256348,4217.05127,4477.94873,4493.461426,4355.0,4408.333496,0.0,0.0,10.0,,,,0.0,4.0,4.0,4.0,4.0,4.0,4.0,4.0,4.0,4.0,4.0,4.0,4.0,4.0,4.0,100.0,,,,,,,,,,,,,,,,,,,,,,,,,,,,,,,,,,,,,,,,,,,,,,,,,,,,,,,,,,,,,,,,,,,,,,,,,,,,,,,,,,,,,,,,,,,,,,,,,,,,,,,,,,,,,,,,,,,,,,,,,,,,,,,,,,,
1725717347.0499,1725717347.050697,47.0,0.0,4295.256348,4184.102539,4291.922852,4294.358887,4245.512695,4239.102539,4169.615234,4234.743652,4235.897461,4227.563965,4473.589844,4498.717773,4357.94873,4410.256348,0.0,0.0,10.0,,,,0.0,4.0,4.0,4.0,4.0,4.0,4.0,4.0,4.0,4.0,4.0,4.0,4.0,4.0,4.0,100.0,,,,,,,,,,,,,,,,,,,,,,,,,,,,,,,,,,,,,,,,,,,,,,,,,,,,,,,,,,,,,,,,,,,,,,,,,,,,,,,,,,,,,,,,,,,,,,,,,,,,,,,,,,,,,,,,,,,,,,,,,,,,,,,,,,,
1725717347.053804,1725717347.054501,48.0,0.0,4294.487305,4177.179688,4292.820313,4291.794922,4246.282227,4241.794922,4170.256348,4238.461426,4238.077148,4235.897461,4466.410156,4505.897461,4356.025879,4412.05127,0.0,0.0,10.0,,,,0.0,4.0,4.0,4.0,4.0,4.0,4.0,4.0,4.0,4.0,4.0,4.0,4.0,4.0,4.0,100.0,,,,,,,,,,,,,,,,,,,,,,,,,,,,,,,,,,,,,,,,,,,,,,,,,,,,,,,,,,,,,,,,,,,,,,,,,,,,,,,,,,,,,,,,,,,,,,,,,,,,,,,,,,,,,,,,,,,,,,,,,,,,,,,,,,,
1725717347.057708,1725717347.058405,49.0,0.0,4295.0,4170.512695,4293.717773,4288.205078,4247.05127,4245.0,4170.384766,4238.461426,4237.05127,4238.333496,4461.794922,4511.666504,4350.256348,4412.94873,0.0,0.0,10.0,,,,0.0,4.0,4.0,4.0,4.0,4.0,4.0,4.0,4.0,4.0,4.0,4.0,4.0,4.0,4.0,100.0,,,,,,,,,,,,,,,,,,,,,,,,,,,,,,,,,,,,,,,,,,,,,,,,,,,,,,,,,,,,,,,,,,,,,,,,,,,,,,,,,,,,,,,,,,,,,,,,,,,,,,,,,,,,,,,,,,,,,,,,,,,,,,,,,,,
1725717347.061612,1725717347.062309,50.0,0.0,4296.153809,4167.94873,4294.358887,4285.512695,4247.820313,4246.922852,4169.871582,4235.641113,4234.487305,4234.615234,4464.102539,4513.205078,4344.358887,4412.692383,0.0,0.0,10.0,,,,0.0,4.0,4.0,4.0,4.0,4.0,4.0,4.0,4.0,4.0,4.0,4.0,4.0,4.0,4.0,100.0,,,,,,,,,,,,,,,,,,,,,,,,,,,,,,,,,,,,,,,,,,,,,,,,,,,,,,,,,,,,,,,,,,,,,,,,,,,,,,,,,,,,,,,,,,,,,,,,,,,,,,,,,,,,,,,,,,,,,,,,,,,,,,,,,,,
1725717347.065516,1725717347.066114,51.0,0.0,4297.179688,4170.897461,4294.871582,4285.0,4248.333496,4247.179688,4169.487305,4232.179688,4232.307617,4228.846191,4473.846191,4510.641113,4342.436035,4412.307617,0.0,0.0,10.0,,,,0.0,4.0,4.0,4.0,4.0,4.0,4.0,4.0,4.0,4.0,4.0,4.0,4.0,4.0,4.0,100.0,,,,,,,,,,,,,,,,,,,,,,,,,,,,,,,,,,,,,,,,,,,,,,,,,,,,,,,,,,,,,,,,,,,,,,,,,,,,,,,,,,,,,,,,,,,,,,,,,,,,,,,,,,,,,,,,,,,,,,,,,,,,,,,,,,,
1725717347.06942,1725717347.070018,52.0,0.0,4297.94873,4177.692383,4295.897461,4286.153809,4248.589844,4246.282227,4170.512695,4231.025879,4232.05127,4225.512695,4486.538574,4506.794922,4346.153809,4412.692383,0.0,0.0,10.0,,,,0.0,4.0,4.0,4.0,4.0,4.0,4.0,4.0,4.0,4.0,4.0,4.0,4.0,4.0,4.0,100.0,1.0,91.666664,4.0,4.0,4.0,4.0,3.0,4.0,4.0,4.0,4.0,4.0,4.0,4.0,4.0,4.0,1.0,0.0,0.0,,,,,,,,,,,,,,,,,,,,,,,,,,,,,,,,,,,,,0.0,0.0,1.0,0.0,2048.0,0.069754,3.314782,2.166256,1.02247,0.289035,0.113922,6.55203,2.293199,0.862176,0.450341,0.171255,1.701068,1.384468,0.522879,0.23737,0.068723,1.632484,1.313598,0.98185,0.183918,0.148514,4.826641,1.906586,1.338573,0.462736,0.13254,0.418934,0.530166,0.247985,0.153299,0.061393,1.36525,1.112016,0.546448,0.231874,0.080603,0.912504,1.014307,0.601351,0.197807,0.147179,0.684601,1.139038,0.942017,0.352081,0.198451,2.072021,1.317299,0.925572,0.821872,0.326981,3.118523,3.212411,1.587287,0.893471,0.746329,4.239881,3.520143,0.935157,0.421717,0.201354,4.808997,2.045983,1.568807,0.618213,0.247791,3.765822,3.118314,1.135692,0.511283,0.154907
1725717347.073324,1725717347.073922,53.0,0.0,4298.461426,4184.487305,4297.05127,4287.94873,4248.589844,4245.384766,4173.846191,4232.94873,4233.589844,4227.307617,4495.641113,4504.743652,4353.717773,4413.974121,0.0,0.0,10.0,,,,0.0,4.0,4.0,4.0,4.0,4.0,4.0,4.0,4.0,4.0,4.0,4.0,4.0,4.0,4.0,100.0,,,,,,,,,,,,,,,,,,,,,,,,,,,,,,,,,,,,,,,,,,,,,,,,,,,,,,,,,,,,,,,,,,,,,,,,,,,,,,,,,,,,,,,,,,,,,,,,,,,,,,,,,,,,,,,,,,,,,,,,,,,,,,,,,,,
1725717347.077228,1725717347.077826,54.0,0.0,4298.333496,4187.820313,4297.820313,4289.487305,4248.461426,4245.384766,4178.461426,4236.153809,4235.897461,4232.307617,4497.563965,4505.384766,4360.384766,4415.256348,0.0,0.0,10.0,,,,0.0,4.0,4.0,4.0,4.0,4.0,4.0,4.0,4.0,4.0,4.0,4.0,4.0,4.0,4.0,100.0,,,,,,,,,,,,,,,,,,,,,,,,,,,,,,,,,,,,,,,,,,,,,,,,,,,,,,,,,,,,,,,,,,,,,,,,,,,,,,,,,,,,,,,,,,,,,,,,,,,,,,,,,,,,,,,,,,,,,,,,,,,,,,,,,,,
1725717347.081133,1725717347.08163,55.0,0.0,4297.307617,4186.666504,4297.563965,4290.769043,4248.846191,4246.410156,4182.436035,4237.94873,4236.922852,4235.256348,4493.077148,4507.05127,4361.794922,4415.256348,0.0,0.0,10.0,,,,0.0,4.0,4.0,4.0,4.0,4.0,4.0,4.0,4.0,4.0,4.0,4.0,4.0,4.0,4.0,100.0,,,,,,,,,,,,,,,,,,,,,,,,,,,,,,,,,,,,,,,,,,,,,,,,,,,,,,,,,,,,,,,,,,,,,,,,,,,,,,,,,,,,,,,,,,,,,,,,,,,,,,,,,,,,,,,,,,,,,,,,,,,,,,,,,,,
1725717347.085037,1725717347.085534,56.0,0.0,4296.410156,4182.307617,4296.794922,4292.179688,4249.615234,4247.820313,4184.358887,4237.436035,4235.769043,4232.692383,4486.794922,4507.94873,4357.436035,4413.846191,0.0,0.0,10.0,,,,0.0,4.0,4.0,4.0,4.0,4.0,4.0,4.0,4.0,4.0,4.0,4.0,4.0,4.0,4.0,100.0,,,,,,,,,,,,,,,,,,,,,,,,,,,,,,,,,,,,,,,,,,,,,,,,,,,,,,,,,,,,,,,,,,,,,,,,,,,,,,,,,,,,,,,,,,,,,,,,,,,,,,,,,,,,,,,,,,,,,,,,,,,,,,,,,,,
1725717347.088941,1725717347.089438,57.0,0.0,4296.410156,4177.692383,4296.666504,4294.230957,4250.769043,4248.974121,4183.846191,4235.641113,4232.692383,4225.256348,4482.05127,4507.692383,4350.512695,4412.307617,0.0,0.0,10.0,,,,0.0,4.0,4.0,4.0,4.0,4.0,4.0,4.0,4.0,4.0,4.0,4.0,4.0,4.0,4.0,100.0,,,,,,,,,,,,,,,,,,,,,,,,,,,,,,,,,,,,,,,,,,,,,,,,,,,,,,,,,,,,,,,,,,,,,,,,,,,,,,,,,,,,,,,,,,,,,,,,,,,,,,,,,,,,,,,,,,,,,,,,,,,,,,,,,,,
1725717347.092845,1725717347.093442,58.0,0.0,4298.077148,4175.128418,4297.436035,4296.282227,4251.538574,4249.743652,4182.436035,4234.358887,4228.846191,4218.077148,4479.102539,4507.179688,4345.0,4412.179688,0.0,0.0,10.0,,,,0.0,4.0,4.0,4.0,4.0,4.0,4.0,4.0,4.0,4.0,4.0,4.0,4.0,4.0,4.0,100.0,,,,,,,,,,,,,,,,,,,,,,,,,,,,,,,,,,,,,,,,,,,,,,,,,,,,,,,,,,,,,,,,,,,,,,,,,,,,,,,,,,,,,,,,,,,,,,,,,,,,,,,,,,,,,,,,,,,,,,,,,,,,,,,,,,,
1725717347.096749,1725717347.097346,59.0,0.0,4300.512695,4174.615234,4298.589844,4297.436035,4251.410156,4250.256348,4181.538574,4233.333496,4224.871582,4215.769043,4476.666504,4506.922852,4342.692383,4413.589844,0.0,0.0,10.0,,,,0.0,4.0,4.0,4.0,4.0,4.0,4.0,4.0,4.0,4.0,4.0,4.0,4.0,4.0,4.0,100.0,,,,,,,,,,,,,,,,,,,,,,,,,,,,,,,,,,,,,,,,,,,,,,,,,,,,,,,,,,,,,,,,,,,,,,,,,,,,,,,,,,,,,,,,,,,,,,,,,,,,,,,,,,,,,,,,,,,,,,,,,,,,,,,,,,,
1725717347.100653,1725717347.10125,60.0,0.0,4302.436035,4174.871582,4298.974121,4296.922852,4250.769043,4250.128418,4182.05127,4232.05127,4221.538574,4218.589844,4475.256348,4506.794922,4342.179688,4414.743652,0.0,0.0,10.0,,,,0.0,4.0,4.0,4.0,4.0,4.0,4.0,4.0,4.0,4.0,4.0,4.0,4.0,4.0,4.0,100.0,,,,,,,,,,,,,,,,,,,,,,,,,,,,,,,,,,,,,,,,,,,,,,,,,,,,,,,,0.0,0.0,1.0,0.0,2048.0,0.069754,,,,,,,,,,,,,,,,,,,,,,,,,,,,,,,,,,,,,,,,,,,,,,,,,,,,,,,,,,,,,,,,,,,,,,
1725717347.104557,1725717347.105155,61.0,0.0,4302.436035,4174.487305,4298.077148,4295.256348,4250.0,4248.974121,4183.205078,4230.256348,4219.487305,4223.077148,4475.897461,4506.282227,4341.666504,4414.102539,0.0,0.0,10.0,,,,0.0,4.0,4.0,4.0,4.0,4.0,4.0,4.0,4.0,4.0,4.0,4.0,4.0,4.0,4.0,100.0,,,,,,,,,,,,,,,,,,,,,,,,,,,,,,,,,,,,,,,,,,,,,,,,,,,,,,,,,,,,,,,,,,,,,,,,,,,,,,,,,,,,,,,,,,,,,,,,,,,,,,,,,,,,,,,,,,,,,,,,,,,,,,,,,,,
1725717347.108461,1725717347.109159,62.0,0.0,4300.641113,4172.94873,4296.538574,4293.589844,4249.743652,4247.179688,4184.487305,4229.230957,4218.846191,4225.641113,4477.94873,4505.641113,4340.256348,4411.282227,0.0,0.0,10.0,,,,0.0,4.0,4.0,4.0,4.0,4.0,4.0,4.0,4.0,4.0,4.0,4.0,4.0,4.0,4.0,100.0,,,,,,,,,,,,,,,,,,,,,,,,,,,,,,,,,,,,,,,,,,,,,,,,,,,,,,,,,,,,,,,,,,,,,,,,,,,,,,,,,,,,,,,,,,,,,,,,,,,,,,,,,,,,,,,,,,,,,,,,,,,,,,,,,,,
1725717347.112365,1725717347.113063,63.0,0.0,4297.94873,4171.538574,4295.512695,4292.692383,4250.128418,4245.512695,4185.0,4229.871582,4219.102539,4224.615234,4478.205078,4505.641113,4339.487305,4407.563965,0.0,0.0,10.0,,,,0.0,4.0,4.0,4.0,4.0,4.0,4.0,4.0,4.0,4.0,4.0,4.0,4.0,4.0,4.0,100.0,,,,,,,,,,,,,,,,,,,,,,,,,,,,,,,,,,,,,,,,,,,,,,,,,,,,,,,,,,,,,,,,,,,,,,,,,,,,,,,,,,,,,,,,,,,,,,,,,,,,,,,,,,,,,,,,,,,,,,,,,,,,,,,,,,,
1725717347.116269,1725717347.116967,64.0,0.0,4296.025879,4171.410156,4295.641113,4292.563965,4250.769043,4244.871582,4184.358887,4231.410156,4218.974121,4221.025879,4473.974121,4505.769043,4340.256348,4404.615234,0.0,0.0,10.0,,,,0.0,4.0,4.0,4.0,4.0,4.0,4.0,4.0,4.0,4.0,4.0,4.0,4.0,4.0,4.0,100.0,,,,,,,,,,,,,,,,,,,,,,,,,,,,,,,,,,,,,,,,,,,,,,,,,,,,,,,,,,,,,,,,,,,,,,,,,,,,,,,,,,,,,,,,,,,,,,,,,,,,,,,,,,,,,,,,,,,,,,,,,,,,,,,,,,,
1725717347.120174,1725717347.120971,65.0,0.0,4295.897461,4173.589844,4296.794922,4292.563965,4251.538574,4245.256348,4183.077148,4231.153809,4217.94873,4217.05127,4466.410156,4505.0,4341.922852,4402.94873,0.0,0.0,10.0,,,,0.0,4.0,4.0,4.0,4.0,4.0,4.0,4.0,4.0,4.0,4.0,4.0,4.0,4.0,4.0,100.0,,,,,,,,,,,,,,,,,,,,,,,,,,,,,,,,,,,,,,,,,,,,,,,,,,,,,,,,,,,,,,,,,,,,,,,,,,,,,,,,,,,,,,,,,,,,,,,,,,,,,,,,,,,,,,,,,,,,,,,,,,,,,,,,,,,
1725717347.124078,1725717347.124875,66.0,0.0,4297.436035,4177.820313,4298.077148,4292.563965,4252.05127,4245.897461,4181.666504,4227.563965,4216.410156,4214.615234,4460.769043,4502.307617,4342.179688,4402.307617,0.0,0.0,10.0,,,,0.0,4.0,4.0,4.0,4.0,4.0,4.0,4.0,4.0,4.0,4.0,4.0,4.0,4.0,4.0,100.0,,,,,,,,,,,,,,,,,,,,,,,,,,,,,,,,,,,,,,,,,,,,,,,,,,,,,,,,,,,,,,,,,,,,,,,,,,,,,,,,,,,,,,,,,,,,,,,,,,,,,,,,,,,,,,,,,,,,,,,,,,,,,,,,,,,
1725717347.127982,1725717347.128779,67.0,0.0,4298.846191,4182.307617,4298.717773,4292.94873,4251.794922,4246.025879,4181.153809,4221.153809,4215.128418,4213.846191,4461.282227,4498.077148,4339.358887,4401.922852,0.0,0.0,10.0,,,,0.0,4.0,4.0,4.0,4.0,4.0,4.0,4.0,4.0,4.0,4.0,4.0,4.0,4.0,4.0,100.0,,,,,,,,,,,,,,,,,,,,,,,,,,,,,,,,,,,,,,,,,,,,,,,,,,,,,,,,,,,,,,,,,,,,,,,,,,,,,,,,,,,,,,,,,,,,,,,,,,,,,,,,,,,,,,,,,,,,,,,,,,,,,,,,,,,
1725717347.131886,1725717347.132683,68.0,0.0,4298.846191,4184.615234,4298.846191,4293.717773,4250.897461,4245.128418,4181.666504,4215.256348,4215.128418,4214.230957,4466.794922,4493.846191,4333.974121,4401.282227,0.0,0.0,10.0,,,,0.0,4.0,4.0,4.0,4.0,4.0,4.0,4.0,4.0,4.0,4.0,4.0,4.0,4.0,4.0,100.0,,,,,,,,,,,,,,,,,,,,,,,,,,,,,,,,,,,,,,,,,,,,,,,,,,,,,,,,0.0,0.0,1.0,0.0,2048.0,0.069754,,,,,,,,,,,,,,,,,,,,,,,,,,,,,,,,,,,,,,,,,,,,,,,,,,,,,,,,,,,,,,,,,,,,,,
1725717347.13579,1725717347.136587,69.0,0.0,4297.563965,4183.205078,4298.589844,4293.461426,4249.487305,4243.333496,4182.692383,4213.205078,4216.282227,4215.0,4471.538574,4491.153809,4328.589844,4400.128418,0.0,0.0,10.0,,,,0.0,4.0,4.0,4.0,4.0,4.0,4.0,4.0,4.0,4.0,4.0,4.0,4.0,4.0,4.0,100.0,,,,,,,,,,,,,,,,,,,,,,,,,,,,,,,,,,,,,,,,,,,,,,,,,,,,,,,,,,,,,,,,,,,,,,,,,,,,,,,,,,,,,,,,,,,,,,,,,,,,,,,,,,,,,,,,,,,,,,,,,,,,,,,,,,,
1725717347.139694,1725717347.140491,70.0,0.0,4296.538574,4178.589844,4297.692383,4291.282227,4248.333496,4241.666504,4182.692383,4216.282227,4217.820313,4215.769043,4471.282227,4490.384766,4326.153809,4398.717773,0.0,0.0,10.0,,,,0.0,4.0,4.0,4.0,4.0,4.0,4.0,4.0,4.0,4.0,4.0,4.0,4.0,4.0,4.0,100.0,,,,,,,,,,,,,,,,,,,,,,,,,,,,,,,,,,,,,,,,,,,,,,,,,,,,,,,,,,,,,,,,,,,,,,,,,,,,,,,,,,,,,,,,,,,,,,,,,,,,,,,,,,,,,,,,,,,,,,,,,,,,,,,,,,,
1725717347.143598,1725717347.144296,71.0,0.0,4296.410156,4173.205078,4295.641113,4287.179688,4247.94873,4240.897461,4180.769043,4223.077148,4218.846191,4216.538574,4466.410156,4490.641113,4327.563965,4397.820313,0.0,0.0,10.0,,,,0.0,4.0,4.0,4.0,4.0,4.0,4.0,4.0,4.0,4.0,4.0,4.0,4.0,4.0,4.0,100.0,,,,,,,,,,,,,,,,,,,,,,,,,,,,,,,,,,,,,,,,,,,,,,,,,,,,,,,,,,,,,,,,,,,,,,,,,,,,,,,,,,,,,,,,,,,,,,,,,,,,,,,,,,,,,,,,,,,,,,,,,,,,,,,,,,,
1725717347.147502,1725717347.1482,72.0,0.0,4295.897461,4170.128418,4292.179688,4283.077148,4247.94873,4241.282227,4177.179688,4230.128418,4219.230957,4217.05127,4461.282227,4490.769043,4332.05127,4397.307617,0.0,0.0,10.0,,,,0.0,4.0,4.0,4.0,4.0,4.0,4.0,4.0,4.0,4.0,4.0,4.0,4.0,4.0,4.0,100.0,,,,,,,,,,,,,,,,,,,,,,,,,,,,,,,,,,,,,,,,,,,,,,,,,,,,,,,,,,,,,,,,,,,,,,,,,,,,,,,,,,,,,,,,,,,,,,,,,,,,,,,,,,,,,,,,,,,,,,,,,,,,,,,,,,,
1725717347.151406,1725717347.152104,73.0,0.0,4293.333496,4170.128418,4287.94873,4280.769043,4247.820313,4242.563965,4173.077148,4233.974121,4219.358887,4217.05127,4460.0,4489.871582,4336.922852,4397.05127,0.0,0.0,10.0,,,,0.0,4.0,4.0,4.0,4.0,4.0,4.0,4.0,4.0,4.0,4.0,4.0,4.0,4.0,4.0,100.0,,,,,,,,,,,,,,,,,,,,,,,,,,,,,,,,,,,,,,,,,,,,,,,,,,,,,,,,,,,,,,,,,,,,,,,,,,,,,,,,,,,,,,,,,,,,,,,,,,,,,,,,,,,,,,,,,,,,,,,,,,,,,,,,,,,
1725717347.155311,1725717347.156108,74.0,0.0,4288.589844,4171.794922,4283.974121,4280.256348,4246.794922,4244.358887,4170.0,4233.974121,4219.743652,4216.153809,4463.333496,4488.333496,4340.128418,4396.538574,0.0,0.0,10.0,,,,0.0,4.0,4.0,4.0,4.0,4.0,4.0,4.0,4.0,4.0,4.0,4.0,4.0,4.0,4.0,100.0,,,,,,,,,,,,,,,,,,,,,,,,,,,,,,,,,,,,,,,,,,,,,,,,,,,,,,,,,,,,,,,,,,,,,,,,,,,,,,,,,,,,,,,,,,,,,,,,,,,,,,,,,,,,,,,,,,,,,,,,,,,,,,,,,,,
1725717347.159215,1725717347.160012,75.0,0.0,4283.717773,4172.820313,4281.153809,4280.384766,4245.384766,4245.897461,4168.717773,4231.794922,4220.256348,4215.384766,4468.717773,4487.820313,4341.153809,4396.153809,0.0,0.0,10.0,,,,0.0,4.0,4.0,4.0,4.0,4.0,4.0,4.0,4.0,4.0,4.0,4.0,4.0,4.0,4.0,100.0,,,,,,,,,,,,,,,,,,,,,,,,,,,,,,,,,,,,,,,,,,,,,,,,,,,,,,,,,,,,,,,,,,,,,,,,,,,,,,,,,,,,,,,,,,,,,,,,,,,,,,,,,,,,,,,,,,,,,,,,,,,,,,,,,,,
1725717347.163119,1725717347.163916,76.0,0.0,4281.538574,4171.410156,4280.256348,4280.128418,4244.358887,4247.05127,4169.615234,4230.641113,4220.769043,4215.384766,4472.05127,4489.743652,4340.256348,4396.153809,0.0,0.0,10.0,,,,0.0,4.0,4.0,4.0,4.0,4.0,4.0,4.0,4.0,4.0,4.0,4.0,4.0,4.0,4.0,100.0,,,,,,,,,,,,,,,,,,,,,,,,,,,,,,,,,,,,,,,,,,,,,,,,,,,,,,,,0.0,0.0,1.0,0.0,2048.0,0.069754,,,,,,,,,,,,,,,,,,,,,,,,,,,,,,,,,,,,,,,,,,,,,,,,,,,,,,,,,,,,,,,,,,,,,,
1725717347.167023,1725717347.16782,77.0,0.0,4283.333496,4168.717773,4280.897461,4280.384766,4244.615234,4247.820313,4171.538574,4232.05127,4221.153809,4216.794922,4471.025879,4492.820313,4337.820313,4397.05127,0.0,0.0,10.0,,,,0.0,4.0,4.0,4.0,4.0,4.0,4.0,4.0,4.0,4.0,4.0,4.0,4.0,4.0,4.0,100.0,,,,,,,,,,,,,,,,,,,,,,,,,,,,,,,,,,,,,,,,,,,,,,,,,,,,,,,,,,,,,,,,,,,,,,,,,,,,,,,,,,,,,,,,,,,,,,,,,,,,,,,,,,,,,,,,,,,,,,,,,,,,,,,,,,,
1725717347.170927,1725717347.171624,78.0,0.0,4287.820313,4166.538574,4282.692383,4282.563965,4246.282227,4248.461426,4173.333496,4234.615234,4221.282227,4218.205078,4467.307617,4494.743652,4333.717773,4397.94873,0.0,0.0,10.0,,,,0.0,4.0,4.0,4.0,4.0,4.0,4.0,4.0,4.0,4.0,4.0,4.0,4.0,4.0,4.0,100.0,,,,,,,,,,,,,,,,,,,,,,,,,,,,,,,,,,,,,,,,,,,,,,,,,,,,,,,,,,,,,,,,,,,,,,,,,,,,,,,,,,,,,,,,,,,,,,,,,,,,,,,,,,,,,,,,,,,,,,,,,,,,,,,,,,,
1725717347.174831,1725717347.175528,79.0,0.0,4292.563965,4166.282227,4285.128418,4287.307617,4248.333496,4248.846191,4174.230957,4235.512695,4220.512695,4218.077148,4465.641113,4493.333496,4328.205078,4397.692383,0.0,0.0,10.0,,,,0.0,4.0,4.0,4.0,4.0,4.0,4.0,4.0,4.0,4.0,4.0,4.0,4.0,4.0,4.0,100.0,,,,,,,,,,,,,,,,,,,,,,,,,,,,,,,,,,,,,,,,,,,,,,,,,,,,,,,,,,,,,,,,,,,,,,,,,,,,,,,,,,,,,,,,,,,,,,,,,,,,,,,,,,,,,,,,,,,,,,,,,,,,,,,,,,,
1725717347.178735,1725717347.179432,80.0,0.0,4295.769043,4167.563965,4287.820313,4293.205078,4249.358887,4249.230957,4173.846191,4234.102539,4218.846191,4216.538574,4469.871582,4489.487305,4323.077148,4396.538574,0.0,0.0,10.0,,,,0.0,4.0,4.0,4.0,4.0,4.0,4.0,4.0,4.0,4.0,4.0,4.0,4.0,4.0,4.0,100.0,,,,,,,,,,,,,,,,,,,,,,,,,,,,,,,,,,,,,,,,,,,,,,,,,,,,,,,,,,,,,,,,,,,,,,,,,,,,,,,,,,,,,,,,,,,,,,,,,,,,,,,,,,,,,,,,,,,,,,,,,,,,,,,,,,,
1725717347.182639,1725717347.183337,81.0,0.0,4296.794922,4168.974121,4290.384766,4296.794922,4248.846191,4249.358887,4172.563965,4232.563965,4217.563965,4214.871582,4477.692383,4487.05127,4321.538574,4395.897461,0.0,0.0,10.0,,,,0.0,4.0,4.0,4.0,4.0,4.0,4.0,4.0,4.0,4.0,4.0,4.0,4.0,4.0,4.0,100.0,,,,,,,,,,,,,,,,,,,,,,,,,,,,,,,,,,,,,,,,,,,,,,,,,,,,,,,,,,,,,,,,,,,,,,,,,,,,,,,,,,,,,,,,,,,,,,,,,,,,,,,,,,,,,,,,,,,,,,,,,,,,,,,,,,,
1725717347.186543,1725717347.187141,82.0,0.0,4296.282227,4169.358887,4292.820313,4295.512695,4247.05127,4249.615234,4171.025879,4233.333496,4218.205078,4215.128418,4482.179688,4489.615234,4325.769043,4397.05127,0.0,0.0,10.0,,,,0.0,4.0,4.0,4.0,4.0,4.0,4.0,4.0,4.0,4.0,4.0,4.0,4.0,4.0,4.0,100.0,,,,,,,,,,,,,,,,,,,,,,,,,,,,,,,,,,,,,,,,,,,,,,,,,,,,,,,,,,,,,,,,,,,,,,,,,,,,,,,,,,,,,,,,,,,,,,,,,,,,,,,,,,,,,,,,,,,,,,,,,,,,,,,,,,,
1725717347.190447,1725717347.191045,83.0,0.0,4295.128418,4169.230957,4294.487305,4289.871582,4245.641113,4250.0,4169.743652,4236.794922,4221.538574,4217.563965,4477.94873,4497.179688,4334.871582,4400.0,0.0,0.0,10.0,,,,0.0,4.0,4.0,4.0,4.0,4.0,4.0,4.0,4.0,4.0,4.0,4.0,4.0,4.0,4.0,100.0,,,,,,,,,,,,,,,,,,,,,,,,,,,,,,,,,,,,,,,,,,,,,,,,,,,,,,,,,,,,,,,,,,,,,,,,,,,,,,,,,,,,,,,,,,,,,,,,,,,,,,,,,,,,,,,,,,,,,,,,,,,,,,,,,,,
1725717347.194352,1725717347.194949,84.0,0.0,4294.743652,4170.0,4295.384766,4283.717773,4245.384766,4250.512695,4169.230957,4241.025879,4226.410156,4220.512695,4467.05127,4506.666504,4344.358887,4403.461426,0.0,0.0,10.0,,,,0.0,4.0,4.0,4.0,4.0,4.0,4.0,4.0,4.0,4.0,4.0,4.0,4.0,4.0,4.0,100.0,,,,,,,,,,,,,,,,,1.0,0.0,0.0,,,,,,,,,,,,,,,,,,,,,,,,,,,,,,,,,,,,,0.0,0.0,1.0,0.0,128.0,0.043238,2.509113,2.016482,0.809992,0.24038,0.10067,7.308696,2.375429,0.824453,0.559128,0.170063,1.500368,1.41487,0.461905,0.217686,0.070803,1.599842,1.303779,0.831313,0.168038,0.143319,2.968512,1.28211,0.965479,0.323173,0.111073,0.418721,0.464301,0.261683,0.153625,0.075228,1.237256,1.072394,0.489885,0.189098,0.080166,0.885646,1.12594,0.797937,0.252045,0.135614,0.750199,1.067563,0.912474,0.362216,0.210953,1.964649,1.334013,0.835583,0.82992,0.309161,3.022864,3.388107,1.373773,0.960166,0.79502,3.833989,3.698473,0.852192,0.411797,0.170915,4.588435,1.982932,1.37956,0.657503,0.285377,3.494725,3.307349,0.967986,0.488944,0.145592
1725717347.198256,1725717347.198953,85.0,0.0,4295.256348,4173.077148,4295.256348,4281.410156,4246.410156,4250.897461,4169.487305,4243.589844,4230.256348,4221.922852,4456.666504,4512.94873,4350.384766,4405.641113,0.0,0.0,10.0,,,,0.0,4.0,4.0,4.0,4.0,4.0,4.0,4.0,4.0,4.0,4.0,4.0,4.0,4.0,4.0,100.0,,,,,,,,,,,,,,,,,,,,,,,,,,,,,,,,,,,,,,,,,,,,,,,,,,,,,,,,,,,,,,,,,,,,,,,,,,,,,,,,,,,,,,,,,,,,,,,,,,,,,,,,,,,,,,,,,,,,,,,,,,,,,,,,,,,
1725717347.20216,1725717347.202857,86.0,0.0,4296.025879,4177.94873,4294.358887,4284.102539,4247.307617,4250.641113,4170.384766,4243.077148,4230.897461,4220.897461,4453.205078,4512.436035,4351.153809,4405.769043,0.0,0.0,10.0,,,,0.0,4.0,4.0,4.0,4.0,4.0,4.0,4.0,4.0,4.0,4.0,4.0,4.0,4.0,4.0,100.0,,,,,,,,,,,,,,,,,,,,,,,,,,,,,,,,,,,,,,,,,,,,,,,,,,,,,,,,,,,,,,,,,,,,,,,,,,,,,,,,,,,,,,,,,,,,,,,,,,,,,,,,,,,,,,,,,,,,,,,,,,,,,,,,,,,
1725717347.206064,1725717347.206761,87.0,0.0,4295.769043,4182.563965,4293.205078,4289.743652,4247.307617,4249.358887,4171.666504,4239.487305,4228.461426,4218.974121,4457.563965,4505.384766,4347.820313,4403.846191,0.0,0.0,10.0,,,,0.0,4.0,4.0,4.0,4.0,4.0,4.0,4.0,4.0,4.0,4.0,4.0,4.0,4.0,4.0,100.0,,,,,,,,,,,,,,,,,,,,,,,,,,,,,,,,,,,,,,,,,,,,,,,,,,,,,,,,,,,,,,,,,,,,,,,,,,,,,,,,,,,,,,,,,,,,,,,,,,,,,,,,,,,,,,,,,,,,,,,,,,,,,,,,,,,
1725717347.209968,1725717347.210665,88.0,0.0,4294.743652,4185.0,4292.563965,4294.743652,4246.282227,4247.05127,4172.692383,4234.230957,4224.743652,4218.461426,4465.641113,4495.897461,4343.205078,4400.897461,0.0,0.0,10.0,,,,0.0,4.0,4.0,4.0,4.0,4.0,4.0,4.0,4.0,4.0,4.0,4.0,4.0,4.0,4.0,100.0,,,,,,,,,,,,,,,,,,,,,,,,,,,,,,,,,,,,,,,,,,,,,,,,,,,,,,,,,,,,,,,,,,,,,,,,,,,,,,,,,,,,,,,,,,,,,,,,,,,,,,,,,,,,,,,,,,,,,,,,,,,,,,,,,,,
1725717347.213872,1725717347.214669,89.0,0.0,4293.717773,4184.743652,4292.563965,4296.794922,4245.128418,4245.128418,4172.94873,4229.615234,4222.692383,4219.615234,4472.94873,4489.230957,4339.743652,4398.846191,0.0,0.0,10.0,,,,0.0,4.0,4.0,4.0,4.0,4.0,4.0,4.0,4.0,4.0,4.0,4.0,4.0,4.0,4.0,100.0,,,,,,,,,,,,,,,,,,,,,,,,,,,,,,,,,,,,,,,,,,,,,,,,,,,,,,,,,,,,,,,,,,,,,,,,,,,,,,,,,,,,,,,,,,,,,,,,,,,,,,,,,,,,,,,,,,,,,,,,,,,,,,,,,,,
1725717347.217776,1725717347.218573,90.0,0.0,4293.846191,4182.436035,4293.333496,4296.282227,4245.0,4244.487305,4172.563965,4228.205078,4223.717773,4221.025879,4477.820313,4489.358887,4339.102539,4399.102539,0.0,0.0,10.0,,,,0.0,4.0,4.0,4.0,4.0,4.0,4.0,4.0,4.0,4.0,4.0,4.0,4.0,4.0,4.0,100.0,,,,,,,,,,,,,,,,,,,,,,,,,,,,,,,,,,,,,,,,,,,,,,,,,,,,,,,,,,,,,,,,,,,,,,,,,,,,,,,,,,,,,,,,,,,,,,,,,,,,,,,,,,,,,,,,,,,,,,,,,,,,,,,,,,,
1725717347.22168,1725717347.222477,91.0,0.0,4294.743652,4179.871582,4294.615234,4294.743652,4246.025879,4245.384766,4172.307617,4231.025879,4227.436035,4220.769043,4481.666504,4496.410156,4341.153809,4402.563965,0.0,0.0,10.0,,,,0.0,4.0,4.0,4.0,4.0,4.0,4.0,4.0,4.0,4.0,4.0,4.0,4.0,4.0,4.0,100.0,,,,,,,,,,,,,,,,,,,,,,,,,,,,,,,,,,,,,,,,,,,,,,,,,,,,,,,,,,,,,,,,,,,,,,,,,,,,,,,,,,,,,,,,,,,,,,,,,,,,,,,,,,,,,,,,,,,,,,,,,,,,,,,,,,,
1725717347.225584,1725717347.226481,92.0,0.0,4295.641113,4178.461426,4296.538574,4293.717773,4247.436035,4247.179688,4172.820313,4236.666504,4231.538574,4219.230957,4486.410156,4506.666504,4344.487305,4408.077148,0.0,0.0,10.0,,,,0.0,4.0,4.0,4.0,4.0,4.0,4.0,4.0,4.0,4.0,4.0,4.0,4.0,4.0,4.0,100.0,,,,,,,,,,,,,,,,,,,,,,,,,,,,,,,,,,,,,,,,,,,,,,,,,,,,,,,,0.0,0.0,1.0,0.0,128.0,0.043238,,,,,,,,,,,,,,,,,,,,,,,,,,,,,,,,,,,,,,,,,,,,,,,,,,,,,,,,,,,,,,,,,,,,,,
1725717347.229488,1725717347.230386,93.0,0.0,4296.410156,4178.333496,4298.205078,4293.589844,4248.205078,4248.717773,4174.102539,4241.538574,4233.589844,4218.461426,4491.666504,4514.358887,4348.077148,4413.589844,0.0,0.0,10.0,,,,0.0,4.0,4.0,4.0,4.0,4.0,4.0,4.0,4.0,4.0,4.0,4.0,4.0,4.0,4.0,100.0,,,,,,,,,,,,,,,,,,,,,,,,,,,,,,,,,,,,,,,,,,,,,,,,,,,,,,,,,,,,,,,,,,,,,,,,,,,,,,,,,,,,,,,,,,,,,,,,,,,,,,,,,,,,,,,,,,,,,,,,,,,,,,,,,,,
1725717347.233392,1725717347.23429,94.0,0.0,4297.05127,4178.974121,4298.589844,4293.717773,4248.077148,4249.487305,4174.615234,4243.077148,4232.179688,4220.256348,4493.974121,4515.769043,4351.025879,4416.538574,0.0,0.0,10.0,,,,0.0,4.0,4.0,4.0,4.0,4.0,4.0,4.0,4.0,4.0,4.0,4.0,4.0,4.0,4.0,100.0,,,,,,,,,,,,,,,,,,,,,,,,,,,,,,,,,,,,,,,,,,,,,,,,,,,,,,,,,,,,,,,,,,,,,,,,,,,,,,,,,,,,,,,,,,,,,,,,,,,,,,,,,,,,,,,,,,,,,,,,,,,,,,,,,,,
1725717347.237296,1725717347.238194,95.0,0.0,4297.05127,4179.487305,4297.179688,4293.589844,4247.692383,4249.487305,4173.461426,4240.769043,4228.461426,4223.974121,4490.128418,4511.794922,4353.077148,4416.538574,0.0,0.0,10.0,,,,0.0,4.0,4.0,4.0,4.0,4.0,4.0,4.0,4.0,4.0,4.0,4.0,4.0,4.0,4.0,100.0,,,,,,,,,,,,,,,,,,,,,,,,,,,,,,,,,,,,,,,,,,,,,,,,,,,,,,,,,,,,,,,,,,,,,,,,,,,,,,,,,,,,,,,,,,,,,,,,,,,,,,,,,,,,,,,,,,,,,,,,,,,,,,,,,,,
1725717347.241201,1725717347.242098,96.0,0.0,4296.282227,4180.256348,4294.615234,4293.205078,4247.692383,4249.358887,4171.153809,4236.538574,4225.128418,4227.563965,4480.769043,4506.538574,4354.102539,4414.102539,0.0,0.0,10.0,,,,0.0,4.0,4.0,4.0,4.0,4.0,4.0,4.0,4.0,4.0,4.0,4.0,4.0,4.0,4.0,100.0,,,,,,,,,,,,,,,,,,,,,,,,,,,,,,,,,,,,,,,,,,,,,,,,,,,,,,,,,,,,,,,,,,,,,,,,,,,,,,,,,,,,,,,,,,,,,,,,,,,,,,,,,,,,,,,,,,,,,,,,,,,,,,,,,,,
1725717347.245105,1725717347.246002,97.0,0.0,4295.0,4182.05127,4292.692383,4292.820313,4248.333496,4249.102539,4169.615234,4233.589844,4225.128418,4230.0,4471.666504,4503.589844,4354.487305,4411.538574,0.0,0.0,10.0,,,,0.0,4.0,4.0,4.0,4.0,4.0,4.0,4.0,4.0,4.0,4.0,4.0,4.0,4.0,4.0,100.0,,,,,,,,,,,,,,,,,,,,,,,,,,,,,,,,,,,,,,,,,,,,,,,,,,,,,,,,,,,,,,,,,,,,,,,,,,,,,,,,,,,,,,,,,,,,,,,,,,,,,,,,,,,,,,,,,,,,,,,,,,,,,,,,,,,
1725717347.249009,1725717347.249806,98.0,0.0,4294.487305,4184.615234,4292.94873,4293.205078,4249.102539,4249.102539,4170.256348,4233.077148,4228.205078,4231.282227,4469.743652,4504.230957,4354.230957,4410.897461,0.0,0.0,10.0,,,,0.0,4.0,4.0,4.0,4.0,4.0,4.0,4.0,4.0,4.0,4.0,4.0,4.0,4.0,4.0,100.0,,,,,,,,,,,,,,,,,,,,,,,,,,,,,,,,,,,,,,,,,,,,,,,,,,,,,,,,,,,,,,,,,,,,,,,,,,,,,,,,,,,,,,,,,,,,,,,,,,,,,,,,,,,,,,,,,,,,,,,,,,,,,,,,,,,
1725717347.252913,1725717347.25371,99.0,0.0,4295.384766,4186.794922,4295.641113,4294.743652,4249.102539,4248.974121,4173.589844,4234.743652,4231.922852,4231.922852,4477.692383,4506.922852,4353.717773,4413.077148,0.0,0.0,10.0,,,,0.0,4.0,4.0,4.0,4.0,4.0,4.0,4.0,4.0,4.0,4.0,4.0,4.0,4.0,4.0,100.0,,,,,,,,,,,,,,,,,,,,,,,,,,,,,,,,,,,,,,,,,,,,,,,,,,,,,,,,,,,,,,,,,,,,,,,,,,,,,,,,,,,,,,,,,,,,,,,,,,,,,,,,,,,,,,,,,,,,,,,,,,,,,,,,,,,
1725717347.256817,1725717347.257614,100.0,0.0,4297.820313,4187.563965,4300.0,4296.794922,4248.589844,4248.974121,4178.589844,4236.922852,4232.94873,4231.410156,4489.487305,4509.871582,4353.205078,4416.538574,0.0,0.0,10.0,,,,0.0,4.0,4.0,4.0,4.0,4.0,4.0,4.0,4.0,4.0,4.0,4.0,4.0,4.0,4.0,100.0,,,,,,,,,,,,,,,,,,,,,,,,,,,,,,,,,,,,,,,,,,,,,,,,,,,,,,,,0.0,0.0,1.0,0.0,128.0,0.043238,,,,,,,,,,,,,,,,,,,,,,,,,,,,,,,,,,,,,,,,,,,,,,,,,,,,,,,,,,,,,,,,,,,,,,
1725717347.260721,1725717347.261419,101.0,0.0,4300.384766,4186.666504,4303.974121,4298.333496,4248.077148,4249.102539,4183.205078,4237.94873,4229.871582,4228.717773,4494.615234,4511.922852,4352.692383,4418.717773,0.0,0.0,10.0,,,,0.0,4.0,4.0,4.0,4.0,4.0,4.0,4.0,4.0,4.0,4.0,4.0,4.0,4.0,4.0,100.0,,,,,,,,,,,,,,,,,,,,,,,,,,,,,,,,,,,,,,,,,,,,,,,,,,,,,,,,,,,,,,,,,,,,,,,,,,,,,,,,,,,,,,,,,,,,,,,,,,,,,,,,,,,,,,,,,,,,,,,,,,,,,,,,,,,
1725717347.264625,1725717347.265323,102.0,0.0,4302.05127,4185.256348,4306.025879,4299.102539,4247.94873,4250.0,4185.641113,4237.179688,4224.487305,4224.230957,4487.692383,4513.205078,4351.666504,4418.461426,0.0,0.0,10.0,,,,0.0,4.0,4.0,4.0,4.0,4.0,4.0,4.0,4.0,4.0,4.0,4.0,4.0,4.0,4.0,100.0,,,,,,,,,,,,,,,,,,,,,,,,,,,,,,,,,,,,,,,,,,,,,,,,,,,,,,,,,,,,,,,,,,,,,,,,,,,,,,,,,,,,,,,,,,,,,,,,,,,,,,,,,,,,,,,,,,,,,,,,,,,,,,,,,,,
