Timestamp,OriginalTimestamp,EEG.Counter,EEG.Interpolated,EEG.AF3,EEG.F7,EEG.F3,EEG.FC5,EEG.T7,EEG.P7,EEG.O1,EEG.O2,EEG.P8,EEG.T8,EEG.FC6,EEG.F4,EEG.F8,EEG.AF4,EEG.RawCq,EEG.Battery,EEG.BatteryPercent,MarkerIndex,MarkerType,MarkerValueInt,EEG.MarkerHardware,CQ.AF3,CQ.F7,CQ.F3,CQ.FC5,CQ.T7,CQ.P7,CQ.O1,CQ.O2,CQ.P8,CQ.T8,CQ.FC6,CQ.F4,CQ.F8,CQ.AF4,CQ.Overall,EQ.SampleRateQuality,EQ.OVERALL,EQ.AF3,EQ.F7,EQ.F3,EQ.FC5,EQ.T7,EQ.P7,EQ.O1,EQ.O2,EQ.P8,EQ.T8,EQ.FC6,EQ.F4,EQ.F8,EQ.AF4,MC.Action,MC.ActionPower,MC.IsActive,PM.Attention.IsActive,PM.Attention.Scaled,PM.Attention.Raw,PM.Attention.Min,PM.Attention.Max,PM.Engagement.IsActive,PM.Engagement.Scaled,PM.Engagement.Raw,PM.Engagement.Min,PM.Engagement.Max,PM.Excitement.IsActive,PM.Excitement.Scaled,PM.Excitement.Raw,PM.Excitement.Min,PM.Excitement.Max,PM.LongTermExcitement,PM.Stress.IsActive,PM.Stress.Scaled,PM.Stress.Raw,PM.Stress.Min,PM.Stress.Max,PM.Relaxation.IsActive,PM.Relaxation.Scaled,PM.Relaxation.Raw,PM.Relaxation.Min,PM.Relaxation.Max,PM.Interest.IsActive,PM.Interest.Scaled,PM.Interest.Raw,PM.Interest.Min,PM.Interest.Max,PM.Focus.IsActive,PM.Focus.Scaled,PM.Focus.Raw,PM.Focus.Min,PM.Focus.Max,FE.BlinkWink,FE.HorizontalEyesDirection,FE.UpperFaceAction,FE.UpperFaceActionPower,FE.LowerFaceAction,FE.LowerFaceActionPower,POW.AF3.Theta,POW.AF3.Alpha,POW.AF3.BetaL,POW.AF3.BetaH,POW.AF3.Gamma,POW.F7.Theta,POW.F7.Alpha,POW.F7.BetaL,POW.F7.BetaH,POW.F7.Gamma,POW.F3.Theta,POW.F3.Alpha,POW.F3.BetaL,POW.F3.BetaH,POW.F3.Gamma,POW.FC5.Theta,POW.FC5.Alpha,POW.FC5.BetaL,POW.FC5.BetaH,POW.FC5.Gamma,POW.T7.Theta,POW.T7.Alpha,POW.T7.BetaL,POW.T7.BetaH,POW.T7.Gamma,POW.P7.Theta,POW.P7.Alpha,POW.P7.BetaL,POW.P7.BetaH,POW.P7.Gamma,POW.O1.Theta,POW.O1.Alpha,POW.O1.BetaL,POW.O1.BetaH,POW.O1.Gamma,POW.O2.Theta,POW.O2.Alpha,POW.O2.BetaL,POW.O2.BetaH,POW.O2.Gamma,POW.P8.Theta,POW.P8.Alpha,POW.P8.BetaL,POW.P8.BetaH,POW.P8.Gamma,POW.T8.Theta,POW.T8.Alpha,POW.T8.BetaL,POW.T8.BetaH,POW.T8.Gamma,POW.FC6.Theta,POW.FC6.Alpha,POW.FC6.BetaL,POW.FC6.BetaH,POW.FC6.Gamma,POW.F4.Theta,POW.F4.Alpha,POW.F4.BetaL,POW.F4.BetaH,POW.F4.Gamma,POW.F8.Theta,POW.F8.Alpha,POW.F8.BetaL,POW.F8.BetaH,POW.F8.Gamma,POW.AF4.Theta,POW.AF4.Alpha,POW.AF4.BetaL,POW.AF4.BetaH,POW.AF4.Gamma
1725710356.458307,1725710356.459514,51.0,0.0,4263.589844,4264.487305,4263.589844,4309.743652,4202.05127,4213.077148,4087.692383,4234.743652,4233.717773,4205.0,4543.589844,4507.820313,4379.871582,4447.179688,0.0,1.0,15.0,1.0,1.0,1.0,0.0,4.0,4.0,4.0,4.0,4.0,4.0,4.0,4.0,4.0,4.0,4.0,4.0,4.0,4.0,100.0,,,,,,,,,,,,,,,,,,,,,,,,,,,,,,,,,,,,,,,,,,,,,,,,,,,,,,,,,,,,,,,,,,,,,,,,,,,,,,,,,,,,,,,,,,,,,,,,,,,,,,,,,,,,,,,,,,,,,,,,,,,,,,,,,,,
1725710356.462211,1725710356.463418,52.0,0.0,4266.025879,4263.333496,4263.974121,4309.615234,4202.820313,4213.974121,4092.564209,4235.641113,4233.205078,4205.897461,4550.769043,4511.666504,4385.256348,4448.717773,0.0,1.0,15.0,,,,0.0,4.0,4.0,4.0,4.0,4.0,4.0,4.0,4.0,4.0,4.0,4.0,4.0,4.0,4.0,100.0,,,,,,,,,,,,,,,,,,,,,,,,,,,,,,,,,,,,,,,,,,,,,,,,,,,,,,,,,,,,,,,,,,,,,,,,,,,,,,,,,,,,,,,,,,,,,,,,,,,,,,,,,,,,,,,,,,,,,,,,,,,,,,,,,,,
1725710356.466115,1725710356.467222,53.0,0.0,4266.410156,4261.922852,4263.974121,4309.487305,4203.077148,4215.512695,4094.358887,4232.94873,4227.05127,4204.230957,4551.025879,4511.794922,4385.128418,4448.077148,0.0,1.0,15.0,,,,0.0,4.0,4.0,4.0,4.0,4.0,4.0,4.0,4.0,4.0,4.0,4.0,4.0,4.0,4.0,100.0,,,,,,,,,,,,,,,,,,,,,,,,,,,,,,,,,,,,,,,,,,,,,,,,,,,,,,,,,,,,,,,,,,,,,,,,,,,,,,,,,,,,,,,,,,,,,,,,,,,,,,,,,,,,,,,,,,,,,,,,,,,,,,,,,,,
1725710356.470019,1725710356.471126,54.0,0.0,4265.384766,4262.179688,4264.230957,4311.153809,4203.333496,4216.922852,4093.333252,4229.743652,4219.230957,4201.794922,4545.384766,4509.358887,4380.384766,4446.153809,0.0,1.0,15.0,,,,0.0,4.0,4.0,4.0,4.0,4.0,4.0,4.0,4.0,4.0,4.0,4.0,4.0,4.0,4.0,100.0,,,,,,,,,,,,,,,,,,,,,,,,,,,,,,,,,,,,,,,,,,,,,,,,,,,,,,,,,,,,,,,,,,,,,,,,,,,,,,,,,,,,,,,,,,,,,,,,,,,,,,,,,,,,,,,,,,,,,,,,,,,,,,,,,,,
1725710356.473923,1725710356.47503,55.0,0.0,4264.358887,4264.358887,4264.230957,4314.230957,4203.589844,4217.820313,4091.281982,4228.589844,4214.871582,4199.743652,4538.333496,4507.05127,4374.743652,4445.256348,0.0,1.0,15.0,,,,0.0,4.0,4.0,4.0,4.0,4.0,4.0,4.0,4.0,4.0,4.0,4.0,4.0,4.0,4.0,100.0,,,,,,,,,,,,,,,,,,,,,,,,,,,,,,,,,,,,,,,,,,,,,,,,,,,,,,,,,,,,,,,,,,,,,,,,,,,,,,,,,,,,,,,,,,,,,,,,,,,,,,,,,,,,,,,,,,,,,,,,,,,,,,,,,,,
1725710356.477827,1725710356.479034,56.0,0.0,4264.102539,4266.666504,4263.461426,4315.512695,4204.102539,4217.94873,4091.025635,4230.256348,4216.538574,4198.974121,4534.487305,4506.538574,4371.538574,4447.179688,0.0,1.0,15.0,,,,0.0,4.0,4.0,4.0,4.0,4.0,4.0,4.0,4.0,4.0,4.0,4.0,4.0,4.0,4.0,100.0,,,,,,,,,,,,,,,,,,,,,,,,,,,,,,,,,,,,,,,,,,,,,,,,,,,,,,,,0.0,0.0,1.0,0.0,2048.0,0.0,,,,,,,,,,,,,,,,,,,,,,,,,,,,,,,,,,,,,,,,,,,,,,,,,,,,,,,,,,,,,,,,,,,,,,
1725710356.481732,1725710356.482938,57.0,0.0,4264.487305,4266.282227,4262.692383,4312.692383,4204.358887,4217.692383,4094.230713,4233.333496,4222.563965,4199.358887,4536.025879,4508.333496,4371.410156,4451.410156,0.0,1.0,15.0,,,,0.0,4.0,4.0,4.0,4.0,4.0,4.0,4.0,4.0,4.0,4.0,4.0,4.0,4.0,4.0,100.0,,,,,,,,,,,,,,,,,,,,,,,,,,,,,,,,,,,,,,,,,,,,,,,,,,,,,,,,,,,,,,,,,,,,,,,,,,,,,,,,,,,,,,,,,,,,,,,,,,,,,,,,,,,,,,,,,,,,,,,,,,,,,,,,,,,
1725710356.485636,1725710356.486842,58.0,0.0,4265.128418,4262.820313,4262.820313,4306.410156,4204.358887,4217.307617,4100.256348,4235.641113,4229.358887,4200.641113,4541.153809,4511.410156,4372.94873,4455.512695,0.0,1.0,15.0,,,,0.0,4.0,4.0,4.0,4.0,4.0,4.0,4.0,4.0,4.0,4.0,4.0,4.0,4.0,4.0,100.0,,,,,,,,,,,,,,,,,,,,,,,,,,,,,,,,,,,,,,,,,,,,,,,,,,,,,,,,,,,,,,,,,,,,,,,,,,,,,,,,,,,,,,,,,,,,,,,,,,,,,,,,,,,,,,,,,,,,,,,,,,,,,,,,,,,
1725710356.48954,1725710356.490747,59.0,0.0,4265.256348,4258.333496,4263.974121,4299.871582,4204.102539,4217.307617,4106.538574,4236.410156,4233.717773,4202.179688,4545.128418,4514.230957,4374.615234,4457.179688,0.0,1.0,15.0,,,,0.0,4.0,4.0,4.0,4.0,4.0,4.0,4.0,4.0,4.0,4.0,4.0,4.0,4.0,4.0,100.0,,,,,,,,,,,,,,,,,,,,,,,,,,,,,,,,,,,,,,,,,,,,,,,,,,,,,,,,,,,,,,,,,,,,,,,,,,,,,,,,,,,,,,,,,,,,,,,,,,,,,,,,,,,,,,,,,,,,,,,,,,,,,,,,,,,
1725710356.493444,1725710356.494751,60.0,0.0,4264.615234,4256.025879,4265.256348,4297.307617,4203.846191,4217.563965,4109.871582,4235.769043,4234.487305,4203.205078,4544.615234,4515.384766,4376.153809,4455.641113,0.0,1.0,15.0,,,,0.0,4.0,4.0,4.0,4.0,4.0,4.0,4.0,4.0,4.0,4.0,4.0,4.0,4.0,4.0,100.0,,,,,,,,,,,,,,,,,,,,,,,,,,,,,,,,,,,,,,,,,,,,,,,,,,,,,,,,,,,,,,,,,,,,,,,,,,,,,,,,,,,,,,,,,,,,,,,,,,,,,,,,,,,,,,,,,,,,,,,,,,,,,,,,,,,
1725710356.497348,1725710356.498655,61.0,0.0,4263.205078,4257.436035,4265.769043,4300.256348,4203.717773,4217.94873,4108.461426,4234.487305,4232.436035,4203.461426,4540.0,4514.358887,4378.205078,4451.794922,0.0,1.0,15.0,,,,0.0,4.0,4.0,4.0,4.0,4.0,4.0,4.0,4.0,4.0,4.0,4.0,4.0,4.0,4.0,100.0,,,,,,,,,,,,,,,,,,,,,,,,,,,,,,,,,,,,,,,,,,,,,,,,,,,,,,,,,,,,,,,,,,,,,,,,,,,,,,,,,,,,,,,,,,,,,,,,,,,,,,,,,,,,,,,,,,,,,,,,,,,,,,,,,,,
1725710356.501252,1725710356.502559,62.0,0.0,4261.666504,4261.025879,4265.256348,4306.538574,4203.461426,4218.077148,4103.077148,4233.205078,4229.743652,4202.692383,4533.974121,4511.538574,4380.512695,4447.436035,0.0,1.0,15.0,,,,0.0,4.0,4.0,4.0,4.0,4.0,4.0,4.0,4.0,4.0,4.0,4.0,4.0,4.0,4.0,100.0,,,,,,,,,,,,,,,,,,,,,,,,,,,,,,,,,,,,,,,,,,,,,,,,,,,,,,,,,,,,,,,,,,,,,,,,,,,,,,,,,,,,,,,,,,,,,,,,,,,,,,,,,,,,,,,,,,,,,,,,,,,,,,,,,,,
1725710356.505156,1725710356.506463,63.0,0.0,4261.153809,4263.974121,4264.102539,4311.794922,4203.077148,4217.563965,4096.410156,4232.05127,4228.333496,4201.282227,4529.358887,4507.94873,4381.538574,4444.487305,0.0,1.0,15.0,,,,0.0,4.0,4.0,4.0,4.0,4.0,4.0,4.0,4.0,4.0,4.0,4.0,4.0,4.0,4.0,100.0,,,,,,,,,,,,,,,,,,,,,,,,,,,,,,,,,,,,,,,,,,,,,,,,,,,,,,,,,,,,,,,,,,,,,,,,,,,,,,,,,,,,,,,,,,,,,,,,,,,,,,,,,,,,,,,,,,,,,,,,,,,,,,,,,,,
1725710356.50906,1725710356.510367,64.0,0.0,4261.922852,4263.846191,4262.563965,4313.077148,4202.436035,4216.410156,4091.794922,4231.410156,4228.461426,4199.871582,4527.05127,4504.871582,4379.743652,4443.589844,0.0,1.0,15.0,,,,0.0,4.0,4.0,4.0,4.0,4.0,4.0,4.0,4.0,4.0,4.0,4.0,4.0,4.0,4.0,100.0,,,,,,,,,,,,,,,,,,,,,,,,,,,,,,,,,,,,,,,,,,,,,,,,,,,,,,,,0.0,0.0,1.0,0.0,2048.0,0.0,,,,,,,,,,,,,,,,,,,,,,,,,,,,,,,,,,,,,,,,,,,,,,,,,,,,,,,,,,,,,,,,,,,,,,
1725710356.512964,1725710356.514271,65.0,0.0,4262.692383,4259.871582,4261.410156,4310.769043,4201.794922,4215.384766,4092.05127,4231.025879,4229.102539,4199.615234,4526.282227,4503.077148,4375.0,4444.230957,0.0,1.0,15.0,,,,0.0,4.0,4.0,4.0,4.0,4.0,4.0,4.0,4.0,4.0,4.0,4.0,4.0,4.0,4.0,100.0,,,,,,,,,,,,,,,,,,,,,,,,,,,,,,,,,,,,,,,,,,,,,,,,,,,,,,,,,,,,,,,,,,,,,,,,,,,,,,,,,,,,,,,,,,,,,,,,,,,,,,,,,,,,,,,,,,,,,,,,,,,,,,,,,,,
1725710356.516868,1725710356.518175,66.0,0.0,4262.436035,4253.846191,4260.769043,4307.692383,4201.153809,4215.128418,4097.436035,4230.641113,4227.820313,4200.641113,4526.794922,4503.077148,4369.358887,4445.128418,0.0,1.0,15.0,,,,0.0,4.0,4.0,4.0,4.0,4.0,4.0,4.0,4.0,4.0,4.0,4.0,4.0,4.0,4.0,100.0,,,,,,,,,,,,,,,,,,,,,,,,,,,,,,,,,,,,,,,,,,,,,,,,,,,,,,,,,,,,,,,,,,,,,,,,,,,,,,,,,,,,,,,,,,,,,,,,,,,,,,,,,,,,,,,,,,,,,,,,,,,,,,,,,,,
1725710356.520773,1725710356.522079,67.0,0.0,4260.128418,4248.333496,4260.769043,4306.153809,4200.897461,4215.384766,4106.025879,4230.0,4223.846191,4201.666504,4529.102539,4504.358887,4365.256348,4445.256348,0.0,1.0,15.0,,,,0.0,4.0,4.0,4.0,4.0,4.0,4.0,4.0,4.0,4.0,4.0,4.0,4.0,4.0,4.0,100.0,,,,,,,,,,,,,,,,,,,,,,,,,,,,,,,,,,,,,,,,,,,,,,,,,,,,,,,,,,,,,,,,,,,,,,,,,,,,,,,,,,,,,,,,,,,,,,,,,,,,,,,,,,,,,,,,,,,,,,,,,,,,,,,,,,,
1725710356.524677,1725710356.525883,68.0,0.0,4256.410156,4245.769043,4261.153809,4305.641113,4200.641113,4215.641113,4114.358887,4229.102539,4218.974121,4201.794922,4532.692383,4505.769043,4364.102539,4444.743652,0.0,1.0,15.0,,,,0.0,4.0,4.0,4.0,4.0,4.0,4.0,4.0,4.0,4.0,4.0,4.0,4.0,4.0,4.0,100.0,,,,,,,,,,,,,,,,,,,,,,,,,,,,,,,,,,,,,,,,,,,,,,,,,,,,,,,,,,,,,,,,,,,,,,,,,,,,,,,,,,,,,,,,,,,,,,,,,,,,,,,,,,,,,,,,,,,,,,,,,,,,,,,,,,,
1725710356.528581,1725710356.529788,69.0,0.0,4252.563965,4246.153809,4261.410156,4304.358887,4200.641113,4215.641113,4119.743652,4228.846191,4216.282227,4200.641113,4536.282227,4505.897461,4365.0,4443.974121,0.0,1.0,15.0,,,,0.0,4.0,4.0,4.0,4.0,4.0,4.0,4.0,4.0,4.0,4.0,4.0,4.0,4.0,4.0,100.0,,,,,,,,,,,,,,,,,,,,,,,,,,,,,,,,,,,,,,,,,,,,,,,,,,,,,,,,,,,,,,,,,,,,,,,,,,,,,,,,,,,,,,,,,,,,,,,,,,,,,,,,,,,,,,,,,,,,,,,,,,,,,,,,,,,
1725710356.532485,1725710356.533692,70.0,0.0,4249.871582,4247.820313,4261.410156,4301.025879,4200.897461,4215.256348,4121.922852,4229.487305,4217.563965,4199.102539,4538.205078,4504.230957,4366.025879,4442.94873,0.0,1.0,15.0,,,,0.0,4.0,4.0,4.0,4.0,4.0,4.0,4.0,4.0,4.0,4.0,4.0,4.0,4.0,4.0,100.0,,,,,,,,,,,,,,,,,,,,,,,,,,,,,,,,,,,,,,,,,,,,,,,,,,,,,,,,,,,,,,,,,,,,,,,,,,,,,,,,,,,,,,,,,,,,,,,,,,,,,,,,,,,,,,,,,,,,,,,,,,,,,,,,,,,
1725710356.536389,1725710356.537696,71.0,0.0,4248.846191,4249.102539,4261.153809,4297.05127,4201.666504,4215.128418,4121.666504,4230.769043,4221.410156,4198.077148,4537.563965,4501.410156,4365.897461,4441.922852,0.0,1.0,15.0,,,,0.0,4.0,4.0,4.0,4.0,4.0,4.0,4.0,4.0,4.0,4.0,4.0,4.0,4.0,4.0,100.0,,,,,,,,,,,,,,,,,,,,,,,,,,,,,,,,,,,,,,,,,,,,,,,,,,,,,,,,,,,,,,,,,,,,,,,,,,,,,,,,,,,,,,,,,,,,,,,,,,,,,,,,,,,,,,,,,,,,,,,,,,,,,,,,,,,
1725710356.540293,1725710356.5416,72.0,0.0,4249.102539,4249.102539,4260.769043,4295.512695,4202.820313,4215.128418,4120.641113,4232.05127,4225.641113,4197.94873,4534.102539,4498.717773,4364.871582,4440.897461,0.0,1.0,15.0,,,,0.0,4.0,4.0,4.0,4.0,4.0,4.0,4.0,4.0,4.0,4.0,4.0,4.0,4.0,4.0,100.0,,,,,,,,,,,,,,,,,,,,,,,,,,,,,,,,,,,,,,,,,,,,,,,,,,,,,,,,0.0,0.0,1.0,0.0,2048.0,0.0,,,,,,,,,,,,,,,,,,,,,,,,,,,,,,,,,,,,,,,,,,,,,,,,,,,,,,,,,,,,,,,,,,,,,,
1725710356.544197,1725710356.545504,73.0,0.0,4249.871582,4248.974121,4260.512695,4298.461426,4203.846191,4215.384766,4120.384766,4233.077148,4228.717773,4198.717773,4528.717773,4497.94873,4364.358887,4440.512695,0.0,1.0,15.0,,,,0.0,4.0,4.0,4.0,4.0,4.0,4.0,4.0,4.0,4.0,4.0,4.0,4.0,4.0,4.0,100.0,,,,,,,,,,,,,,,,,,,,,,,,,,,,,,,,,,,,,,,,,,,,,,,,,,,,,,,,,,,,,,,,,,,,,,,,,,,,,,,,,,,,,,,,,,,,,,,,,,,,,,,,,,,,,,,,,,,,,,,,,,,,,,,,,,,
1725710356.548101,1725710356.549408,74.0,0.0,4250.897461,4250.512695,4260.641113,4305.0,4204.487305,4215.512695,4121.538574,4233.846191,4230.512695,4199.743652,4523.333496,4499.743652,4365.769043,4441.410156,0.0,1.0,15.0,,,,0.0,4.0,4.0,4.0,4.0,4.0,4.0,4.0,4.0,4.0,4.0,4.0,4.0,4.0,4.0,100.0,,,,,,,,,,,,,,,,,,,,,,,,,,,,,,,,,,,,,,,,,,,,,,,,,,,,,,,,,,,,,,,,,,,,,,,,,,,,,,,,,,,,,,,,,,,,,,,,,,,,,,,,,,,,,,,,,,,,,,,,,,,,,,,,,,,
1725710356.552005,1725710356.553412,75.0,0.0,4252.436035,4254.358887,4261.538574,4311.538574,4204.230957,4215.769043,4124.102539,4234.358887,4231.410156,4200.641113,4520.769043,4503.589844,4369.102539,4443.077148,0.0,1.0,15.0,,,,0.0,4.0,4.0,4.0,4.0,4.0,4.0,4.0,4.0,4.0,4.0,4.0,4.0,4.0,4.0,100.0,,,,,,,,,,,,,,,,,,,,,,,,,,,,,,,,,,,,,,,,,,,,,,,,,,,,,,,,,,,,,,,,,,,,,,,,,,,,,,,,,,,,,,,,,,,,,,,,,,,,,,,,,,,,,,,,,,,,,,,,,,,,,,,,,,,
1725710356.555909,1725710356.557316,76.0,0.0,4255.128418,4259.615234,4262.820313,4314.615234,4203.333496,4216.025879,4127.179688,4234.487305,4231.410156,4201.282227,4523.077148,4507.692383,4372.94873,4444.615234,0.0,1.0,15.0,,,,0.0,4.0,4.0,4.0,4.0,4.0,4.0,4.0,4.0,4.0,4.0,4.0,4.0,4.0,4.0,100.0,,,,,,,,,,,,,,,,,,,,,,,,,,,,,,,,,,,,,,,,,,,,,,,,,,,,,,,,,,,,,,,,,,,,,,,,,,,,,,,,,,,,,,,,,,,,,,,,,,,,,,,,,,,,,,,,,,,,,,,,,,,,,,,,,,,
1725710356.559813,1725710356.56122,77.0,0.0,4258.717773,4263.717773,4263.846191,4313.717773,4202.563965,4216.538574,4130.512695,4234.102539,4230.256348,4201.794922,4529.102539,4510.0,4375.256348,4445.256348,0.0,1.0,15.0,,,,0.0,4.0,4.0,4.0,4.0,4.0,4.0,4.0,4.0,4.0,4.0,4.0,4.0,4.0,4.0,100.0,,,,,,,,,,,,,,,,,,,,,,,,,,,,,,,,,,,,,,,,,,,,,,,,,,,,,,,,,,,,,,,,,,,,,,,,,,,,,,,,,,,,,,,,,,,,,,,,,,,,,,,,,,,,,,,,,,,,,,,,,,,,,,,,,,,
1725710356.563717,1725710356.565124,78.0,0.0,4261.794922,4264.358887,4263.974121,4310.897461,4202.307617,4217.05127,4133.589844,4232.94873,4227.820313,4202.436035,4535.641113,4509.871582,4375.384766,4445.128418,0.0,1.0,15.0,,,,0.0,4.0,4.0,4.0,4.0,4.0,4.0,4.0,4.0,4.0,4.0,4.0,4.0,4.0,4.0,100.0,,,,,,,,,,,,,,,,,,,,,,,,,,,,,,,,,,,,,,,,,,,,,,,,,,,,,,,,,,,,,,,,,,,,,,,,,,,,,,,,,,,,,,,,,,,,,,,,,,,,,,,,,,,,,,,,,,,,,,,,,,,,,,,,,,,
1725710356.567622,1725710356.569028,79.0,0.0,4263.333496,4260.769043,4263.205078,4308.846191,4202.692383,4217.307617,4136.538574,4231.025879,4223.974121,4203.077148,4539.487305,4508.077148,4373.974121,4444.871582,0.0,1.0,15.0,,,,0.0,4.0,4.0,4.0,4.0,4.0,4.0,4.0,4.0,4.0,4.0,4.0,4.0,4.0,4.0,100.0,,,,,,,,,,,,,,,,,,,,,,,,,,,,,,,,,,,,,,,,,,,,,,,,,,,,,,,,,,,,,,,,,,,,,,,,,,,,,,,,,,,,,,,,,,,,,,,,,,,,,,,,,,,,,,,,,,,,,,,,,,,,,,,,,,,
1725710356.571526,1725710356.572833,80.0,0.0,4262.94873,4254.615234,4262.307617,4308.589844,4203.461426,4216.922852,4138.461426,4228.846191,4220.0,4203.205078,4539.615234,4506.410156,4373.077148,4444.615234,0.0,1.0,15.0,,,,0.0,4.0,4.0,4.0,4.0,4.0,4.0,4.0,4.0,4.0,4.0,4.0,4.0,4.0,4.0,100.0,,,,,,,,,,,,,,,,,1.0,0.0,0.0,,,,,,,,,,,,,,,,,,,,,,,,,,,,,,,,,,,,,0.0,0.0,1.0,0.0,1.0,0.0,1.275395,1.246915,0.617604,0.222482,0.067336,0.618189,0.720533,0.475813,0.175281,0.142232,1.235114,0.575982,0.235385,0.132033,0.066625,1.258294,0.775752,0.467501,0.161951,0.166201,0.279797,0.56089,0.191277,0.117074,0.084775,0.092298,0.106008,0.081301,0.063749,0.033698,5.145364,2.959337,1.326273,0.466699,0.177132,0.536913,2.009374,0.417514,0.24255,0.153203,0.692895,1.372347,0.708941,0.204087,0.199554,1.185593,1.120634,0.359016,0.253327,0.140323,1.855052,1.31603,0.677026,0.467383,0.309494,3.018747,2.208819,0.564522,0.244187,0.194761,1.469686,1.092314,1.144832,0.425959,0.204803,2.19977,2.003195,0.843994,0.258921,0.145906
1725710356.57543,1725710356.576737,81.0,0.0,4261.666504,4249.102539,4262.436035,4309.615234,4203.846191,4216.410156,4139.102539,4228.077148,4217.692383,4202.94873,4537.563965,4506.025879,4374.358887,4444.743652,0.0,1.0,15.0,,,,0.0,4.0,4.0,4.0,4.0,4.0,4.0,4.0,4.0,4.0,4.0,4.0,4.0,4.0,4.0,100.0,,,,,,,,,,,,,,,,,,,,,,,,,,,,,,,,,,,,,,,,,,,,,,,,,,,,,,,,,,,,,,,,,,,,,,,,,,,,,,,,,,,,,,,,,,,,,,,,,,,,,,,,,,,,,,,,,,,,,,,,,,,,,,,,,,,
1725710356.579334,1725710356.580641,82.0,0.0,4261.025879,4247.307617,4263.974121,4310.384766,4203.589844,4216.153809,4139.358887,4229.358887,4217.94873,4202.436035,4535.256348,4507.307617,4377.94873,4445.128418,0.0,1.0,15.0,,,,0.0,4.0,4.0,4.0,4.0,4.0,4.0,4.0,4.0,4.0,4.0,4.0,4.0,4.0,4.0,100.0,,,,,,,,,,,,,,,,,,,,,,,,,,,,,,,,,,,,,,,,,,,,,,,,,,,,,,,,,,,,,,,,,,,,,,,,,,,,,,,,,,,,,,,,,,,,,,,,,,,,,,,,,,,,,,,,,,,,,,,,,,,,,,,,,,,
1725710356.583238,1725710356.584645,83.0,0.0,4261.922852,4250.384766,4266.153809,4310.128418,4203.205078,4216.538574,4139.871582,4231.922852,4219.743652,4201.922852,4534.743652,4509.358887,4382.05127,4446.025879,0.0,1.0,15.0,,,,0.0,4.0,4.0,4.0,4.0,4.0,4.0,4.0,4.0,4.0,4.0,4.0,4.0,4.0,4.0,100.0,,,,,,,,,,,,,,,,,,,,,,,,,,,,,,,,,,,,,,,,,,,,,,,,,,,,,,,,,,,,,,,,,,,,,,,,,,,,,,,,,,,,,,,,,,,,,,,,,,,,,,,,,,,,,,,,,,,,,,,,,,,,,,,,,,,
1725710356.587142,1725710356.588549,84.0,0.0,4263.717773,4256.666504,4267.436035,4309.615234,4203.077148,4217.179688,4141.538574,4233.333496,4221.410156,4201.410156,4536.666504,4510.769043,4384.487305,4447.179688,0.0,1.0,15.0,,,,0.0,4.0,4.0,4.0,4.0,4.0,4.0,4.0,4.0,4.0,4.0,4.0,4.0,4.0,4.0,100.0,,,,,,,,,,,,,,,,,,,,,,,,,,,,,,,,,,,,,,,,,,,,,,,,,,,,,,,,,,,,,,,,,,,,,,,,,,,,,,,,,,,,,,,,,,,,,,,,,,,,,,,,,,,,,,,,,,,,,,,,,,,,,,,,,,,
1725710356.591046,1725710356.592453,85.0,0.0,4264.743652,4262.692383,4266.794922,4309.615234,4203.333496,4217.563965,4143.333496,4231.538574,4221.153809,4200.769043,4539.615234,4511.025879,4384.358887,4448.205078,0.0,1.0,15.0,,,,0.0,4.0,4.0,4.0,4.0,4.0,4.0,4.0,4.0,4.0,4.0,4.0,4.0,4.0,4.0,100.0,,,,,,,,,,,,,,,,,,,,,,,,,,,,,,,,,,,,,,,,,,,,,,,,,,,,,,,,,,,,,,,,,,,,,,,,,,,,,,,,,,,,,,,,,,,,,,,,,,,,,,,,,,,,,,,,,,,,,,,,,,,,,,,,,,,
1725710356.59495,1725710356.596357,86.0,0.0,4264.358887,4265.128418,4264.871582,4309.743652,4203.717773,4217.436035,4144.230957,4226.794922,4218.461426,4200.0,4540.769043,4510.128418,4381.922852,4447.94873,0.0,1.0,15.0,,,,0.0,4.0,4.0,4.0,4.0,4.0,4.0,4.0,4.0,4.0,4.0,4.0,4.0,4.0,4.0,100.0,,,,,,,,,,,,,,,,,,,,,,,,,,,,,,,,,,,,,,,,,,,,,,,,,,,,,,,,,,,,,,,,,,,,,,,,,,,,,,,,,,,,,,,,,,,,,,,,,,,,,,,,,,,,,,,,,,,,,,,,,,,,,,,,,,,
1725710356.598854,1725710356.600261,87.0,0.0,4263.077148,4263.589844,4263.205078,4308.974121,4203.717773,4216.794922,4143.461426,4221.282227,4215.512695,4199.487305,4537.820313,4508.461426,4379.230957,4446.153809,0.0,1.0,15.0,,,,0.0,4.0,4.0,4.0,4.0,4.0,4.0,4.0,4.0,4.0,4.0,4.0,4.0,4.0,4.0,100.0,,,,,,,,,,,,,,,,,,,,,,,,,,,,,,,,,,,,,,,,,,,,,,,,,,,,,,,,,,,,,,,,,,,,,,,,,,,,,,,,,,,,,,,,,,,,,,,,,,,,,,,,,,,,,,,,,,,,,,,,,,,,,,,,,,,
1725710356.602759,1725710356.604165,88.0,0.0,4261.922852,4260.256348,4262.820313,4306.794922,4203.077148,4215.897461,4141.410156,4218.077148,4214.358887,4199.358887,4530.897461,4506.025879,4378.461426,4443.717773,0.0,1.0,15.0,,,,0.0,4.0,4.0,4.0,4.0,4.0,4.0,4.0,4.0,4.0,4.0,4.0,4.0,4.0,4.0,100.0,,,,,,,,,,,,,,,,,,,,,,,,,,,,,,,,,,,,,,,,,,,,,,,,,,,,,,,,0.0,0.0,1.0,0.0,1.0,0.0,,,,,,,,,,,,,,,,,,,,,,,,,,,,,,,,,,,,,,,,,,,,,,,,,,,,,,,,,,,,,,,,,,,,,,
1725710356.606663,1725710356.608069,89.0,0.0,4261.538574,4258.077148,4263.333496,4304.358887,4202.179688,4215.512695,4139.487305,4218.717773,4216.153809,4199.615234,4523.717773,4503.461426,4379.871582,4442.692383,0.0,1.0,15.0,,,,0.0,4.0,4.0,4.0,4.0,4.0,4.0,4.0,4.0,4.0,4.0,4.0,4.0,4.0,4.0,100.0,,,,,,,,,,,,,,,,,,,,,,,,,,,,,,,,,,,,,,,,,,,,,,,,,,,,,,,,,,,,,,,,,,,,,,,,,,,,,,,,,,,,,,,,,,,,,,,,,,,,,,,,,,,,,,,,,,,,,,,,,,,,,,,,,,,
1725710356.610567,1725710356.611974,90.0,0.0,4262.05127,4258.717773,4264.102539,4303.461426,4201.666504,4215.641113,4138.846191,4222.563965,4220.128418,4199.871582,4520.512695,4502.179688,4381.922852,4445.0,0.0,1.0,15.0,,,,0.0,4.0,4.0,4.0,4.0,4.0,4.0,4.0,4.0,4.0,4.0,4.0,4.0,4.0,4.0,100.0,,,,,,,,,,,,,,,,,,,,,,,,,,,,,,,,,,,,,,,,,,,,,,,,,,,,,,,,,,,,,,,,,,,,,,,,,,,,,,,,,,,,,,,,,,,,,,,,,,,,,,,,,,,,,,,,,,,,,,,,,,,,,,,,,,,
1725710356.614471,1725710356.615978,91.0,0.0,4263.205078,4261.410156,4264.358887,4304.743652,4201.794922,4216.025879,4139.743652,4227.692383,4224.487305,4200.0,4523.461426,4503.974121,4382.563965,4450.384766,0.0,1.0,15.0,,,,0.0,4.0,4.0,4.0,4.0,4.0,4.0,4.0,4.0,4.0,4.0,4.0,4.0,4.0,4.0,100.0,,,,,,,,,,,,,,,,,,,,,,,,,,,,,,,,,,,,,,,,,,,,,,,,,,,,,,,,,,,,,,,,,,,,,,,,,,,,,,,,,,,,,,,,,,,,,,,,,,,,,,,,,,,,,,,,,,,,,,,,,,,,,,,,,,,
1725710356.618375,1725710356.619882,92.0,0.0,4264.102539,4263.333496,4264.487305,4307.436035,4202.307617,4216.282227,4141.025879,4232.179688,4228.205078,4200.512695,4531.153809,4509.102539,4380.641113,4455.641113,0.0,1.0,15.0,,,,0.0,4.0,4.0,4.0,4.0,4.0,4.0,4.0,4.0,4.0,4.0,4.0,4.0,4.0,4.0,100.0,,,,,,,,,,,,,,,,,,,,,,,,,,,,,,,,,,,,,,,,,,,,,,,,,,,,,,,,,,,,,,,,,,,,,,,,,,,,,,,,,,,,,,,,,,,,,,,,,,,,,,,,,,,,,,,,,,,,,,,,,,,,,,,,,,,
1725710356.622279,1725710356.623786,93.0,0.0,4264.743652,4262.820313,4265.384766,4309.743652,4202.563965,4216.666504,4141.282227,4234.615234,4231.410156,4201.538574,4540.384766,4515.897461,4376.922852,4457.563965,0.0,1.0,15.0,,,,0.0,4.0,4.0,4.0,4.0,4.0,4.0,4.0,4.0,4.0,4.0,4.0,4.0,4.0,4.0,100.0,,,,,,,,,,,,,,,,,,,,,,,,,,,,,,,,,,,,,,,,,,,,,,,,,,,,,,,,,,,,,,,,,,,,,,,,,,,,,,,,,,,,,,,,,,,,,,,,,,,,,,,,,,,,,,,,,,,,,,,,,,,,,,,,,,,
1725710356.626183,1725710356.62779,94.0,0.0,4265.128418,4260.384766,4268.205078,4310.897461,4202.436035,4216.922852,4140.384766,4235.128418,4234.358887,4203.461426,4547.307617,4521.282227,4373.077148,4455.512695,0.0,1.0,15.0,,,,0.0,4.0,4.0,4.0,4.0,4.0,4.0,4.0,4.0,4.0,4.0,4.0,4.0,4.0,4.0,100.0,,,,,,,,,,,,,,,,,,,,,,,,,,,,,,,,,,,,,,,,,,,,,,,,,,,,,,,,,,,,,,,,,,,,,,,,,,,,,,,,,,,,,,,,,,,,,,,,,,,,,,,,,,,,,,,,,,,,,,,,,,,,,,,,,,,
1725710356.630087,1725710356.631694,95.0,0.0,4265.384766,4258.589844,4272.94873,4310.512695,4202.179688,4217.307617,4138.717773,4234.230957,4236.410156,4205.256348,4548.461426,4522.820313,4371.282227,4451.922852,0.0,1.0,15.0,,,,0.0,4.0,4.0,4.0,4.0,4.0,4.0,4.0,4.0,4.0,4.0,4.0,4.0,4.0,4.0,100.0,,,,,,,,,,,,,,,,,,,,,,,,,,,,,,,,,,,,,,,,,,,,,,,,,,,,,,,,,,,,,,,,,,,,,,,,,,,,,,,,,,,,,,,,,,,,,,,,,,,,,,,,,,,,,,,,,,,,,,,,,,,,,,,,,,,
1725710356.633991,1725710356.635598,96.0,0.0,4265.641113,4258.974121,4277.692383,4309.487305,4201.922852,4217.692383,4137.563965,4232.692383,4235.641113,4205.512695,4542.692383,4519.358887,4372.05127,4449.871582,0.0,1.0,15.0,,,,0.0,4.0,4.0,4.0,4.0,4.0,4.0,4.0,4.0,4.0,4.0,4.0,4.0,4.0,4.0,100.0,,,,,,,,,,,,,,,,,,,,,,,,,,,,,,,,,,,,,,,,,,,,,,,,,,,,,,,,0.0,0.0,1.0,0.0,1.0,0.0,,,,,,,,,,,,,,,,,,,,,,,,,,,,,,,,,,,,,,,,,,,,,,,,,,,,,,,,,,,,,,,,,,,,,,
1725710356.637895,1725710356.639502,97.0,0.0,4265.897461,4261.282227,4280.0,4308.205078,4202.179688,4217.820313,4137.179688,4230.769043,4230.769043,4203.717773,4532.307617,4512.436035,4374.230957,4450.384766,0.0,1.0,15.0,,,,0.0,4.0,4.0,4.0,4.0,4.0,4.0,4.0,4.0,4.0,4.0,4.0,4.0,4.0,4.0,100.0,,,,,,,,,,,,,,,,,,,,,,,,,,,,,,,,,,,,,,,,,,,,,,,,,,,,,,,,,,,,,,,,,,,,,,,,,,,,,,,,,,,,,,,,,,,,,,,,,,,,,,,,,,,,,,,,,,,,,,,,,,,,,,,,,,,
1725710356.6418,1725710356.643506,98.0,0.0,4265.897461,4263.717773,4278.717773,4306.922852,4202.820313,4217.436035,4136.794922,4228.717773,4223.205078,4200.384766,4522.436035,4506.153809,4375.641113,4452.563965,0.0,1.0,15.0,,,,0.0,4.0,4.0,4.0,4.0,4.0,4.0,4.0,4.0,4.0,4.0,4.0,4.0,4.0,4.0,100.0,,,,,,,,,,,,,,,,,,,,,,,,,,,,,,,,,,,,,,,,,,,,,,,,,,,,,,,,,,,,,,,,,,,,,,,,,,,,,,,,,,,,,,,,,,,,,,,,,,,,,,,,,,,,,,,,,,,,,,,,,,,,,,,,,,,
1725710356.645704,1725710356.64741,99.0,0.0,4265.384766,4265.0,4275.384766,4306.282227,4203.589844,4216.922852,4135.769043,4227.94873,4216.666504,4197.307617,4518.846191,4504.487305,4375.384766,4454.615234,0.0,1.0,15.0,,,,0.0,4.0,4.0,4.0,4.0,4.0,4.0,4.0,4.0,4.0,4.0,4.0,4.0,4.0,4.0,100.0,,,,,,,,,,,,,,,,,,,,,,,,,,,,,,,,,,,,,,,,,,,,,,,,,,,,,,,,,,,,,,,,,,,,,,,,,,,,,,,,,,,,,,,,,,,,,,,,,,,,,,,,,,,,,,,,,,,,,,,,,,,,,,,,,,,
1725710356.649608,1725710356.651314,100.0,0.0,4264.487305,4265.0,4273.333496,4306.922852,4204.102539,4216.794922,4133.333496,4229.871582,4214.871582,4196.282227,4523.717773,4508.205078,4374.487305,4455.641113,0.0,1.0,15.0,,,,0.0,4.0,4.0,4.0,4.0,4.0,4.0,4.0,4.0,4.0,4.0,4.0,4.0,4.0,4.0,100.0,,,,,,,,,,,,,,,,,,,,,,,,,,,,,,,,,,,,,,,,,,,,,,,,,,,,,,,,,,,,,,,,,,,,,,,,,,,,,,,,,,,,,,,,,,,,,,,,,,,,,,,,,,,,,,,,,,,,,,,,,,,,,,,,,,,
1725710356.653512,1725710356.655218,101.0,0.0,4263.974121,4264.102539,4273.974121,4309.102539,4204.102539,4217.307617,4129.871582,4234.230957,4218.846191,4197.692383,4534.230957,4514.615234,4374.487305,4455.384766,0.0,1.0,15.0,,,,0.0,4.0,4.0,4.0,4.0,4.0,4.0,4.0,4.0,4.0,4.0,4.0,4.0,4.0,4.0,100.0,,,,,,,,,,,,,,,,,,,,,,,,,,,,,,,,,,,,,,,,,,,,,,,,,,,,,,,,,,,,,,,,,,,,,,,,,,,,,,,,,,,,,,,,,,,,,,,,,,,,,,,,,,,,,,,,,,,,,,,,,,,,,,,,,,,
1725710356.657416,1725710356.659222,102.0,0.0,4264.102539,4262.563965,4276.025879,4311.282227,4203.846191,4218.333496,4126.153809,4237.436035,4225.769043,4200.512695,4543.589844,4518.974121,4374.871582,4454.358887,0.0,1.0,15.0,,,,0.0,4.0,4.0,4.0,4.0,4.0,4.0,4.0,4.0,4.0,4.0,4.0,4.0,4.0,4.0,100.0,,,,,,,,,,,,,,,,,,,,,,,,,,,,,,,,,,,,,,,,,,,,,,,,,,,,,,,,,,,,,,,,,,,,,,,,,,,,,,,,,,,,,,,,,,,,,,,,,,,,,,,,,,,,,,,,,,,,,,,,,,,,,,,,,,,
1725710356.66132,1725710356.663127,103.0,0.0,4264.871582,4260.128418,4276.922852,4312.05127,4203.589844,4218.974121,4122.307617,4235.512695,4230.128418,4202.820313,4544.871582,4517.94873,4374.102539,4452.692383,0.0,1.0,15.0,,,,0.0,4.0,4.0,4.0,4.0,4.0,4.0,4.0,4.0,4.0,4.0,4.0,4.0,4.0,4.0,100.0,,,,,,,,,,,,,,,,,,,,,,,,,,,,,,,,,,,,,,,,,,,,,,,,,,,,,,,,,,,,,,,,,,,,,,,,,,,,,,,,,,,,,,,,,,,,,,,,,,,,,,,,,,,,,,,,,,,,,,,,,,,,,,,,,,,
1725710356.665224,1725710356.667031,104.0,0.0,4265.0,4257.179688,4275.256348,4310.384766,4203.846191,4218.974121,4118.461426,4228.461426,4228.333496,4203.333496,4536.410156,4511.794922,4371.410156,4450.384766,0.0,1.0,15.0,,,,0.0,4.0,4.0,4.0,4.0,4.0,4.0,4.0,4.0,4.0,4.0,4.0,4.0,4.0,4.0,100.0,,,,,,,,,,,,,,,,,,,,,,,,,,,,,,,,,,,,,,,,,,,,,,,,,,,,,,,,0.0,0.0,1.0,0.0,1.0,0.0,,,,,,,,,,,,,,,,,,,,,,,,,,,,,,,,,,,,,,,,,,,,,,,,,,,,,,,,,,,,,,,,,,,,,,
1725710356.669128,1725710356.670935,105.0,0.0,4263.974121,4253.846191,4271.666504,4306.025879,4204.230957,4218.589844,4115.0,4220.641113,4221.282227,4201.538574,4523.846191,4504.230957,4368.589844,4447.820313,0.0,1.0,15.0,,,,0.0,4.0,4.0,4.0,4.0,4.0,4.0,4.0,4.0,4.0,4.0,4.0,4.0,4.0,4.0,100.0,,,,,,,,,,,,,,,,,,,,,,,,,,,,,,,,,,,,,,,,,,,,,,,,,,,,,,,,,,,,,,,,,,,,,,,,,,,,,,,,,,,,,,,,,,,,,,,,,,,,,,,,,,,,,,,,,,,,,,,,,,,,,,,,,,,
1725710356.673032,1725710356.674839,106.0,0.0,4261.794922,4250.897461,4268.461426,4300.256348,4204.358887,4218.333496,4112.563965,4217.436035,4214.358887,4198.717773,4516.153809,4500.0,4367.94873,4445.256348,0.0,1.0,15.0,,,,0.0,4.0,4.0,4.0,4.0,4.0,4.0,4.0,4.0,4.0,4.0,4.0,4.0,4.0,4.0,100.0,,,,,,,,,,,,,,,,,,,,,,,,,,,,,,,,,,,,,,,,,,,,,,,,,,,,,,,,,,,,,,,,,,,,,,,,,,,,,,,,,,,,,,,,,,,,,,,,,,,,,,,,,,,,,,,,,,,,,,,,,,,,,,,,,,,
1725710356.676937,1725710356.678643,107.0,0.0,4259.487305,4248.589844,4267.05127,4295.384766,4203.846191,4218.846191,4111.153809,4220.641113,4213.461426,4197.307617,4519.102539,4501.153809,4370.0,4443.589844,0.0,1.0,15.0,,,,0.0,4.0,4.0,4.0,4.0,4.0,4.0,4.0,4.0,4.0,4.0,4.0,4.0,4.0,4.0,100.0,,,,,,,,,,,,,,,,,,,,,,,,,,,,,,,,,,,,,,,,,,,,,,,,,,,,,,,,,,,,,,,,,,,,,,,,,,,,,,,,,,,,,,,,,,,,,,,,,,,,,,,,,,,,,,,,,,,,,,,,,,,,,,,,,,,
1725710356.680841,1725710356.682547,108.0,0.0,4258.461426,4248.333496,4267.179688,4293.333496,4203.333496,4219.871582,4110.128418,4226.922852,4220.0,4198.974121,4530.512695,4505.512695,4372.179688,4443.589844,0.0,1.0,15.0,,,,0.0,4.0,4.0,4.0,4.0,4.0,4.0,4.0,4.0,4.0,4.0,4.0,4.0,4.0,4.0,100.0,,,,,,,,,,,,,,,,,,,,,,,,,,,,,,,,,,,,,,,,,,,,,,,,,,,,,,,,,,,,,,,,,,,,,,,,,,,,,,,,,,,,,,,,,,,,,,,,,,,,,,,,,,,,,,,,,,,,,,,,,,,,,,,,,,,
1725710356.684745,1725710356.686451,109.0,0.0,4258.846191,4250.256348,4267.563965,4294.615234,4203.333496,4220.769043,4108.589844,4231.025879,4229.743652,4203.205078,4541.794922,4508.717773,4371.538574,4444.615234,0.0,1.0,15.0,,,,0.0,4.0,4.0,4.0,4.0,4.0,4.0,4.0,4.0,4.0,4.0,4.0,4.0,4.0,4.0,100.0,,,,,,,,,,,,,,,,,,,,,,,,,,,,,,,,,,,,,,,,,,,,,,,,,,,,,,,,,,,,,,,,,,,,,,,,,,,,,,,,,,,,,,,,,,,,,,,,,,,,,,,,,,,,,,,,,,,,,,,,,,,,,,,,,,,
1725710356.688649,1725710356.690355,110.0,0.0,4259.743652,4253.717773,4267.436035,4298.333496,4203.974121,4220.769043,4106.025879,4229.487305,4235.897461,4206.282227,4544.615234,4507.820313,4367.307617,4445.128418,0.0,1.0,15.0,,,,0.0,4.0,4.0,4.0,4.0,4.0,4.0,4.0,4.0,4.0,4.0,4.0,4.0,4.0,4.0,100.0,,,,,,,,,,,,,,,,,,,,,,,,,,,,,,,,,,,,,,,,,,,,,,,,,,,,,,,,,,,,,,,,,,,,,,,,,,,,,,,,,,,,,,,,,,,,,,,,,,,,,,,,,,,,,,,,,,,,,,,,,,,,,,,,,,,
1725710356.692553,1725710356.694259,111.0,0.0,4259.871582,4256.922852,4266.410156,4301.922852,4204.871582,4219.487305,4102.820313,4223.589844,4234.487305,4204.615234,4537.307617,4502.436035,4361.794922,4443.974121,0.0,1.0,15.0,,,,0.0,4.0,4.0,4.0,4.0,4.0,4.0,4.0,4.0,4.0,4.0,4.0,4.0,4.0,4.0,100.0,,,,,,,,,,,,,,,,,,,,,,,,,,,,,,,,,,,,,,,,,,,,,,,,,,,,,,,,,,,,,,,,,,,,,,,,,,,,,,,,,,,,,,,,,,,,,,,,,,,,,,,,,,,,,,,,,,,,,,,,,,,,,,,,,,,
1725710356.696457,1725710356.698164,112.0,0.0,4258.974121,4259.102539,4265.256348,4303.589844,4205.256348,4217.820313,4099.358887,4217.179688,4227.179688,4198.205078,4525.384766,4495.256348,4358.333496,4441.666504,0.0,1.0,15.0,,,,0.0,4.0,4.0,4.0,4.0,4.0,4.0,4.0,4.0,4.0,4.0,4.0,4.0,4.0,4.0,100.0,,,,,,,,,,,,,,,,,1.0,0.0,0.0,,,,,,,,,,,,,,,,,,,,,,,,,,,,,,,,,,,,,0.0,0.0,1.0,0.0,1.0,0.0,1.299535,1.209943,0.694178,0.254795,0.079795,0.804021,0.95221,0.632564,0.193998,0.143005,1.252478,0.496609,0.262962,0.134266,0.059033,1.482324,0.839624,0.576304,0.151145,0.167,0.30501,0.470062,0.200867,0.117643,0.064892,0.100532,0.06861,0.10223,0.070849,0.041357,5.29133,2.711709,1.254158,0.403602,0.170701,0.569317,2.216378,0.427807,0.236802,0.157605,0.669218,1.635883,0.825082,0.231095,0.195341,1.212805,1.365871,0.426981,0.304776,0.13429,2.006473,1.615037,0.833381,0.520016,0.34777,3.190777,2.420184,0.658151,0.280065,0.180585,1.531772,1.383037,1.426811,0.494873,0.189872,2.327466,2.203275,1.001679,0.302224,0.14972
1725710356.700361,1725710356.702068,113.0,0.0,4257.94873,4259.743652,4264.615234,4303.077148,4204.871582,4216.410156,4096.025879,4214.102539,4219.871582,4190.769043,4516.794922,4490.384766,4359.615234,4440.0,0.0,1.0,15.0,,,,0.0,4.0,4.0,4.0,4.0,4.0,4.0,4.0,4.0,4.0,4.0,4.0,4.0,4.0,4.0,100.0,,,,,,,,,,,,,,,,,,,,,,,,,,,,,,,,,,,,,,,,,,,,,,,,,,,,,,,,,,,,,,,,,,,,,,,,,,,,,,,,,,,,,,,,,,,,,,,,,,,,,,,,,,,,,,,,,,,,,,,,,,,,,,,,,,,
1725710356.704265,1725710356.705872,114.0,0.0,4257.692383,4259.871582,4265.384766,4302.563965,4203.846191,4216.025879,4093.205078,4215.0,4216.794922,4187.179688,4515.641113,4489.487305,4364.871582,4440.128418,0.0,1.0,15.0,,,,0.0,4.0,4.0,4.0,4.0,4.0,4.0,4.0,4.0,4.0,4.0,4.0,4.0,4.0,4.0,100.0,,,,,,,,,,,,,,,,,,,,,,,,,,,,,,,,,,,,,,,,,,,,,,,,,,,,,,,,,,,,,,,,,,,,,,,,,,,,,,,,,,,,,,,,,,,,,,,,,,,,,,,,,,,,,,,,,,,,,,,,,,,,,,,,,,,
1725710356.708169,1725710356.709776,115.0,0.0,4258.205078,4259.871582,4266.794922,4303.205078,4202.820313,4216.410156,4090.384521,4217.563965,4217.563965,4189.102539,4519.743652,4491.538574,4370.769043,4442.179688,0.0,1.0,15.0,,,,0.0,4.0,4.0,4.0,4.0,4.0,4.0,4.0,4.0,4.0,4.0,4.0,4.0,4.0,4.0,100.0,,,,,,,,,,,,,,,,,,,,,,,,,,,,,,,,,,,,,,,,,,,,,,,,,,,,,,,,,,,,,,,,,,,,,,,,,,,,,,,,,,,,,,,,,,,,,,,,,,,,,,,,,,,,,,,,,,,,,,,,,,,,,,,,,,,
1725710356.712073,1725710356.71368,116.0,0.0,4258.077148,4260.128418,4267.179688,4305.0,4202.05127,4216.666504,4087.179443,4219.102539,4219.230957,4194.230957,4523.846191,4493.205078,4372.692383,4444.102539,0.0,1.0,15.0,,,,0.0,4.0,4.0,4.0,4.0,4.0,4.0,4.0,4.0,4.0,4.0,4.0,4.0,4.0,4.0,100.0,,,,,,,,,,,,,,,,,,,,,,,,,,,,,,,,,,,,,,,,,,,,,,,,,,,,,,,,,,,,,,,,,,,,,,,,,,,,,,,,,,,,,,,,,,,,,,,,,,,,,,,,,,,,,,,,,,,,,,,,,,,,,,,,,,,
1725710356.715978,1725710356.717584,117.0,0.0,4256.666504,4259.615234,4266.025879,4306.025879,4201.794922,4216.410156,4083.205078,4218.974121,4219.102539,4197.692383,4524.487305,4492.436035,4368.717773,4444.487305,0.0,1.0,15.0,,,,0.0,4.0,4.0,4.0,4.0,4.0,4.0,4.0,4.0,4.0,4.0,4.0,4.0,4.0,4.0,100.0,,,,,,,,,,,,,,,,,,,,,,,,,,,,,,,,,,,,,,,,,,,,,,,,,,,,,,,,,,,,,,,,,,,,,,,,,,,,,,,,,,,,,,,,,,,,,,,,,,,,,,,,,,,,,,,,,,,,,,,,,,,,,,,,,,,
1725710356.719882,1725710356.721388,118.0,0.0,4253.717773,4257.307617,4263.846191,4304.743652,4201.666504,4215.384766,4079.358887,4219.615234,4218.077148,4196.282227,4521.666504,4490.0,4361.666504,4443.461426,0.0,1.0,15.0,,,,0.0,4.0,4.0,4.0,4.0,4.0,4.0,4.0,4.0,4.0,4.0,4.0,4.0,4.0,4.0,100.0,,,,,,,,,,,,,,,,,,,,,,,,,,,,,,,,,,,,,,,,,,,,,,,,,,,,,,,,,,,,,,,,,,,,,,,,,,,,,,,,,,,,,,,,,,,,,,,,,,,,,,,,,,,,,,,,,,,,,,,,,,,,,,,,,,,
1725710356.723786,1725710356.725292,119.0,0.0,4250.512695,4253.461426,4262.692383,4301.666504,4201.538574,4214.871582,4076.538574,4223.333496,4217.94873,4190.897461,4518.205078,4488.589844,4356.666504,4441.666504,0.0,1.0,15.0,,,,0.0,4.0,4.0,4.0,4.0,4.0,4.0,4.0,4.0,4.0,4.0,4.0,4.0,4.0,4.0,100.0,,,,,,,,,,,,,,,,,,,,,,,,,,,,,,,,,,,,,,,,,,,,,,,,,,,,,,,,,,,,,,,,,,,,,,,,,,,,,,,,,,,,,,,,,,,,,,,,,,,,,,,,,,,,,,,,,,,,,,,,,,,,,,,,,,,
1725710356.72769,1725710356.729197,120.0,0.0,4248.846191,4249.230957,4263.461426,4298.717773,4201.025879,4215.256348,4075.256348,4229.230957,4219.871582,4185.128418,4516.922852,4489.358887,4357.179688,4438.846191,0.0,1.0,15.0,,,,0.0,4.0,4.0,4.0,4.0,4.0,4.0,4.0,4.0,4.0,4.0,4.0,4.0,4.0,4.0,100.0,,,,,,,,,,,,,,,,,,,,,,,,,,,,,,,,,,,,,,,,,,,,,,,,,,,,,,,,0.0,0.0,1.0,0.0,1.0,0.0,,,,,,,,,,,,,,,,,,,,,,,,,,,,,,,,,,,,,,,,,,,,,,,,,,,,,,,,,,,,,,,,,,,,,,
1725710356.731594,1725710356.733201,121.0,0.0,4250.256348,4247.179688,4265.769043,4298.077148,4200.128418,4216.153809,4075.128174,4233.461426,4222.692383,4182.820313,4518.461426,4491.410156,4361.666504,4435.641113,0.0,1.0,15.0,,,,0.0,4.0,4.0,4.0,4.0,4.0,4.0,4.0,4.0,4.0,4.0,4.0,4.0,4.0,4.0,100.0,,,,,,,,,,,,,,,,,,,,,,,,,,,,,,,,,,,,,,,,,,,,,,,,,,,,,,,,,,,,,,,,,,,,,,,,,,,,,,,,,,,,,,,,,,,,,,,,,,,,,,,,,,,,,,,,,,,,,,,,,,,,,,,,,,,
1725710356.735498,1725710356.737105,122.0,0.0,4254.230957,4248.974121,4268.846191,4301.153809,4199.871582,4216.794922,4075.641113,4233.205078,4223.974121,4184.487305,4520.897461,4492.563965,4365.641113,4433.333496,0.0,1.0,15.0,,,,0.0,4.0,4.0,4.0,4.0,4.0,4.0,4.0,4.0,4.0,4.0,4.0,4.0,4.0,4.0,100.0,,,,,,,,,,,,,,,,,,,,,,,,,,,,,,,,,,,,,,,,,,,,,,,,,,,,,,,,,,,,,,,,,,,,,,,,,,,,,,,,,,,,,,,,,,,,,,,,,,,,,,,,,,,,,,,,,,,,,,,,,,,,,,,,,,,
1725710356.739402,1725710356.741009,123.0,0.0,4259.230957,4255.128418,4272.563965,4307.307617,4201.153809,4217.179688,4076.153809,4229.871582,4222.307617,4187.820313,4522.307617,4492.307617,4365.897461,4433.077148,0.0,1.0,15.0,,,,0.0,4.0,4.0,4.0,4.0,4.0,4.0,4.0,4.0,4.0,4.0,4.0,4.0,4.0,4.0,100.0,,,,,,,,,,,,,,,,,,,,,,,,,,,,,,,,,,,,,,,,,,,,,,,,,,,,,,,,,,,,,,,,,,,,,,,,,,,,,,,,,,,,,,,,,,,,,,,,,,,,,,,,,,,,,,,,,,,,,,,,,,,,,,,,,,,
1725710356.743306,1725710356.744913,124.0,0.0,4262.820313,4262.94873,4276.153809,4313.717773,4203.717773,4218.077148,4076.410156,4227.179688,4218.461426,4189.230957,4521.538574,4491.794922,4362.563965,4435.0,0.0,1.0,15.0,,,,0.0,4.0,4.0,4.0,4.0,4.0,4.0,4.0,4.0,4.0,4.0,4.0,4.0,4.0,4.0,100.0,,,,,,,,,,,,,,,,,,,,,,,,,,,,,,,,,,,,,,,,,,,,,,,,,,,,,,,,,,,,,,,,,,,,,,,,,,,,,,,,,,,,,,,,,,,,,,,,,,,,,,,,,,,,,,,,,,,,,,,,,,,,,,,,,,,
1725710356.74721,1725710356.748917,125.0,0.0,4264.230957,4268.461426,4278.461426,4316.666504,4206.410156,4220.128418,4076.025635,4227.820313,4215.512695,4187.820313,4519.358887,4492.563965,4358.589844,4437.692383,0.0,1.0,15.0,,,,0.0,4.0,4.0,4.0,4.0,4.0,4.0,4.0,4.0,4.0,4.0,4.0,4.0,4.0,4.0,100.0,,,,,,,,,,,,,,,,,,,,,,,,,,,,,,,,,,,,,,,,,,,,,,,,,,,,,,,,,,,,,,,,,,,,,,,,,,,,,,,,,,,,,,,,,,,,,,,,,,,,,,,,,,,,,,,,,,,,,,,,,,,,,,,,,,,
1725710356.751114,1725710356.752821,126.0,0.0,4263.717773,4269.230957,4278.589844,4314.871582,4207.436035,4222.692383,4075.128174,4230.897461,4216.538574,4185.384766,4517.820313,4494.615234,4356.922852,4439.743652,0.0,1.0,15.0,,,,0.0,4.0,4.0,4.0,4.0,4.0,4.0,4.0,4.0,4.0,4.0,4.0,4.0,4.0,4.0,100.0,,,,,,,,,,,,,,,,,,,,,,,,,,,,,,,,,,,,,,,,,,,,,,,,,,,,,,,,,,,,,,,,,,,,,,,,,,,,,,,,,,,,,,,,,,,,,,,,,,,,,,,,,,,,,,,,,,,,,,,,,,,,,,,,,,,
1725710356.755019,1725710356.756725,127.0,0.0,4262.692383,4266.794922,4276.922852,4310.512695,4205.897461,4224.615234,4073.974365,4233.846191,4221.153809,4184.871582,4519.358887,4497.307617,4360.0,4441.794922,0.0,1.0,15.0,,,,0.0,4.0,4.0,4.0,4.0,4.0,4.0,4.0,4.0,4.0,4.0,4.0,4.0,4.0,4.0,100.0,,,,,,,,,,,,,,,,,,,,,,,,,,,,,,,,,,,,,,,,,,,,,,,,,,,,,,,,,,,,,,,,,,,,,,,,,,,,,,,,,,,,,,,,,,,,,,,,,,,,,,,,,,,,,,,,,,,,,,,,,,,,,,,,,,,
1725710356.758923,1725710356.760629,128.0,0.0,4262.179688,4263.974121,4274.743652,4307.94873,4203.077148,4225.384766,4073.461426,4234.743652,4226.922852,4188.717773,4525.897461,4500.512695,4368.846191,4445.512695,2703.0,1.0,15.0,,,,0.0,4.0,4.0,4.0,4.0,4.0,4.0,4.0,4.0,4.0,4.0,4.0,4.0,4.0,4.0,100.0,,,,,,,,,,,,,,,,,,,,,,,,,,,,,,,,,,,,,,,,,,,,,,,,,,,,,,,,0.0,0.0,1.0,0.0,1.0,0.0,,,,,,,,,,,,,,,,,,,,,,,,,,,,,,,,,,,,,,,,,,,,,,,,,,,,,,,,,,,,,,,,,,,,,,
1725710356.762827,1725710356.764633,129.0,0.0,4262.94873,4263.205078,4273.333496,4309.487305,4201.538574,4226.282227,4074.487061,4234.230957,4230.897461,4196.282227,4537.179688,4505.512695,4381.922852,4451.922852,2588.0,1.0,15.0,,,,0.0,4.0,4.0,4.0,4.0,4.0,4.0,4.0,4.0,4.0,4.0,4.0,4.0,4.0,4.0,100.0,,,,,,,,,,,,,,,,,,,,,,,,,,,,,,,,,,,,,,,,,,,,,,,,,,,,,,,,,,,,,,,,,,,,,,,,,,,,,,,,,,,,,,,,,,,,,,,,,,,,,,,,,,,,,,,,,,,,,,,,,,,,,,,,,,,
1725710356.766731,1725710356.768537,130.0,0.0,4264.487305,4264.358887,4273.717773,4314.102539,4203.461426,4228.846191,4076.025635,4233.717773,4232.436035,4205.641113,4550.384766,4513.205078,4395.0,4459.743652,2513.0,1.0,15.0,,,,0.0,4.0,4.0,4.0,4.0,4.0,4.0,4.0,4.0,4.0,4.0,4.0,4.0,4.0,4.0,100.0,,,,,,,,,,,,,,,,,,,,,,,,,,,,,,,,,,,,,,,,,,,,,,,,,,,,,,,,,,,,,,,,,,,,,,,,,,,,,,,,,,,,,,,,,,,,,,,,,,,,,,,,,,,,,,,,,,,,,,,,,,,,,,,,,,,
1725710356.770635,1725710356.772441,131.0,0.0,4266.410156,4265.769043,4275.512695,4318.589844,4208.846191,4232.179688,4076.538574,4234.102539,4232.692383,4214.230957,4560.897461,4521.538574,4402.692383,4466.025879,2478.0,1.0,15.0,,,,0.0,4.0,4.0,4.0,4.0,4.0,4.0,4.0,4.0,4.0,4.0,4.0,4.0,4.0,4.0,100.0,,,,,,,,,,,,,,,,,,,,,,,,,,,,,,,,,,,,,,,,,,,,,,,,,,,,,,,,,,,,,,,,,,,,,,,,,,,,,,,,,,,,,,,,,,,,,,,,,,,,,,,,,,,,,,,,,,,,,,,,,,,,,,,,,,,
1725710356.774539,1725710356.776346,132.0,0.0,4267.692383,4266.410156,4277.94873,4320.256348,4215.256348,4233.974121,4074.487061,4234.871582,4233.589844,4219.615234,4565.0,4526.410156,4402.692383,4468.333496,2448.0,1.0,15.0,,,,0.0,4.0,4.0,4.0,4.0,4.0,4.0,4.0,4.0,4.0,4.0,4.0,4.0,4.0,4.0,100.0,,,,,,,,,,,,,,,,,,,,,,,,,,,,,,,,,,,,,,,,,,,,,,,,,,,,,,,,,,,,,,,,,,,,,,,,,,,,,,,,,,,,,,,,,,,,,,,,,,,,,,,,,,,,,,,,,,,,,,,,,,,,,,,,,,,
1725710356.778443,1725710356.78025,133.0,0.0,4267.692383,4266.410156,4279.615234,4319.615234,4218.846191,4231.922852,4070.256348,4235.256348,4235.384766,4220.128418,4563.077148,4524.871582,4397.307617,4466.153809,2406.0,1.0,15.0,,,,0.0,4.0,4.0,4.0,4.0,4.0,4.0,4.0,4.0,4.0,4.0,4.0,4.0,4.0,4.0,100.0,,,,,,,,,,,,,,,,,,,,,,,,,,,,,,,,,,,,,,,,,,,,,,,,,,,,,,,,,,,,,,,,,,,,,,,,,,,,,,,,,,,,,,,,,,,,,,,,,,,,,,,,,,,,,,,,,,,,,,,,,,,,,,,,,,,
1725710356.782347,1725710356.784154,134.0,0.0,4266.538574,4266.666504,4279.743652,4318.717773,4217.436035,4226.666504,4065.641113,4234.487305,4236.922852,4215.641113,4557.692383,4517.179688,4391.282227,4461.153809,2439.0,1.0,15.0,,,,0.0,4.0,4.0,4.0,4.0,4.0,4.0,4.0,4.0,4.0,4.0,4.0,4.0,4.0,4.0,100.0,,,,,,,,,,,,,,,,,,,,,,,,,,,,,,,,,,,,,,,,,,,,,,,,,,,,,,,,,,,,,,,,,,,,,,,,,,,,,,,,,,,,,,,,,,,,,,,,,,,,,,,,,,,,,,,,,,,,,,,,,,,,,,,,,,,
1725710356.786251,1725710356.788058,135.0,0.0,4265.128418,4267.05127,4278.077148,4319.358887,4211.025879,4221.153809,4062.307617,4232.94873,4236.666504,4208.077148,4552.307617,4507.94873,4387.94873,4456.025879,2488.0,1.0,15.0,,,,0.0,4.0,4.0,4.0,4.0,4.0,4.0,4.0,4.0,4.0,4.0,4.0,4.0,4.0,4.0,100.0,,,,,,,,,,,,,,,,,,,,,,,,,,,,,,,,,,,,,,,,,,,,,,,,,,,,,,,,,,,,,,,,,,,,,,,,,,,,,,,,,,,,,,,,,,,,,,,,,,,,,,,,,,,,,,,,,,,,,,,,,,,,,,,,,,,
1725710356.790155,1725710356.792062,136.0,0.0,4264.230957,4266.922852,4275.897461,4321.282227,4202.94873,4218.846191,4060.384521,4231.666504,4235.0,4201.666504,4550.0,4503.205078,4387.436035,4453.846191,2478.0,1.0,15.0,,,,0.0,4.0,4.0,4.0,4.0,4.0,4.0,4.0,4.0,4.0,4.0,4.0,4.0,4.0,4.0,100.0,,,,,,,,,,,,,,,,,,,,,,,,,,,,,,,,,,,,,,,,,,,,,,,,,,,,,,,,0.0,0.0,1.0,0.0,1.0,0.0,,,,,,,,,,,,,,,,,,,,,,,,,,,,,,,,,,,,,,,,,,,,,,,,,,,,,,,,,,,,,,,,,,,,,,
1725710356.794059,1725710356.795966,137.0,0.0,4264.358887,4265.384766,4274.615234,4323.717773,4197.436035,4221.666504,4059.487061,4231.666504,4233.461426,4199.871582,4551.666504,4506.794922,4388.205078,4456.025879,2560.0,1.0,15.0,,,,0.0,4.0,4.0,4.0,4.0,4.0,4.0,4.0,4.0,4.0,4.0,4.0,4.0,4.0,4.0,100.0,,,,,,,,,,,,,,,,,,,,,,,,,,,,,,,,,,,,,,,,,,,,,,,,,,,,,,,,,,,,,,,,,,,,,,,,,,,,,,,,,,,,,,,,,,,,,,,,,,,,,,,,,,,,,,,,,,,,,,,,,,,,,,,,,,,
1725710356.797964,1725710356.79987,138.0,0.0,4265.641113,4263.461426,4275.512695,4326.025879,4197.94873,4228.077148,4059.871826,4232.94873,4233.333496,4203.589844,4557.307617,4517.05127,4388.717773,4461.666504,2907.0,1.0,15.0,,,,0.0,4.0,4.0,4.0,4.0,4.0,4.0,4.0,4.0,4.0,4.0,4.0,4.0,4.0,4.0,100.0,,,,,,,,,,,,,,,,,,,,,,,,,,,,,,,,,,,,,,,,,,,,,,,,,,,,,,,,,,,,,,,,,,,,,,,,,,,,,,,,,,,,,,,,,,,,,,,,,,,,,,,,,,,,,,,,,,,,,,,,,,,,,,,,,,,
1725710356.801868,1725710356.803774,139.0,0.0,4268.589844,4263.717773,4278.077148,4328.717773,4205.512695,4233.974121,4062.435791,4234.615234,4234.487305,4210.256348,4564.230957,4527.692383,4389.358887,4467.94873,3149.0,1.0,15.0,,,,0.0,4.0,4.0,4.0,4.0,4.0,4.0,4.0,4.0,4.0,4.0,4.0,4.0,4.0,4.0,100.0,,,,,,,,,,,,,,,,,,,,,,,,,,,,,,,,,,,,,,,,,,,,,,,,,,,,,,,,,,,,,,,,,,,,,,,,,,,,,,,,,,,,,,,,,,,,,,,,,,,,,,,,,,,,,,,,,,,,,,,,,,,,,,,,,,,
1725710356.805772,1725710356.807778,140.0,0.0,4272.692383,4267.436035,4280.897461,4333.205078,4216.538574,4235.384766,4066.538574,4235.641113,4235.769043,4216.282227,4569.487305,4532.179688,4390.769043,4472.05127,3418.0,1.0,15.0,,,,0.0,4.0,4.0,4.0,4.0,4.0,4.0,4.0,4.0,4.0,4.0,4.0,4.0,4.0,4.0,100.0,,,,,,,,,,,,,,,,,,,,,,,,,,,,,,,,,,,,,,,,,,,,,,,,,,,,,,,,,,,,,,,,,,,,,,,,,,,,,,,,,,,,,,,,,,,,,,,,,,,,,,,,,,,,,,,,,,,,,,,,,,,,,,,,,,,
1725710356.809676,1725710356.811682,141.0,0.0,4276.538574,4273.333496,4282.563965,4339.358887,4223.974121,4231.153809,4068.974365,4236.025879,4236.410156,4219.102539,4570.256348,4528.205078,4392.692383,4472.820313,3927.0,1.0,15.0,,,,0.0,4.0,4.0,4.0,4.0,4.0,4.0,4.0,4.0,4.0,4.0,4.0,4.0,4.0,4.0,100.0,,,,,,,,,,,,,,,,,,,,,,,,,,,,,,,,,,,,,,,,,,,,,,,,,,,,,,,,,,,,,,,,,,,,,,,,,,,,,,,,,,,,,,,,,,,,,,,,,,,,,,,,,,,,,,,,,,,,,,,,,,,,,,,,,,,
1725710356.81358,1725710356.815586,142.0,0.0,4278.333496,4277.94873,4282.436035,4346.153809,4221.922852,4224.230957,4066.153809,4235.769043,4236.153809,4218.717773,4566.025879,4519.230957,4393.846191,4470.384766,2907.0,1.0,15.0,,,,0.0,4.0,4.0,4.0,4.0,4.0,4.0,4.0,4.0,4.0,4.0,4.0,4.0,4.0,4.0,100.0,,,,,,,,,,,,,,,,,,,,,,,,,,,,,,,,,,,,,,,,,,,,,,,,,,,,,,,,,,,,,,,,,,,,,,,,,,,,,,,,,,,,,,,,,,,,,,,,,,,,,,,,,,,,,,,,,,,,,,,,,,,,,,,,,,,
1725710356.817484,1725710356.81949,143.0,0.0,4276.922852,4278.589844,4281.282227,4350.641113,4209.743652,4218.846191,4057.307617,4234.871582,4235.769043,4217.179688,4558.461426,4511.025879,4392.563965,4465.769043,3149.0,1.0,15.0,,,,0.0,4.0,4.0,4.0,4.0,4.0,4.0,4.0,4.0,4.0,4.0,4.0,4.0,4.0,4.0,100.0,,,,,,,,,,,,,,,,,,,,,,,,,,,,,,,,,,,,,,,,,,,,,,,,,,,,,,,,,,,,,,,,,,,,,,,,,,,,,,,,,,,,,,,,,,,,,,,,,,,,,,,,,,,,,,,,,,,,,,,,,,,,,,,,,,,
1725710356.821388,1725710356.823395,144.0,0.0,4272.94873,4274.358887,4279.743652,4350.897461,4193.846191,4217.179688,4045.769287,4233.589844,4235.512695,4216.282227,4550.897461,4507.307617,4387.94873,4460.128418,3418.0,1.0,15.0,,,,0.0,4.0,4.0,4.0,4.0,4.0,4.0,4.0,4.0,4.0,4.0,4.0,4.0,4.0,4.0,100.0,1.0,75.0,4.0,4.0,4.0,4.0,4.0,4.0,1.0,4.0,4.0,4.0,4.0,4.0,4.0,4.0,1.0,0.0,0.0,1.0,0.4345,-8.466931,-13.542458,-3.114095,1.0,0.516833,-0.350282,-1.170897,0.473835,1.0,0.130557,3.357981,2.188471,11.146341,0.18904,1.0,0.364188,16.134926,-1829.311133,2920.218152,1.0,0.243848,0.11783,0.073961,0.279859,1.0,0.44971,3.179989,-51.182513,67.080293,1.0,0.36326,0.36326,0.0,1.0,0.0,0.0,1.0,0.0,1.0,0.0,1.308262,1.141099,0.75394,0.27947,0.091852,0.992074,1.163673,0.745503,0.21149,0.146143,1.209034,0.426936,0.295956,0.140131,0.05477,1.693944,0.876231,0.673218,0.150356,0.169207,0.316195,0.383486,0.205999,0.115249,0.046699,0.114093,0.049111,0.11676,0.077193,0.053062,5.558978,2.256628,1.128622,0.339279,0.157557,0.565681,2.417423,0.508604,0.260557,0.162283,0.662941,1.816106,0.910537,0.264715,0.190546,1.257667,1.537478,0.515824,0.374201,0.135204,2.026265,1.882796,0.967589,0.58061,0.395151,3.165989,2.522642,0.802629,0.320872,0.166887,1.549247,1.687482,1.621881,0.553922,0.186952,2.272636,2.307587,1.134851,0.338088,0.146916
1725710356.825292,1725710356.827199,145.0,0.0,4268.205078,4267.820313,4278.589844,4347.05127,4184.487305,4218.461426,4037.435791,4232.436035,4234.871582,4216.282227,4546.666504,4507.692383,4381.282227,4455.128418,3927.0,1.0,15.0,,,,0.0,4.0,4.0,4.0,4.0,4.0,4.0,4.0,4.0,4.0,4.0,4.0,4.0,4.0,4.0,100.0,,,,,,,,,,,,,,,,,,,,,,,,,,,,,,,,,,,,,,,,,,,,,,,,,,,,,,,,,,,,,,,,,,,,,,,,,,,,,,,,,,,,,,,,,,,,,,,,,,,,,,,,,,,,,,,,,,,,,,,,,,,,,,,,,,,
1725710356.829196,1725710356.831103,146.0,0.0,4265.0,4262.94873,4277.820313,4342.307617,4188.461426,4220.256348,4036.410156,4231.794922,4233.077148,4215.384766,4546.794922,4508.589844,4376.282227,4452.05127,2907.0,1.0,15.0,,,,0.0,4.0,4.0,4.0,4.0,4.0,4.0,4.0,4.0,4.0,4.0,4.0,4.0,4.0,4.0,100.0,,,,,,,,,,,,,,,,,,,,,,,,,,,,,,,,,,,,,,,,,,,,,,,,,,,,,,,,,,,,,,,,,,,,,,,,,,,,,,,,,,,,,,,,,,,,,,,,,,,,,,,,,,,,,,,,,,,,,,,,,,,,,,,,,,,
1725710356.8331,1725710356.835007,147.0,0.0,4264.358887,4262.436035,4277.820313,4341.153809,4203.589844,4221.025879,4041.666748,4231.794922,4230.897461,4212.05127,4550.897461,4507.94873,4376.153809,4451.666504,3149.0,1.0,15.0,,,,0.0,4.0,4.0,4.0,4.0,4.0,4.0,4.0,4.0,4.0,4.0,4.0,4.0,4.0,4.0,100.0,,,,,,,,,,,,,,,,,,,,,,,,,,,,,,,,,,,,,,,,,,,,,,,,,,,,,,,,,,,,,,,,,,,,,,,,,,,,,,,,,,,,,,,,,,,,,,,,,,,,,,,,,,,,,,,,,,,,,,,,,,,,,,,,,,,
1725710356.837005,1725710356.839011,148.0,0.0,4265.769043,4265.384766,4278.077148,4345.897461,4220.256348,4220.769043,4047.307617,4232.05127,4230.128418,4206.922852,4556.794922,4506.025879,4380.641113,4453.461426,3418.0,1.0,15.0,,,,0.0,4.0,4.0,4.0,4.0,4.0,4.0,4.0,4.0,4.0,4.0,4.0,4.0,4.0,4.0,100.0,,,,,,,,,,,,,,,,,,,,,,,,,,,,,,,,,,,,,,,,,,,,,,,,,,,,,,,,,,,,,,,,,,,,,,,,,,,,,,,,,,,,,,,,,,,,,,,,,,,,,,,,,,,,,,,,,,,,,,,,,,,,,,,,,,,
1725710356.840909,1725710356.842915,149.0,0.0,4267.307617,4268.205078,4278.077148,4354.487305,4227.94873,4220.128418,4046.410156,4231.538574,4231.410156,4202.692383,4562.563965,4504.615234,4385.769043,4455.897461,3927.0,1.0,15.0,,,,0.0,4.0,4.0,4.0,4.0,4.0,4.0,4.0,4.0,4.0,4.0,4.0,4.0,4.0,4.0,100.0,,,,,,,,,,,,,,,,,,,,,,,,,,,,,,,,,,,,,,,,,,,,,,,,,,,,,,,,,,,,,,,,,,,,,,,,,,,,,,,,,,,,,,,,,,,,,,,,,,,,,,,,,,,,,,,,,,,,,,,,,,,,,,,,,,,
1725710356.844813,1725710356.846819,150.0,0.0,4267.563965,4267.94873,4277.307617,4361.538574,4223.333496,4219.615234,4037.307617,4229.102539,4232.563965,4200.897461,4566.153809,4504.615234,4386.666504,4457.563965,2907.0,1.0,15.0,,,,0.0,4.0,4.0,4.0,4.0,4.0,4.0,4.0,4.0,4.0,4.0,4.0,4.0,4.0,4.0,100.0,,,,,,,,,,,,,,,,,,,,,,,,,,,,,,,,,,,,,,,,,,,,,,,,,,,,,,,,,,,,,,,,,,,,,,,,,,,,,,,,,,,,,,,,,,,,,,,,,,,,,,,,,,,,,,,,,,,,,,,,,,,,,,,,,,,
1725710356.848717,1725710356.850723,151.0,0.0,4266.410156,4265.256348,4276.282227,4362.563965,4212.179688,4218.974121,4025.0,4224.358887,4230.512695,4200.512695,4566.666504,4504.743652,4381.410156,4457.05127,3149.0,1.0,15.0,,,,0.0,4.0,4.0,4.0,4.0,4.0,4.0,4.0,4.0,4.0,4.0,4.0,4.0,4.0,4.0,100.0,,,,,,,,,,,,,,,,,,,,,,,,,,,,,,,,,,,,,,,,,,,,,,,,,,,,,,,,,,,,,,,,,,,,,,,,,,,,,,,,,,,,,,,,,,,,,,,,,,,,,,,,,,,,,,,,,,,,,,,,,,,,,,,,,,,
1725710356.852621,1725710356.854727,152.0,0.0,4264.743652,4262.94873,4276.153809,4357.563965,4203.846191,4218.717773,4016.410156,4218.974121,4225.256348,4199.102539,4564.487305,4503.589844,4373.077148,4453.589844,3418.0,1.0,15.0,,,,0.0,4.0,4.0,4.0,4.0,4.0,4.0,4.0,4.0,4.0,4.0,4.0,4.0,4.0,4.0,100.0,,,,,,,,,,,,,,,,,,,,,,,,,,,,,,,,,,,,,,,,,,,,,,,,,,,,,,,,0.0,0.0,1.0,0.0,1.0,0.0,,,,,,,,,,,,,,,,,,,,,,,,,,,,,,,,,,,,,,,,,,,,,,,,,,,,,,,,,,,,,,,,,,,,,,
1725710356.856525,1725710356.858631,153.0,0.0,4264.230957,4263.333496,4277.05127,4350.0,4204.102539,4219.358887,4015.256348,4215.897461,4219.743652,4195.769043,4561.794922,4500.769043,4366.025879,4447.820313,3927.0,1.0,15.0,,,,0.0,4.0,4.0,4.0,4.0,4.0,4.0,4.0,4.0,4.0,4.0,4.0,4.0,4.0,4.0,100.0,,,,,,,,,,,,,,,,,,,,,,,,,,,,,,,,,,,,,,,,,,,,,,,,,,,,,,,,,,,,,,,,,,,,,,,,,,,,,,,,,,,,,,,,,,,,,,,,,,,,,,,,,,,,,,,,,,,,,,,,,,,,,,,,,,,
1725710356.860429,1725710356.862536,154.0,0.0,4264.615234,4264.487305,4278.461426,4343.589844,4210.769043,4220.769043,4017.692383,4216.666504,4217.820313,4191.282227,4560.0,4496.922852,4362.05127,4441.153809,2907.0,1.0,15.0,,,,0.0,4.0,4.0,4.0,4.0,4.0,4.0,4.0,4.0,4.0,4.0,4.0,4.0,4.0,4.0,100.0,,,,,,,,,,,,,,,,,,,,,,,,,,,,,,,,,,,,,,,,,,,,,,,,,,,,,,,,,,,,,,,,,,,,,,,,,,,,,,,,,,,,,,,,,,,,,,,,,,,,,,,,,,,,,,,,,,,,,,,,,,,,,,,,,,,
1725710356.864333,1725710356.86644,155.0,0.0,4264.358887,4262.307617,4278.717773,4340.0,4216.282227,4221.410156,4016.923096,4221.025879,4220.769043,4187.94873,4558.589844,4493.461426,4359.102539,4435.641113,3149.0,1.0,15.0,,,,0.0,4.0,4.0,4.0,4.0,4.0,4.0,4.0,4.0,4.0,4.0,4.0,4.0,4.0,4.0,100.0,,,,,,,,,,,,,,,,,,,,,,,,,,,,,,,,,,,,,,,,,,,,,,,,,,,,,,,,,,,,,,,,,,,,,,,,,,,,,,,,,,,,,,,,,,,,,,,,,,,,,,,,,,,,,,,,,,,,,,,,,,,,,,,,,,,
1725710356.868237,1725710356.870244,156.0,0.0,4261.025879,4254.230957,4275.769043,4337.94873,4214.230957,4220.641113,4008.974365,4226.282227,4225.512695,4186.666504,4555.384766,4490.384766,4354.487305,4432.179688,3418.0,1.0,15.0,,,,0.0,4.0,4.0,4.0,4.0,4.0,4.0,4.0,4.0,4.0,4.0,4.0,4.0,4.0,4.0,100.0,,,,,,,,,,,,,,,,,,,,,,,,,,,,,,,,,,,,,,,,,,,,,,,,,,,,,,,,,,,,,,,,,,,,,,,,,,,,,,,,,,,,,,,,,,,,,,,,,,,,,,,,,,,,,,,,,,,,,,,,,,,,,,,,,,,
1725710356.872141,1725710356.874148,157.0,0.0,4254.743652,4242.563965,4269.871582,4335.512695,4204.487305,4219.487305,3996.281982,4230.128418,4228.077148,4186.153809,4549.358887,4487.179688,4347.820313,4429.743652,3927.0,1.0,15.0,,,,0.0,4.0,4.0,4.0,4.0,4.0,4.0,4.0,4.0,4.0,4.0,4.0,4.0,4.0,4.0,100.0,,,,,,,,,,,,,,,,,,,,,,,,,,,,,,,,,,,,,,,,,,,,,,,,,,,,,,,,,,,,,,,,,,,,,,,,,,,,,,,,,,,,,,,,,,,,,,,,,,,,,,,,,,,,,,,,,,,,,,,,,,,,,,,,,,,
1725710356.876046,1725710356.878052,158.0,0.0,4248.333496,4232.94873,4263.589844,4332.563965,4194.102539,4220.0,3985.256348,4231.538574,4226.538574,4185.384766,4542.179688,4484.102539,4342.563965,4427.563965,2907.0,1.0,15.0,,,,0.0,4.0,4.0,4.0,4.0,4.0,4.0,4.0,4.0,4.0,4.0,4.0,4.0,4.0,4.0,100.0,,,,,,,,,,,,,,,,,,,,,,,,,,,,,,,,,,,,,,,,,,,,,,,,,,,,,,,,,,,,,,,,,,,,,,,,,,,,,,,,,,,,,,,,,,,,,,,,,,,,,,,,,,,,,,,,,,,,,,,,,,,,,,,,,,,
1725710356.87995,1725710356.881956,159.0,0.0,4245.769043,4230.0,4260.384766,4330.641113,4190.128418,4222.692383,3981.153809,4230.512695,4222.94873,4184.871582,4537.692383,4482.436035,4342.820313,4426.025879,3149.0,1.0,15.0,,,,0.0,4.0,4.0,4.0,4.0,4.0,4.0,4.0,4.0,4.0,4.0,4.0,4.0,4.0,4.0,100.0,,,,,,,,,,,,,,,,,,,,,,,,,,,,,,,,,,,,,,,,,,,,,,,,,,,,,,,,,,,,,,,,,,,,,,,,,,,,,,,,,,,,,,,,,,,,,,,,,,,,,,,,,,,,,,,,,,,,,,,,,,,,,,,,,,,
1725710356.883854,1725710356.88586,160.0,0.0,4248.717773,4234.358887,4262.436035,4332.05127,4194.487305,4226.922852,3984.102539,4228.589844,4221.666504,4186.666504,4540.641113,4484.102539,4349.487305,4427.436035,3418.0,1.0,15.0,,,,0.0,4.0,4.0,4.0,4.0,4.0,4.0,4.0,4.0,4.0,4.0,4.0,4.0,4.0,4.0,100.0,,,,,,,,,,,,,,,,,,,,,,,,,,,,,,,,,,,,,,,,,,,,,,,,,,,,,,,,0.0,0.0,1.0,0.0,1.0,0.0,,,,,,,,,,,,,,,,,,,,,,,,,,,,,,,,,,,,,,,,,,,,,,,,,,,,,,,,,,,,,,,,,,,,,,
1725710356.887758,1725710356.889664,161.0,0.0,4255.128418,4242.436035,4268.589844,4337.436035,4203.333496,4230.897461,3990.0,4227.94873,4225.0,4191.666504,4552.179688,4490.512695,4359.102539,4433.077148,3927.0,1.0,15.0,,,,0.0,4.0,4.0,4.0,4.0,4.0,4.0,4.0,4.0,4.0,4.0,4.0,4.0,4.0,4.0,100.0,,,,,,,,,,,,,,,,,,,,,,,,,,,,,,,,,,,,,,,,,,,,,,,,,,,,,,,,,,,,,,,,,,,,,,,,,,,,,,,,,,,,,,,,,,,,,,,,,,,,,,,,,,,,,,,,,,,,,,,,,,,,,,,,,,,
1725710356.891662,1725710356.893569,162.0,0.0,4261.666504,4250.256348,4275.641113,4345.0,4211.538574,4232.94873,3994.871826,4230.256348,4231.794922,4198.205078,4568.589844,4500.0,4366.794922,4442.05127,2907.0,1.0,15.0,,,,0.0,4.0,4.0,4.0,4.0,4.0,4.0,4.0,4.0,4.0,4.0,4.0,4.0,4.0,4.0,100.0,,,,,,,,,,,,,,,,,,,,,,,,,,,,,,,,,,,,,,,,,,,,,,,,,,,,,,,,,,,,,,,,,,,,,,,,,,,,,,,,,,,,,,,,,,,,,,,,,,,,,,,,,,,,,,,,,,,,,,,,,,,,,,,,,,,
1725710356.895566,1725710356.897573,163.0,0.0,4265.512695,4255.256348,4280.128418,4351.922852,4215.897461,4232.307617,3997.435791,4235.128418,4237.563965,4202.563965,4583.461426,4509.358887,4370.256348,4451.153809,3149.0,1.0,15.0,,,,0.0,4.0,4.0,4.0,4.0,4.0,4.0,4.0,4.0,4.0,4.0,4.0,4.0,4.0,4.0,100.0,,,,,,,,,,,,,,,,,,,,,,,,,,,,,,,,,,,,,,,,,,,,,,,,,,,,,,,,,,,,,,,,,,,,,,,,,,,,,,,,,,,,,,,,,,,,,,,,,,,,,,,,,,,,,,,,,,,,,,,,,,,,,,,,,,,
1725710356.89947,1725710356.901477,164.0,0.0,4266.282227,4257.563965,4281.025879,4356.153809,4216.794922,4230.512695,3999.358887,4240.641113,4238.974121,4203.461426,4591.282227,4515.128418,4371.538574,4457.692383,3418.0,1.0,15.0,,,,0.0,4.0,4.0,4.0,4.0,4.0,4.0,4.0,4.0,4.0,4.0,4.0,4.0,4.0,4.0,100.0,,,,,,,,,,,,,,,,,,,,,,,,,,,,,,,,,,,,,,,,,,,,,,,,,,,,,,,,,,,,,,,,,,,,,,,,,,,,,,,,,,,,,,,,,,,,,,,,,,,,,,,,,,,,,,,,,,,,,,,,,,,,,,,,,,,
1725710356.903374,1725710356.905381,165.0,0.0,4265.384766,4259.358887,4279.487305,4358.205078,4216.282227,4229.743652,4002.692383,4244.487305,4236.282227,4202.94873,4591.025879,4516.025879,4374.615234,4460.512695,3927.0,1.0,15.0,,,,0.0,4.0,4.0,4.0,4.0,4.0,4.0,4.0,4.0,4.0,4.0,4.0,4.0,4.0,4.0,100.0,,,,,,,,,,,,,,,,,,,,,,,,,,,,,,,,,,,,,,,,,,,,,,,,,,,,,,,,,,,,,,,,,,,,,,,,,,,,,,,,,,,,,,,,,,,,,,,,,,,,,,,,,,,,,,,,,,,,,,,,,,,,,,,,,,,
1725710356.907278,1725710356.909285,166.0,0.0,4265.0,4262.307617,4277.820313,4359.743652,4216.153809,4230.641113,4007.307617,4244.871582,4233.077148,4204.102539,4586.153809,4513.077148,4382.307617,4460.512695,2907.0,1.0,15.0,,,,0.0,4.0,4.0,4.0,4.0,4.0,4.0,4.0,4.0,4.0,4.0,4.0,4.0,4.0,4.0,100.0,,,,,,,,,,,,,,,,,,,,,,,,,,,,,,,,,,,,,,,,,,,,,,,,,,,,,,,,,,,,,,,,,,,,,,,,,,,,,,,,,,,,,,,,,,,,,,,,,,,,,,,,,,,,,,,,,,,,,,,,,,,,,,,,,,,
1725710356.911183,1725710356.913189,167.0,0.0,4266.538574,4266.025879,4277.692383,4361.922852,4216.922852,4231.794922,4010.897461,4241.666504,4232.436035,4207.692383,4581.410156,4508.974121,4392.563965,4459.358887,3149.0,1.0,15.0,,,,0.0,4.0,4.0,4.0,4.0,4.0,4.0,4.0,4.0,4.0,4.0,4.0,4.0,4.0,4.0,100.0,,,,,,,,,,,,,,,,,,,,,,,,,,,,,,,,,,,,,,,,,,,,,,,,,,,,,,,,,,,,,,,,,,,,,,,,,,,,,,,,,,,,,,,,,,,,,,,,,,,,,,,,,,,,,,,,,,,,,,,,,,,,,,,,,,,
1725710356.915087,1725710356.916993,168.0,0.0,4269.487305,4268.461426,4278.589844,4363.846191,4217.820313,4231.025879,4010.384521,4236.410156,4233.589844,4211.794922,4580.0,4506.282227,4400.256348,4458.333496,3418.0,1.0,15.0,,,,0.0,4.0,4.0,4.0,4.0,4.0,4.0,4.0,4.0,4.0,4.0,4.0,4.0,4.0,4.0,100.0,,,,,,,,,,,,,,,,,,,,,,,,,,,,,,,,,,,,,,,,,,,,,,,,,,,,,,,,0.0,0.0,1.0,0.0,1.0,0.0,,,,,,,,,,,,,,,,,,,,,,,,,,,,,,,,,,,,,,,,,,,,,,,,,,,,,,,,,,,,,,,,,,,,,,
1725710356.918991,1725710356.920897,169.0,0.0,4272.179688,4268.077148,4279.358887,4364.102539,4218.333496,4227.692383,4005.0,4231.282227,4233.846191,4213.205078,4581.794922,4506.538574,4401.410156,4457.820313,3927.0,1.0,15.0,,,,0.0,4.0,4.0,4.0,4.0,4.0,4.0,4.0,4.0,4.0,4.0,4.0,4.0,4.0,4.0,100.0,,,,,,,,,,,,,,,,,,,,,,,,,,,,,,,,,,,,,,,,,,,,,,,,,,,,,,,,,,,,,,,,,,,,,,,,,,,,,,,,,,,,,,,,,,,,,,,,,,,,,,,,,,,,,,,,,,,,,,,,,,,,,,,,,,,
1725710356.922895,1725710356.924801,170.0,0.0,4273.846191,4265.384766,4279.230957,4362.94873,4218.205078,4223.333496,3997.692383,4228.717773,4232.179688,4210.641113,4584.871582,4509.102539,4396.025879,4457.94873,2907.0,1.0,15.0,,,,0.0,4.0,4.0,4.0,4.0,4.0,4.0,4.0,4.0,4.0,4.0,4.0,4.0,4.0,4.0,100.0,,,,,,,,,,,,,,,,,,,,,,,,,,,,,,,,,,,,,,,,,,,,,,,,,,,,,,,,,,,,,,,,,,,,,,,,,,,,,,,,,,,,,,,,,,,,,,,,,,,,,,,,,,,,,,,,,,,,,,,,,,,,,,,,,,,
1725710356.926799,1725710356.928706,171.0,0.0,4275.128418,4262.820313,4279.230957,4362.94873,4217.820313,4220.512695,3992.692383,4230.641113,4231.025879,4207.05127,4589.487305,4513.205078,4388.974121,4458.717773,3149.0,1.0,15.0,,,,0.0,4.0,4.0,4.0,4.0,4.0,4.0,4.0,4.0,4.0,4.0,4.0,4.0,4.0,4.0,100.0,,,,,,,,,,,,,,,,,,,,,,,,,,,,,,,,,,,,,,,,,,,,,,,,,,,,,,,,,,,,,,,,,,,,,,,,,,,,,,,,,,,,,,,,,,,,,,,,,,,,,,,,,,,,,,,,,,,,,,,,,,,,,,,,,,,
1725710356.930703,1725710356.93251,172.0,0.0,4277.05127,4262.307617,4279.871582,4366.538574,4217.436035,4220.897461,3991.794922,4237.179688,4233.461426,4206.922852,4596.666504,4518.589844,4386.153809,4460.384766,3418.0,1.0,15.0,,,,0.0,4.0,4.0,4.0,4.0,4.0,4.0,4.0,4.0,4.0,4.0,4.0,4.0,4.0,4.0,100.0,,,,,,,,,,,,,,,,,,,,,,,,,,,,,,,,,,,,,,,,,,,,,,,,,,,,,,,,,,,,,,,,,,,,,,,,,,,,,,,,,,,,,,,,,,,,,,,,,,,,,,,,,,,,,,,,,,,,,,,,,,,,,,,,,,,
1725710356.934607,1725710356.936414,173.0,0.0,4279.487305,4264.743652,4281.025879,4372.307617,4217.692383,4224.871582,3993.076904,4245.384766,4239.230957,4212.563965,4605.641113,4524.615234,4388.846191,4462.820313,3927.0,1.0,15.0,,,,0.0,4.0,4.0,4.0,4.0,4.0,4.0,4.0,4.0,4.0,4.0,4.0,4.0,4.0,4.0,100.0,,,,,,,,,,,,,,,,,,,,,,,,,,,,,,,,,,,,,,,,,,,,,,,,,,,,,,,,,,,,,,,,,,,,,,,,,,,,,,,,,,,,,,,,,,,,,,,,,,,,,,,,,,,,,,,,,,,,,,,,,,,,,,,,,,,
1725710356.938511,1725710356.940318,174.0,0.0,4281.153809,4268.205078,4281.794922,4376.025879,4218.974121,4230.512695,3993.333252,4250.384766,4243.589844,4220.256348,4611.282227,4528.974121,4392.820313,4465.0,2907.0,1.0,15.0,,,,0.0,4.0,4.0,4.0,4.0,4.0,4.0,4.0,4.0,4.0,4.0,4.0,4.0,4.0,4.0,100.0,,,,,,,,,,,,,,,,,,,,,,,,,,,,,,,,,,,,,,,,,,,,,,,,,,,,,,,,,,,,,,,,,,,,,,,,,,,,,,,,,,,,,,,,,,,,,,,,,,,,,,,,,,,,,,,,,,,,,,,,,,,,,,,,,,,
1725710356.942415,1725710356.944322,175.0,0.0,4281.410156,4269.615234,4281.410156,4373.846191,4220.128418,4234.358887,3990.641113,4248.846191,4242.307617,4223.846191,4608.461426,4529.230957,4392.94873,4465.769043,3149.0,1.0,15.0,,,,0.0,4.0,4.0,4.0,4.0,4.0,4.0,4.0,4.0,4.0,4.0,4.0,4.0,4.0,4.0,100.0,,,,,,,,,,,,,,,,,,,,,,,,,,,,,,,,,,,,,,,,,,,,,,,,,,,,,,,,,,,,,,,,,,,,,,,,,,,,,,,,,,,,,,,,,,,,,,,,,,,,,,,,,,,,,,,,,,,,,,,,,,,,,,,,,,,
1725710356.946319,1725710356.948226,176.0,0.0,4280.128418,4266.282227,4279.615234,4366.025879,4219.743652,4234.230957,3984.871826,4242.179688,4235.897461,4219.615234,4597.307617,4525.128418,4387.692383,4464.230957,3418.0,1.0,15.0,,,,0.0,4.0,4.0,4.0,4.0,4.0,4.0,4.0,4.0,4.0,4.0,4.0,4.0,4.0,4.0,100.0,,,,,,,,,,,,,,,,,1.0,0.0,0.0,,,,,,,,,,,,,,,,,,,,,,,,,,,,,,,,,,,,,0.0,0.0,1.0,0.0,1024.0,0.0,1.273595,1.020238,0.760914,0.284846,0.100872,1.121027,1.25276,0.770132,0.228133,0.148322,1.095477,0.356766,0.320954,0.147832,0.053241,1.81799,0.854038,0.722649,0.157466,0.169268,0.297429,0.300312,0.198557,0.106099,0.033613,0.127093,0.046791,0.121961,0.080282,0.066769,6.080721,1.757186,0.979841,0.291521,0.144451,0.522143,2.518714,0.642327,0.301244,0.164326,0.637242,1.800717,0.935601,0.296586,0.184519,1.25901,1.525895,0.580129,0.432983,0.140569,1.886017,1.998259,1.015095,0.614592,0.448086,2.898465,2.389167,0.930204,0.349969,0.155895,1.479677,1.852494,1.618937,0.573827,0.191015,2.014622,2.2206,1.165261,0.349485,0.136897
1725710356.950224,1725710356.95213,177.0,0.0,4277.820313,4259.102539,4277.820313,4357.307617,4217.563965,4230.0,3977.94873,4235.128418,4230.0,4210.769043,4584.743652,4518.974121,4381.025879,4461.282227,3927.0,1.0,15.0,,,,0.0,4.0,4.0,4.0,4.0,4.0,4.0,4.0,4.0,4.0,4.0,4.0,4.0,4.0,4.0,100.0,,,,,,,,,,,,,,,,,,,,,,,,,,,,,,,,,,,,,,,,,,,,,,,,,,,,,,,,,,,,,,,,,,,,,,,,,,,,,,,,,,,,,,,,,,,,,,,,,,,,,,,,,,,,,,,,,,,,,,,,,,,,,,,,,,,
1725710356.954128,1725710356.956034,178.0,0.0,4275.769043,4251.282227,4277.436035,4353.461426,4215.641113,4224.358887,3972.179443,4231.922852,4230.256348,4204.743652,4578.846191,4513.846191,4378.333496,4458.974121,2907.0,1.0,15.0,,,,0.0,4.0,4.0,4.0,4.0,4.0,4.0,4.0,4.0,4.0,4.0,4.0,4.0,4.0,4.0,100.0,,,,,,,,,,,,,,,,,,,,,,,,,,,,,,,,,,,,,,,,,,,,,,,,,,,,,,,,,,,,,,,,,,,,,,,,,,,,,,,,,,,,,,,,,,,,,,,,,,,,,,,,,,,,,,,,,,,,,,,,,,,,,,,,,,,
1725710356.958032,1725710356.960038,179.0,0.0,4275.512695,4247.307617,4279.102539,4357.307617,4215.641113,4220.512695,3968.205078,4233.205078,4237.179688,4206.538574,4583.717773,4511.153809,4381.794922,4459.358887,3149.0,1.0,15.0,,,,0.0,4.0,4.0,4.0,4.0,4.0,4.0,4.0,4.0,4.0,4.0,4.0,4.0,4.0,4.0,100.0,,,,,,,,,,,,,,,,,,,,,,,,,,,,,,,,,,,,,,,,,,,,,,,,,,,,,,,,,,,,,,,,,,,,,,,,,,,,,,,,,,,,,,,,,,,,,,,,,,,,,,,,,,,,,,,,,,,,,,,,,,,,,,,,,,,
1725710356.961936,1725710356.963942,180.0,0.0,4277.692383,4249.102539,4281.666504,4365.641113,4217.05127,4220.512695,3965.256348,4236.282227,4246.153809,4214.871582,4596.538574,4510.384766,4388.333496,4462.179688,3418.0,1.0,15.0,,,,0.0,4.0,4.0,4.0,4.0,4.0,4.0,4.0,4.0,4.0,4.0,4.0,4.0,4.0,4.0,100.0,,,,,,,,,,,,,,,,,,,,,,,,,,,,,,,,,,,,,,,,,,,,,,,,,,,,,,,,,,,,,,,,,,,,,,,,,,,,,,,,,,,,,,,,,,,,,,,,,,,,,,,,,,,,,,,,,,,,,,,,,,,,,,,,,,,
1725710356.96584,1725710356.967846,181.0,0.0,4280.897461,4254.743652,4283.077148,4372.179688,4217.692383,4224.358887,3962.435791,4237.692383,4250.641113,4222.563965,4609.487305,4510.0,4392.05127,4464.743652,3927.0,1.0,15.0,,,,0.0,4.0,4.0,4.0,4.0,4.0,4.0,4.0,4.0,4.0,4.0,4.0,4.0,4.0,4.0,100.0,,,,,,,,,,,,,,,,,,,,,,,,,,,,,,,,,,,,,,,,,,,,,,,,,,,,,,,,,,,,,,,,,,,,,,,,,,,,,,,,,,,,,,,,,,,,,,,,,,,,,,,,,,,,,,,,,,,,,,,,,,,,,,,,,,,
1725710356.969744,1725710356.971751,182.0,0.0,4281.794922,4259.487305,4281.922852,4372.05127,4216.025879,4229.615234,3959.487061,4235.897461,4247.94873,4223.717773,4614.615234,4509.102539,4388.846191,4464.230957,2907.0,1.0,15.0,,,,0.0,4.0,4.0,4.0,4.0,4.0,4.0,4.0,4.0,4.0,4.0,4.0,4.0,4.0,4.0,100.0,,,,,,,,,,,,,,,,,,,,,,,,,,,,,,,,,,,,,,,,,,,,,,,,,,,,,,,,,,,,,,,,,,,,,,,,,,,,,,,,,,,,,,,,,,,,,,,,,,,,,,,,,,,,,,,,,,,,,,,,,,,,,,,,,,,
1725710356.973648,1725710356.975555,183.0,0.0,4278.589844,4259.102539,4278.717773,4365.256348,4212.179688,4233.461426,3957.307617,4232.307617,4240.0,4217.820313,4609.102539,4507.94873,4380.512695,4459.743652,3149.0,1.0,15.0,,,,0.0,4.0,4.0,4.0,4.0,4.0,4.0,4.0,4.0,4.0,4.0,4.0,4.0,4.0,4.0,100.0,,,,,,,,,,,,,,,,,,,,,,,,,,,,,,,,,,,,,,,,,,,,,,,,,,,,,,,,,,,,,,,,,,,,,,,,,,,,,,,,,,,,,,,,,,,,,,,,,,,,,,,,,,,,,,,,,,,,,,,,,,,,,,,,,,,
1725710356.977552,1725710356.979459,184.0,0.0,4272.436035,4253.461426,4275.512695,4357.179688,4208.717773,4234.102539,3957.05127,4230.128418,4232.05127,4209.615234,4597.179688,4506.922852,4371.922852,4453.974121,3418.0,1.0,15.0,,,,0.0,4.0,4.0,4.0,4.0,4.0,4.0,4.0,4.0,4.0,4.0,4.0,4.0,4.0,4.0,100.0,,,,,,,,,,,,,,,,,,,,,,,,,,,,,,,,,,,,,,,,,,,,,,,,,,,,,,,,0.0,0.0,1.0,0.0,1024.0,0.0,,,,,,,,,,,,,,,,,,,,,,,,,,,,,,,,,,,,,,,,,,,,,,,,,,,,,,,,,,,,,,,,,,,,,,
1725710356.981456,1725710356.983363,185.0,0.0,4267.05127,4246.666504,4274.358887,4353.717773,4208.205078,4231.666504,3958.589844,4230.641113,4228.333496,4203.974121,4586.410156,4506.666504,4368.077148,4450.512695,3927.0,1.0,15.0,,,,0.0,4.0,4.0,4.0,4.0,4.0,4.0,4.0,4.0,4.0,4.0,4.0,4.0,4.0,4.0,100.0,,,,,,,,,,,,,,,,,,,,,,,,,,,,,,,,,,,,,,,,,,,,,,,,,,,,,,,,,,,,,,,,,,,,,,,,,,,,,,,,,,,,,,,,,,,,,,,,,,,,,,,,,,,,,,,,,,,,,,,,,,,,,,,,,,,
1725710356.98536,1725710356.987267,186.0,0.0,4265.512695,4243.333496,4275.769043,4356.666504,4211.025879,4226.794922,3960.128174,4232.05127,4228.846191,4202.05127,4581.794922,4506.922852,4369.615234,4451.410156,2907.0,1.0,15.0,,,,0.0,4.0,4.0,4.0,4.0,4.0,4.0,4.0,4.0,4.0,4.0,4.0,4.0,4.0,4.0,100.0,,,,,,,,,,,,,,,,,,,,,,,,,,,,,,,,,,,,,,,,,,,,,,,,,,,,,,,,,,,,,,,,,,,,,,,,,,,,,,,,,,,,,,,,,,,,,,,,,,,,,,,,,,,,,,,,,,,,,,,,,,,,,,,,,,,
1725710356.989264,1725710356.991071,187.0,0.0,4267.94873,4245.0,4278.333496,4363.333496,4215.641113,4220.641113,3960.641113,4230.384766,4230.384766,4201.922852,4582.692383,4507.307617,4373.461426,4454.615234,3149.0,1.0,15.0,,,,0.0,4.0,4.0,4.0,4.0,4.0,4.0,4.0,4.0,4.0,4.0,4.0,4.0,4.0,4.0,100.0,,,,,,,,,,,,,,,,,,,,,,,,,,,,,,,,,,,,,,,,,,,,,,,,,,,,,,,,,,,,,,,,,,,,,,,,,,,,,,,,,,,,,,,,,,,,,,,,,,,,,,,,,,,,,,,,,,,,,,,,,,,,,,,,,,,
1725710356.993168,1725710356.994975,188.0,0.0,4271.794922,4249.615234,4280.128418,4369.102539,4219.487305,4216.025879,3960.128174,4224.358887,4230.384766,4201.538574,4584.358887,4506.794922,4375.897461,4456.410156,3418.0,1.0,15.0,,,,0.0,4.0,4.0,4.0,4.0,4.0,4.0,4.0,4.0,4.0,4.0,4.0,4.0,4.0,4.0,100.0,,,,,,,,,,,,,,,,,,,,,,,,,,,,,,,,,,,,,,,,,,,,,,,,,,,,,,,,,,,,,,,,,,,,,,,,,,,,,,,,,,,,,,,,,,,,,,,,,,,,,,,,,,,,,,,,,,,,,,,,,,,,,,,,,,,
1725710356.997073,1725710356.998879,189.0,0.0,4273.461426,4253.333496,4280.0,4370.897461,4220.897461,4215.256348,3959.615479,4216.922852,4228.846191,4200.384766,4582.94873,4505.512695,4375.256348,4454.615234,3927.0,1.0,15.0,,,,0.0,4.0,4.0,4.0,4.0,4.0,4.0,4.0,4.0,4.0,4.0,4.0,4.0,4.0,4.0,100.0,,,,,,,,,,,,,,,,,,,,,,,,,,,,,,,,,,,,,,,,,,,,,,,,,,,,,,,,,,,,,,,,,,,,,,,,,,,,,,,,,,,,,,,,,,,,,,,,,,,,,,,,,,,,,,,,,,,,,,,,,,,,,,,,,,,
1725710357.000977,1725710357.002784,190.0,0.0,4271.538574,4253.589844,4278.846191,4369.358887,4220.128418,4219.102539,3958.974365,4213.333496,4228.461426,4200.0,4578.589844,4504.102539,4372.94873,4450.512695,2907.0,1.0,15.0,,,,0.0,4.0,4.0,4.0,4.0,4.0,4.0,4.0,4.0,4.0,4.0,4.0,4.0,4.0,4.0,100.0,,,,,,,,,,,,,,,,,,,,,,,,,,,,,,,,,,,,,,,,,,,,,,,,,,,,,,,,,,,,,,,,,,,,,,,,,,,,,,,,,,,,,,,,,,,,,,,,,,,,,,,,,,,,,,,,,,,,,,,,,,,,,,,,,,,
1725710357.004881,1725710357.006588,191.0,0.0,4267.307617,4250.897461,4278.077148,4366.666504,4218.589844,4224.871582,3955.897461,4216.794922,4230.384766,4201.153809,4573.846191,4503.846191,4371.153809,4447.436035,3149.0,1.0,15.0,,,,0.0,4.0,4.0,4.0,4.0,4.0,4.0,4.0,4.0,4.0,4.0,4.0,4.0,4.0,4.0,100.0,,,,,,,,,,,,,,,,,,,,,,,,,,,,,,,,,,,,,,,,,,,,,,,,,,,,,,,,,,,,,,,,,,,,,,,,,,,,,,,,,,,,,,,,,,,,,,,,,,,,,,,,,,,,,,,,,,,,,,,,,,,,,,,,,,,
1725710357.008785,1725710357.010492,192.0,0.0,4263.205078,4247.692383,4278.333496,4365.256348,4217.820313,4229.487305,3947.94873,4225.384766,4233.205078,4203.205078,4570.512695,4505.256348,4371.538574,4447.820313,3418.0,1.0,15.0,,,,0.0,4.0,4.0,4.0,4.0,4.0,4.0,4.0,4.0,4.0,4.0,4.0,4.0,4.0,4.0,100.0,,,,,,,,,,,,,,,,,,,,,,,,,,,,,,,,,,,,,,,,,,,,,,,,,,,,,,,,0.0,0.0,1.0,0.0,1024.0,0.0,,,,,,,,,,,,,,,,,,,,,,,,,,,,,,,,,,,,,,,,,,,,,,,,,,,,,,,,,,,,,,,,,,,,,,
1725710357.012689,1725710357.014396,193.0,0.0,4261.410156,4245.769043,4279.230957,4365.512695,4217.94873,4230.384766,3934.487061,4234.102539,4234.230957,4204.102539,4568.589844,4507.563965,4373.205078,4451.410156,3927.0,1.0,15.0,,,,0.0,4.0,4.0,4.0,4.0,4.0,4.0,4.0,4.0,4.0,4.0,4.0,4.0,4.0,4.0,100.0,,,,,,,,,,,,,,,,,,,,,,,,,,,,,,,,,,,,,,,,,,,,,,,,,,,,,,,,,,,,,,,,,,,,,,,,,,,,,,,,,,,,,,,,,,,,,,,,,,,,,,,,,,,,,,,,,,,,,,,,,,,,,,,,,,,
1725710357.016593,1725710357.0183,194.0,0.0,4262.179688,4245.769043,4279.615234,4366.410156,4217.94873,4228.077148,3917.435791,4238.846191,4232.692383,4203.589844,4567.820313,4508.974121,4374.871582,4455.897461,2907.0,1.0,15.0,,,,0.0,4.0,4.0,4.0,4.0,4.0,4.0,4.0,4.0,4.0,4.0,4.0,4.0,4.0,4.0,100.0,,,,,,,,,,,,,,,,,,,,,,,,,,,,,,,,,,,,,,,,,,,,,,,,,,,,,,,,,,,,,,,,,,,,,,,,,,,,,,,,,,,,,,,,,,,,,,,,,,,,,,,,,,,,,,,,,,,,,,,,,,,,,,,,,,,
1725710357.020497,1725710357.022104,195.0,0.0,4264.102539,4246.538574,4279.358887,4366.794922,4216.794922,4224.743652,3900.897461,4238.846191,4231.538574,4203.205078,4569.102539,4509.230957,4376.025879,4459.230957,3149.0,1.0,15.0,,,,0.0,4.0,4.0,4.0,4.0,4.0,4.0,4.0,4.0,4.0,4.0,4.0,4.0,4.0,4.0,100.0,,,,,,,,,,,,,,,,,,,,,,,,,,,,,,,,,,,,,,,,,,,,,,,,,,,,,,,,,,,,,,,,,,,,,,,,,,,,,,,,,,,,,,,,,,,,,,,,,,,,,,,,,,,,,,,,,,,,,,,,,,,,,,,,,,,
1725710357.024401,1725710357.026008,196.0,0.0,4265.384766,4247.05127,4278.846191,4366.282227,4214.358887,4223.205078,3888.076904,4236.410156,4233.974121,4205.256348,4573.461426,4509.358887,4376.666504,4460.769043,3418.0,1.0,15.0,,,,0.0,4.0,4.0,4.0,4.0,4.0,4.0,4.0,4.0,4.0,4.0,4.0,4.0,4.0,4.0,100.0,,,,,,,,,,,,,,,,,,,,,,,,,,,,,,,,,,,,,,,,,,,,,,,,,,,,,,,,,,,,,,,,,,,,,,,,,,,,,,,,,,,,,,,,,,,,,,,,,,,,,,,,,,,,,,,,,,,,,,,,,,,,,,,,,,,
1725710357.028305,1725710357.029913,197.0,0.0,4265.769043,4247.692383,4278.589844,4364.743652,4212.692383,4225.128418,3879.230713,4233.974121,4240.512695,4210.128418,4579.358887,4510.512695,4376.538574,4461.282227,3927.0,1.0,15.0,,,,0.0,4.0,4.0,4.0,4.0,4.0,4.0,4.0,4.0,4.0,4.0,4.0,4.0,4.0,4.0,100.0,,,,,,,,,,,,,,,,,,,,,,,,,,,,,,,,,,,,,,,,,,,,,,,,,,,,,,,,,,,,,,,,,,,,,,,,,,,,,,,,,,,,,,,,,,,,,,,,,,,,,,,,,,,,,,,,,,,,,,,,,,,,,,,,,,,
1725710357.03221,1725710357.033817,198.0,0.0,4265.897461,4248.846191,4278.846191,4362.307617,4213.077148,4229.358887,3872.94873,4232.563965,4247.563965,4215.0,4584.358887,4511.922852,4375.256348,4460.897461,2907.0,1.0,15.0,,,,0.0,4.0,4.0,4.0,4.0,4.0,4.0,4.0,4.0,4.0,4.0,4.0,4.0,4.0,4.0,100.0,,,,,,,,,,,,,,,,,,,,,,,,,,,,,,,,,,,,,,,,,,,,,,,,,,,,,,,,,,,,,,,,,,,,,,,,,,,,,,,,,,,,,,,,,,,,,,,,,,,,,,,,,,,,,,,,,,,,,,,,,,,,,,,,,,,
1725710357.036114,1725710357.037621,199.0,0.0,4266.153809,4250.128418,4279.230957,4359.358887,4215.0,4232.563965,3866.666748,4232.436035,4250.384766,4215.897461,4586.025879,4512.05127,4372.563965,4459.102539,3149.0,1.0,15.0,,,,0.0,4.0,4.0,4.0,4.0,4.0,4.0,4.0,4.0,4.0,4.0,4.0,4.0,4.0,4.0,100.0,,,,,,,,,,,,,,,,,,,,,,,,,,,,,,,,,,,,,,,,,,,,,,,,,,,,,,,,,,,,,,,,,,,,,,,,,,,,,,,,,,,,,,,,,,,,,,,,,,,,,,,,,,,,,,,,,,,,,,,,,,,,,,,,,,,
1725710357.040018,1725710357.041525,200.0,0.0,4266.282227,4250.512695,4279.358887,4356.538574,4216.025879,4232.563965,3858.718018,4232.820313,4246.666504,4211.025879,4583.846191,4510.512695,4369.487305,4455.0,3418.0,1.0,15.0,,,,0.0,4.0,4.0,4.0,4.0,4.0,4.0,4.0,4.0,4.0,4.0,4.0,4.0,4.0,4.0,100.0,,,,,,,,,,,,,,,,,,,,,,,,,,,,,,,,,,,,,,,,,,,,,,,,,,,,,,,,0.0,0.0,1.0,0.0,1024.0,0.0,,,,,,,,,,,,,,,,,,,,,,,,,,,,,,,,,,,,,,,,,,,,,,,,,,,,,,,,,,,,,,,,,,,,,,
1725710357.043922,1725710357.045429,201.0,0.0,4265.512695,4249.230957,4279.358887,4354.871582,4214.871582,4230.384766,3849.871826,4233.589844,4238.846191,4203.077148,4578.461426,4508.589844,4367.307617,4449.743652,3927.0,1.0,15.0,,,,0.0,4.0,4.0,4.0,4.0,4.0,4.0,4.0,4.0,4.0,4.0,4.0,4.0,4.0,4.0,100.0,,,,,,,,,,,,,,,,,,,,,,,,,,,,,,,,,,,,,,,,,,,,,,,,,,,,,,,,,,,,,,,,,,,,,,,,,,,,,,,,,,,,,,,,,,,,,,,,,,,,,,,,,,,,,,,,,,,,,,,,,,,,,,,,,,,
1725710357.047826,1725710357.049433,202.0,0.0,4263.974121,4246.538574,4279.102539,4354.615234,4211.282227,4228.461426,3842.05127,4234.230957,4232.05127,4197.05127,4571.666504,4508.077148,4366.538574,4445.641113,2907.0,1.0,15.0,,,,0.0,4.0,4.0,4.0,4.0,4.0,4.0,4.0,4.0,4.0,4.0,4.0,4.0,4.0,4.0,100.0,,,,,,,,,,,,,,,,,,,,,,,,,,,,,,,,,,,,,,,,,,,,,,,,,,,,,,,,,,,,,,,,,,,,,,,,,,,,,,,,,,,,,,,,,,,,,,,,,,,,,,,,,,,,,,,,,,,,,,,,,,,,,,,,,,,
1725710357.05173,1725710357.053337,203.0,0.0,4263.077148,4242.94873,4278.333496,4354.615234,4206.922852,4228.846191,3836.281982,4233.333496,4230.128418,4196.282227,4565.897461,4508.717773,4366.410156,4444.487305,3149.0,1.0,15.0,,,,0.0,4.0,4.0,4.0,4.0,4.0,4.0,4.0,4.0,4.0,4.0,4.0,4.0,4.0,4.0,100.0,,,,,,,,,,,,,,,,,,,,,,,,,,,,,,,,,,,,,,,,,,,,,,,,,,,,,,,,,,,,,,,,,,,,,,,,,,,,,,,,,,,,,,,,,,,,,,,,,,,,,,,,,,,,,,,,,,,,,,,,,,,,,,,,,,,
1725710357.055634,1725710357.057241,204.0,0.0,4262.820313,4238.205078,4276.410156,4353.077148,4202.820313,4230.769043,3831.410156,4230.256348,4232.820313,4199.487305,4561.922852,4508.717773,4365.384766,4445.512695,3418.0,1.0,15.0,,,,0.0,4.0,4.0,4.0,4.0,4.0,4.0,4.0,4.0,4.0,4.0,4.0,4.0,4.0,4.0,100.0,,,,,,,,,,,,,,,,,,,,,,,,,,,,,,,,,,,,,,,,,,,,,,,,,,,,,,,,,,,,,,,,,,,,,,,,,,,,,,,,,,,,,,,,,,,,,,,,,,,,,,,,,,,,,,,,,,,,,,,,,,,,,,,,,,,
1725710357.059538,1725710357.061145,205.0,0.0,4262.179688,4232.563965,4273.461426,4349.743652,4200.0,4232.307617,3826.025635,4224.743652,4236.282227,4202.563965,4558.589844,4505.769043,4363.077148,4445.641113,3927.0,1.0,15.0,,,,0.0,4.0,4.0,4.0,4.0,4.0,4.0,4.0,4.0,4.0,4.0,4.0,4.0,4.0,4.0,100.0,,,,,,,,,,,,,,,,,,,,,,,,,,,,,,,,,,,,,,,,,,,,,,,,,,,,,,,,,,,,,,,,,,,,,,,,,,,,,,,,,,,,,,,,,,,,,,,,,,,,,,,,,,,,,,,,,,,,,,,,,,,,,,,,,,,
1725710357.063442,1725710357.065149,206.0,0.0,4259.743652,4226.538574,4269.743652,4345.897461,4198.333496,4231.922852,3819.871826,4218.589844,4236.282227,4201.922852,4553.974121,4499.230957,4359.743652,4442.179688,2907.0,1.0,15.0,,,,0.0,4.0,4.0,4.0,4.0,4.0,4.0,4.0,4.0,4.0,4.0,4.0,4.0,4.0,4.0,100.0,,,,,,,,,,,,,,,,,,,,,,,,,,,,,,,,,,,,,,,,,,,,,,,,,,,,,,,,,,,,,,,,,,,,,,,,,,,,,,,,,,,,,,,,,,,,,,,,,,,,,,,,,,,,,,,,,,,,,,,,,,,,,,,,,,,
1725710357.067346,1725710357.069053,207.0,0.0,4255.512695,4221.538574,4266.538574,4342.820313,4197.692383,4229.871582,3815.256348,4214.358887,4231.282227,4196.538574,4548.077148,4490.897461,4355.256348,4435.0,3149.0,1.0,15.0,,,,0.0,4.0,4.0,4.0,4.0,4.0,4.0,4.0,4.0,4.0,4.0,4.0,4.0,4.0,4.0,100.0,,,,,,,,,,,,,,,,,,,,,,,,,,,,,,,,,,,,,,,,,,,,,,,,,,,,,,,,,,,,,,,,,,,,,,,,,,,,,,,,,,,,,,,,,,,,,,,,,,,,,,,,,,,,,,,,,,,,,,,,,,,,,,,,,,,
1725710357.071251,1725710357.072958,208.0,0.0,4251.410156,4218.205078,4264.743652,4340.641113,4198.077148,4228.589844,3814.743652,4213.717773,4223.333496,4188.205078,4542.179688,4484.615234,4349.102539,4427.436035,3418.0,1.0,15.0,,,,0.0,4.0,4.0,4.0,4.0,4.0,4.0,4.0,4.0,4.0,4.0,4.0,4.0,4.0,4.0,100.0,,,,,,,,,,,,,,,,,1.0,0.0,0.0,,,,,,,,,,,,,,,,,,,,,,,,,,,,,,,,,,,,,0.0,0.0,1.0,0.0,128.0,0.0,1.204384,0.863271,0.70103,0.268625,0.105345,1.164521,1.188133,0.700705,0.245981,0.149151,0.938416,0.300351,0.329786,0.153889,0.053987,1.793421,0.790625,0.708292,0.169617,0.167137,0.247943,0.222081,0.177735,0.090595,0.031105,0.141511,0.058624,0.118512,0.078911,0.079353,6.673103,1.354071,0.843389,0.267344,0.137446,0.468603,2.48268,0.79327,0.341408,0.163771,0.597215,1.590992,0.909165,0.322269,0.179569,1.221528,1.342932,0.604446,0.460293,0.147014,1.646779,1.948805,0.967637,0.607265,0.50389,2.507222,2.062998,1.005225,0.359377,0.152436,1.401374,1.838547,1.41535,0.547442,0.198681,1.674667,1.970955,1.080222,0.334121,0.123447
1725710357.075155,1725710357.076862,209.0,0.0,4249.102539,4216.666504,4264.230957,4338.589844,4199.230957,4229.615234,3818.589844,4216.666504,4216.666504,4179.743652,4538.077148,4483.333496,4341.666504,4422.820313,3927.0,1.0,15.0,,,,0.0,4.0,4.0,4.0,4.0,4.0,4.0,4.0,4.0,4.0,4.0,4.0,4.0,4.0,4.0,100.0,,,,,,,,,,,,,,,,,,,,,,,,,,,,,,,,,,,,,,,,,,,,,,,,,,,,,,,,,,,,,,,,,,,,,,,,,,,,,,,,,,,,,,,,,,,,,,,,,,,,,,,,,,,,,,,,,,,,,,,,,,,,,,,,,,,
1725710357.079059,1725710357.080766,210.0,0.0,4248.461426,4216.282227,4264.102539,4335.641113,4200.897461,4232.05127,3823.589844,4220.512695,4214.358887,4173.846191,4536.025879,4486.410156,4334.871582,4422.692383,2907.0,1.0,15.0,,,,0.0,4.0,4.0,4.0,4.0,4.0,4.0,4.0,4.0,4.0,4.0,4.0,4.0,4.0,4.0,100.0,,,,,,,,,,,,,,,,,,,,,,,,,,,,,,,,,,,,,,,,,,,,,,,,,,,,,,,,,,,,,,,,,,,,,,,,,,,,,,,,,,,,,,,,,,,,,,,,,,,,,,,,,,,,,,,,,,,,,,,,,,,,,,,,,,,
1725710357.082963,1725710357.08457,211.0,0.0,4248.077148,4216.666504,4263.717773,4331.794922,4202.05127,4233.461426,3824.743652,4221.922852,4215.256348,4171.794922,4535.0,4489.743652,4331.410156,4425.641113,3149.0,1.0,15.0,,,,0.0,4.0,4.0,4.0,4.0,4.0,4.0,4.0,4.0,4.0,4.0,4.0,4.0,4.0,4.0,100.0,,,,,,,,,,,,,,,,,,,,,,,,,,,,,,,,,,,,,,,,,,,,,,,,,,,,,,,,,,,,,,,,,,,,,,,,,,,,,,,,,,,,,,,,,,,,,,,,,,,,,,,,,,,,,,,,,,,,,,,,,,,,,,,,,,,
1725710357.086867,1725710357.088474,212.0,0.0,4247.05127,4217.563965,4263.333496,4328.333496,4201.794922,4232.692383,3818.205078,4219.102539,4216.153809,4173.461426,4534.230957,4488.846191,4332.94873,4428.205078,3418.0,1.0,15.0,,,,0.0,4.0,4.0,4.0,4.0,4.0,4.0,4.0,4.0,4.0,4.0,4.0,4.0,4.0,4.0,100.0,,,,,,,,,,,,,,,,,,,,,,,,,,,,,,,,,,,,,,,,,,,,,,,,,,,,,,,,,,,,,,,,,,,,,,,,,,,,,,,,,,,,,,,,,,,,,,,,,,,,,,,,,,,,,,,,,,,,,,,,,,,,,,,,,,,
1725710357.090771,1725710357.092478,213.0,0.0,4245.512695,4218.333496,4263.205078,4326.410156,4198.846191,4230.641113,3803.205078,4214.615234,4215.512695,4177.05127,4533.461426,4483.333496,4338.333496,4428.077148,3927.0,1.0,15.0,,,,0.0,4.0,4.0,4.0,4.0,4.0,4.0,4.0,4.0,4.0,4.0,4.0,4.0,4.0,4.0,100.0,,,,,,,,,,,,,,,,,,,,,,,,,,,,,,,,,,,,,,,,,,,,,,,,,,,,,,,,,,,,,,,,,,,,,,,,,,,,,,,,,,,,,,,,,,,,,,,,,,,,,,,,,,,,,,,,,,,,,,,,,,,,,,,,,,,
1725710357.094675,1725710357.096382,214.0,0.0,4243.974121,4217.436035,4263.333496,4326.153809,4193.589844,4229.230957,3782.692383,4212.692383,4214.871582,4180.897461,4533.077148,4477.692383,4344.871582,4425.769043,2907.0,1.0,15.0,,,,0.0,4.0,4.0,4.0,4.0,4.0,4.0,4.0,4.0,4.0,4.0,4.0,4.0,4.0,4.0,100.0,,,,,,,,,,,,,,,,,,,,,,,,,,,,,,,,,,,,,,,,,,,,,,,,,,,,,,,,,,,,,,,,,,,,,,,,,,,,,,,,,,,,,,,,,,,,,,,,,,,,,,,,,,,,,,,,,,,,,,,,,,,,,,,,,,,
1725710357.098579,1725710357.100286,215.0,0.0,4242.820313,4214.358887,4262.94873,4326.282227,4187.692383,4229.487305,3761.666748,4216.153809,4216.794922,4184.358887,4533.717773,4477.05127,4349.102539,4423.077148,3149.0,1.0,15.0,,,,0.0,4.0,4.0,4.0,4.0,4.0,4.0,4.0,4.0,4.0,4.0,4.0,4.0,4.0,4.0,100.0,,,,,,,,,,,,,,,,,,,,,,,,,,,,,,,,,,,,,,,,,,,,,,,,,,,,,,,,,,,,,,,,,,,,,,,,,,,,,,,,,,,,,,,,,,,,,,,,,,,,,,,,,,,,,,,,,,,,,,,,,,,,,,,,,,,
1725710357.102483,1725710357.10419,216.0,0.0,4242.05127,4209.358887,4261.922852,4325.769043,4183.846191,4230.384766,3745.512939,4222.820313,4221.282227,4186.794922,4535.384766,4482.307617,4349.871582,4421.666504,3418.0,1.0,15.0,,,,0.0,4.0,4.0,4.0,4.0,4.0,4.0,4.0,4.0,4.0,4.0,4.0,4.0,4.0,4.0,100.0,,,,,,,,,,,,,,,,,,,,,,,,,,,,,,,,,,,,,,,,,,,,,,,,,,,,,,,,0.0,0.0,1.0,0.0,128.0,0.0,,,,,,,,,,,,,,,,,,,,,,,,,,,,,,,,,,,,,,,,,,,,,,,,,,,,,,,,,,,,,,,,,,,,,,
1725710357.106388,1725710357.108194,217.0,0.0,4241.922852,4204.871582,4260.641113,4324.743652,4183.205078,4230.641113,3737.94873,4228.333496,4226.025879,4187.692383,4537.436035,4489.487305,4348.589844,4422.307617,3927.0,1.0,15.0,,,,0.0,4.0,4.0,4.0,4.0,4.0,4.0,4.0,4.0,4.0,4.0,4.0,4.0,4.0,4.0,100.0,,,,,,,,,,,,,,,,,,,,,,,,,,,,,,,,,,,,,,,,,,,,,,,,,,,,,,,,,,,,,,,,,,,,,,,,,,,,,,,,,,,,,,,,,,,,,,,,,,,,,,,,,,,,,,,,,,,,,,,,,,,,,,,,,,,
1725710357.110292,1725710357.112099,218.0,0.0,4242.05127,4203.974121,4260.769043,4324.102539,4184.871582,4228.846191,3738.974365,4229.102539,4228.077148,4186.410156,4538.589844,4492.94873,4348.333496,4424.743652,2907.0,1.0,15.0,,,,0.0,4.0,4.0,4.0,4.0,4.0,4.0,4.0,4.0,4.0,4.0,4.0,4.0,4.0,4.0,100.0,,,,,,,,,,,,,,,,,,,,,,,,,,,,,,,,,,,,,,,,,,,,,,,,,,,,,,,,,,,,,,,,,,,,,,,,,,,,,,,,,,,,,,,,,,,,,,,,,,,,,,,,,,,,,,,,,,,,,,,,,,,,,,,,,,,
1725710357.114196,1725710357.116003,219.0,0.0,4242.692383,4208.205078,4262.692383,4324.871582,4186.794922,4224.871582,3746.281982,4225.0,4225.769043,4183.077148,4537.436035,4489.871582,4350.128418,4427.94873,3149.0,1.0,15.0,,,,0.0,4.0,4.0,4.0,4.0,4.0,4.0,4.0,4.0,4.0,4.0,4.0,4.0,4.0,4.0,100.0,,,,,,,,,,,,,,,,,,,,,,,,,,,,,,,,,,,,,,,,,,,,,,,,,,,,,,,,,,,,,,,,,,,,,,,,,,,,,,,,,,,,,,,,,,,,,,,,,,,,,,,,,,,,,,,,,,,,,,,,,,,,,,,,,,,
1725710357.1181,1725710357.119907,220.0,0.0,4243.717773,4216.922852,4265.769043,4326.538574,4187.307617,4220.256348,3756.410156,4218.974121,4220.641113,4178.974121,4532.820313,4481.922852,4352.94873,4429.871582,3418.0,1.0,15.0,,,,0.0,4.0,4.0,4.0,4.0,4.0,4.0,4.0,4.0,4.0,4.0,4.0,4.0,4.0,4.0,100.0,,,,,,,,,,,,,,,,,,,,,,,,,,,,,,,,,,,,,,,,,,,,,,,,,,,,,,,,,,,,,,,,,,,,,,,,,,,,,,,,,,,,,,,,,,,,,,,,,,,,,,,,,,,,,,,,,,,,,,,,,,,,,,,,,,,
1725710357.122004,1725710357.123811,221.0,0.0,4245.384766,4226.410156,4267.436035,4327.179688,4186.282227,4216.794922,3766.410156,4213.846191,4215.512695,4176.153809,4526.410156,4473.717773,4353.846191,4429.487305,3927.0,1.0,15.0,,,,0.0,4.0,4.0,4.0,4.0,4.0,4.0,4.0,4.0,4.0,4.0,4.0,4.0,4.0,4.0,100.0,,,,,,,,,,,,,,,,,,,,,,,,,,,,,,,,,,,,,,,,,,,,,,,,,,,,,,,,,,,,,,,,,,,,,,,,,,,,,,,,,,,,,,,,,,,,,,,,,,,,,,,,,,,,,,,,,,,,,,,,,,,,,,,,,,,
1725710357.125908,1725710357.127615,222.0,0.0,4246.922852,4232.05127,4266.410156,4325.0,4184.743652,4216.153809,3774.230713,4210.769043,4213.205078,4175.384766,4521.282227,4469.230957,4351.538574,4427.05127,2907.0,1.0,15.0,,,,0.0,4.0,4.0,4.0,4.0,4.0,4.0,4.0,4.0,4.0,4.0,4.0,4.0,4.0,4.0,100.0,,,,,,,,,,,,,,,,,,,,,,,,,,,,,,,,,,,,,,,,,,,,,,,,,,,,,,,,,,,,,,,,,,,,,,,,,,,,,,,,,,,,,,,,,,,,,,,,,,,,,,,,,,,,,,,,,,,,,,,,,,,,,,,,,,,
1725710357.129812,1725710357.131519,223.0,0.0,4247.820313,4231.282227,4263.333496,4320.641113,4183.974121,4217.563965,3778.974365,4209.743652,4213.974121,4176.025879,4520.128418,4469.487305,4346.922852,4424.230957,3149.0,1.0,15.0,,,,0.0,4.0,4.0,4.0,4.0,4.0,4.0,4.0,4.0,4.0,4.0,4.0,4.0,4.0,4.0,100.0,,,,,,,,,,,,,,,,,,,,,,,,,,,,,,,,,,,,,,,,,,,,,,,,,,,,,,,,,,,,,,,,,,,,,,,,,,,,,,,,,,,,,,,,,,,,,,,,,,,,,,,,,,,,,,,,,,,,,,,,,,,,,,,,,,,
1725710357.133716,1725710357.135423,224.0,0.0,4247.94873,4225.641113,4260.512695,4316.025879,4184.487305,4219.358887,3781.025635,4209.487305,4216.025879,4176.538574,4521.794922,4472.436035,4342.179688,4422.307617,3418.0,1.0,15.0,,,,0.0,4.0,4.0,4.0,4.0,4.0,4.0,4.0,4.0,4.0,4.0,4.0,4.0,4.0,4.0,100.0,,,,,,,,,,,,,,,,,,,,,,,,,,,,,,,,,,,,,,,,,,,,,,,,,,,,,,,,0.0,0.0,1.0,0.0,128.0,0.0,,,,,,,,,,,,,,,,,,,,,,,,,,,,,,,,,,,,,,,,,,,,,,,,,,,,,,,,,,,,,,,,,,,,,,
1725710357.13762,1725710357.139327,225.0,0.0,4247.436035,4218.974121,4259.743652,4313.333496,4185.641113,4219.871582,3781.923096,4209.230957,4216.666504,4175.0,4522.820313,4475.128418,4339.487305,4421.794922,3927.0,1.0,15.0,,,,0.0,4.0,4.0,4.0,4.0,4.0,4.0,4.0,4.0,4.0,4.0,4.0,4.0,4.0,4.0,100.0,,,,,,,,,,,,,,,,,,,,,,,,,,,,,,,,,,,,,,,,,,,,,,,,,,,,,,,,,,,,,,,,,,,,,,,,,,,,,,,,,,,,,,,,,,,,,,,,,,,,,,,,,,,,,,,,,,,,,,,,,,,,,,,,,,,
1725710357.141524,1725710357.143132,226.0,0.0,4246.538574,4215.0,4261.153809,4312.307617,4186.794922,4218.717773,3783.974365,4209.230957,4214.871582,4171.025879,4520.0,4475.769043,4339.230957,4421.666504,2907.0,1.0,15.0,,,,0.0,4.0,4.0,4.0,4.0,4.0,4.0,4.0,4.0,4.0,4.0,4.0,4.0,4.0,4.0,100.0,,,,,,,,,,,,,,,,,,,,,,,,,,,,,,,,,,,,,,,,,,,,,,,,,,,,,,,,,,,,,,,,,,,,,,,,,,,,,,,,,,,,,,,,,,,,,,,,,,,,,,,,,,,,,,,,,,,,,,,,,,,,,,,,,,,
1725710357.145429,1725710357.147036,227.0,0.0,4245.641113,4214.743652,4263.205078,4311.538574,4187.05127,4217.436035,3788.718018,4210.128418,4212.307617,4166.282227,4513.205078,4474.743652,4340.256348,4421.153809,3149.0,1.0,15.0,,,,0.0,4.0,4.0,4.0,4.0,4.0,4.0,4.0,4.0,4.0,4.0,4.0,4.0,4.0,4.0,100.0,,,,,,,,,,,,,,,,,,,,,,,,,,,,,,,,,,,,,,,,,,,,,,,,,,,,,,,,,,,,,,,,,,,,,,,,,,,,,,,,,,,,,,,,,,,,,,,,,,,,,,,,,,,,,,,,,,,,,,,,,,,,,,,,,,,
1725710357.149333,1725710357.15094,228.0,0.0,4244.743652,4216.410156,4264.358887,4309.871582,4186.410156,4217.05127,3795.384521,4212.179688,4211.282227,4164.230957,4505.256348,4473.077148,4341.538574,4420.384766,3418.0,1.0,15.0,,,,0.0,4.0,4.0,4.0,4.0,4.0,4.0,4.0,4.0,4.0,4.0,4.0,4.0,4.0,4.0,100.0,,,,,,,,,,,,,,,,,,,,,,,,,,,,,,,,,,,,,,,,,,,,,,,,,,,,,,,,,,,,,,,,,,,,,,,,,,,,,,,,,,,,,,,,,,,,,,,,,,,,,,,,,,,,,,,,,,,,,,,,,,,,,,,,,,,
1725710357.153237,1725710357.154944,229.0,0.0,4244.230957,4217.436035,4263.974121,4308.205078,4185.384766,4217.94873,3802.692383,4214.871582,4213.077148,4166.538574,4500.256348,4471.282227,4342.05127,4420.256348,3927.0,1.0,15.0,,,,0.0,4.0,4.0,4.0,4.0,4.0,4.0,4.0,4.0,4.0,4.0,4.0,4.0,4.0,4.0,100.0,,,,,,,,,,,,,,,,,,,,,,,,,,,,,,,,,,,,,,,,,,,,,,,,,,,,,,,,,,,,,,,,,,,,,,,,,,,,,,,,,,,,,,,,,,,,,,,,,,,,,,,,,,,,,,,,,,,,,,,,,,,,,,,,,,,
1725710357.157141,1725710357.158848,230.0,0.0,4244.743652,4216.794922,4262.820313,4308.333496,4184.615234,4219.102539,3809.871826,4216.922852,4216.410156,4171.410156,4500.128418,4470.512695,4341.666504,4421.922852,2907.0,1.0,15.0,,,,0.0,4.0,4.0,4.0,4.0,4.0,4.0,4.0,4.0,4.0,4.0,4.0,4.0,4.0,4.0,100.0,,,,,,,,,,,,,,,,,,,,,,,,,,,,,,,,,,,,,,,,,,,,,,,,,,,,,,,,,,,,,,,,,,,,,,,,,,,,,,,,,,,,,,,,,,,,,,,,,,,,,,,,,,,,,,,,,,,,,,,,,,,,,,,,,,,
1725710357.161045,1725710357.162752,231.0,0.0,4246.153809,4215.641113,4262.307617,4311.025879,4184.743652,4219.358887,3816.025635,4217.820313,4219.230957,4174.487305,4504.487305,4471.922852,4341.282227,4425.0,3149.0,1.0,15.0,,,,0.0,4.0,4.0,4.0,4.0,4.0,4.0,4.0,4.0,4.0,4.0,4.0,4.0,4.0,4.0,100.0,,,,,,,,,,,,,,,,,,,,,,,,,,,,,,,,,,,,,,,,,,,,,,,,,,,,,,,,,,,,,,,,,,,,,,,,,,,,,,,,,,,,,,,,,,,,,,,,,,,,,,,,,,,,,,,,,,,,,,,,,,,,,,,,,,,
1725710357.164949,1725710357.166756,232.0,0.0,4247.692383,4215.0,4262.94873,4314.102539,4186.538574,4219.230957,3820.769287,4217.820313,4220.128418,4173.205078,4510.128418,4476.666504,4342.179688,4428.205078,3418.0,1.0,15.0,,,,0.0,4.0,4.0,4.0,4.0,4.0,4.0,4.0,4.0,4.0,4.0,4.0,4.0,4.0,4.0,100.0,,,,,,,,,,,,,,,,,,,,,,,,,,,,,,,,,,,,,,,,,,,,,,,,,,,,,,,,0.0,0.0,1.0,0.0,128.0,0.0,,,,,,,,,,,,,,,,,,,,,,,,,,,,,,,,,,,,,,,,,,,,,,,,,,,,,,,,,,,,,,,,,,,,,,
1725710357.168853,1725710357.17066,233.0,0.0,4248.717773,4215.384766,4264.230957,4314.102539,4189.230957,4219.871582,3824.358887,4217.563965,4219.743652,4169.743652,4514.102539,4483.717773,4345.897461,4430.384766,3927.0,1.0,15.0,,,,0.0,4.0,4.0,4.0,4.0,4.0,4.0,4.0,4.0,4.0,4.0,4.0,4.0,4.0,4.0,100.0,,,,,,,,,,,,,,,,,,,,,,,,,,,,,,,,,,,,,,,,,,,,,,,,,,,,,,,,,,,,,,,,,,,,,,,,,,,,,,,,,,,,,,,,,,,,,,,,,,,,,,,,,,,,,,,,,,,,,,,,,,,,,,,,,,,
1725710357.172757,1725710357.174564,234.0,0.0,4248.205078,4216.153809,4264.871582,4309.102539,4191.025879,4221.794922,3827.692383,4217.820313,4218.717773,4168.461426,4514.102539,4489.487305,4351.538574,4431.282227,2907.0,1.0,15.0,,,,0.0,4.0,4.0,4.0,4.0,4.0,4.0,4.0,4.0,4.0,4.0,4.0,4.0,4.0,4.0,100.0,,,,,,,,,,,,,,,,,,,,,,,,,,,,,,,,,,,,,,,,,,,,,,,,,,,,,,,,,,,,,,,,,,,,,,,,,,,,,,,,,,,,,,,,,,,,,,,,,,,,,,,,,,,,,,,,,,,,,,,,,,,,,,,,,,,
1725710357.176661,1725710357.178468,235.0,0.0,4246.410156,4216.410156,4264.487305,4300.384766,4190.128418,4224.358887,3831.666748,4218.846191,4217.563965,4171.794922,4510.128418,4490.128418,4355.769043,4430.897461,3149.0,1.0,15.0,,,,0.0,4.0,4.0,4.0,4.0,4.0,4.0,4.0,4.0,4.0,4.0,4.0,4.0,4.0,4.0,100.0,,,,,,,,,,,,,,,,,,,,,,,,,,,,,,,,,,,,,,,,,,,,,,,,,,,,,,,,,,,,,,,,,,,,,,,,,,,,,,,,,,,,,,,,,,,,,,,,,,,,,,,,,,,,,,,,,,,,,,,,,,,,,,,,,,,
1725710357.180565,1725710357.182372,236.0,0.0,4244.615234,4215.769043,4263.333496,4293.077148,4186.666504,4226.410156,3836.410156,4221.282227,4217.179688,4178.333496,4504.102539,4485.897461,4356.282227,4429.743652,3418.0,1.0,15.0,,,,0.0,4.0,4.0,4.0,4.0,4.0,4.0,4.0,4.0,4.0,4.0,4.0,4.0,4.0,4.0,100.0,,,,,,,,,,,,,,,,,,,,,,,,,,,,,,,,,,,,,,,,,,,,,,,,,,,,,,,,,,,,,,,,,,,,,,,,,,,,,,,,,,,,,,,,,,,,,,,,,,,,,,,,,,,,,,,,,,,,,,,,,,,,,,,,,,,
1725710357.18447,1725710357.186177,237.0,0.0,4244.102539,4215.0,4262.436035,4291.922852,4183.589844,4228.077148,3841.025635,4225.0,4218.846191,4183.846191,4499.871582,4481.025879,4353.461426,4428.717773,3927.0,1.0,15.0,,,,0.0,4.0,4.0,4.0,4.0,4.0,4.0,4.0,4.0,4.0,4.0,4.0,4.0,4.0,4.0,100.0,,,,,,,,,,,,,,,,,,,,,,,,,,,,,,,,,,,,,,,,,,,,,,,,,,,,,,,,,,,,,,,,,,,,,,,,,,,,,,,,,,,,,,,,,,,,,,,,,,,,,,,,,,,,,,,,,,,,,,,,,,,,,,,,,,,
1725710357.188374,1725710357.190081,238.0,0.0,4245.384766,4215.512695,4262.820313,4297.94873,4184.102539,4229.743652,3845.128174,4229.230957,4223.205078,4185.897461,4501.153809,4480.769043,4350.769043,4428.717773,2907.0,1.0,15.0,,,,0.0,4.0,4.0,4.0,4.0,4.0,4.0,4.0,4.0,4.0,4.0,4.0,4.0,4.0,4.0,100.0,,,,,,,,,,,,,,,,,,,,,,,,,,,,,,,,,,,,,,,,,,,,,,,,,,,,,,,,,,,,,,,,,,,,,,,,,,,,,,,,,,,,,,,,,,,,,,,,,,,,,,,,,,,,,,,,,,,,,,,,,,,,,,,,,,,
1725710357.192278,1725710357.193985,239.0,0.0,4247.436035,4217.692383,4264.615234,4306.794922,4189.102539,4231.410156,3848.846191,4232.179688,4228.461426,4185.128418,4508.333496,4486.153809,4351.153809,4429.871582,3149.0,1.0,15.0,,,,0.0,4.0,4.0,4.0,4.0,4.0,4.0,4.0,4.0,4.0,4.0,4.0,4.0,4.0,4.0,100.0,,,,,,,,,,,,,,,,,,,,,,,,,,,,,,,,,,,,,,,,,,,,,,,,,,,,,,,,,,,,,,,,,,,,,,,,,,,,,,,,,,,,,,,,,,,,,,,,,,,,,,,,,,,,,,,,,,,,,,,,,,,,,,,,,,,
1725710357.196182,1725710357.197889,240.0,0.0,4248.974121,4220.512695,4266.922852,4312.692383,4195.897461,4232.436035,3852.94873,4232.05127,4231.922852,4183.589844,4517.820313,4493.333496,4354.615234,4431.538574,3418.0,1.0,15.0,,,,0.0,4.0,4.0,4.0,4.0,4.0,4.0,4.0,4.0,4.0,4.0,4.0,4.0,4.0,4.0,100.0,,,,,,,,,,,,,,,,,1.0,0.0,0.0,,,,,,,,,,,,,,,,,,,,,,,,,,,,,,,,,,,,,0.0,0.0,1.0,0.0,512.0,0.0,1.142511,0.70187,0.582188,0.237226,0.105639,1.142225,1.015829,0.572881,0.268221,0.150914,0.778753,0.270092,0.319033,0.15475,0.05681,1.620227,0.735623,0.639779,0.185513,0.166469,0.183231,0.155811,0.151547,0.075936,0.047778,0.161212,0.080935,0.109784,0.07452,0.088735,7.200755,1.126674,0.740504,0.267783,0.140881,0.454176,2.313942,0.914667,0.361347,0.163178,0.581721,1.261827,0.857801,0.336494,0.179866,1.221148,1.084008,0.592934,0.447869,0.152798,1.491127,1.793139,0.872211,0.575175,0.561488,2.2148,1.668006,1.008692,0.355241,0.161186,1.491655,1.708761,1.105594,0.489303,0.209697,1.455138,1.648675,0.918489,0.306028,0.111787
1725710357.200086,1725710357.201693,241.0,0.0,4249.358887,4222.05127,4268.333496,4311.666504,4200.128418,4231.538574,3857.307617,4228.333496,4231.410156,4182.436035,4523.333496,4496.025879,4358.077148,4432.563965,3927.0,1.0,15.0,,,,0.0,4.0,4.0,4.0,4.0,4.0,4.0,4.0,4.0,4.0,4.0,4.0,4.0,4.0,4.0,100.0,,,,,,,,,,,,,,,,,,,,,,,,,,,,,,,,,,,,,,,,,,,,,,,,,,,,,,,,,,,,,,,,,,,,,,,,,,,,,,,,,,,,,,,,,,,,,,,,,,,,,,,,,,,,,,,,,,,,,,,,,,,,,,,,,,,
1725710357.20399,1725710357.205597,242.0,0.0,4248.589844,4221.666504,4268.205078,4304.615234,4198.974121,4228.205078,3860.897461,4221.538574,4226.666504,4180.769043,4520.769043,4491.153809,4358.077148,4431.538574,2907.0,1.0,15.0,,,,0.0,4.0,4.0,4.0,4.0,4.0,4.0,4.0,4.0,4.0,4.0,4.0,4.0,4.0,4.0,100.0,,,,,,,,,,,,,,,,,,,,,,,,,,,,,,,,,,,,,,,,,,,,,,,,,,,,,,,,,,,,,,,,,,,,,,,,,,,,,,,,,,,,,,,,,,,,,,,,,,,,,,,,,,,,,,,,,,,,,,,,,,,,,,,,,,,
1725710357.207894,1725710357.209501,243.0,0.0,4247.563965,4220.128418,4266.282227,4296.410156,4193.205078,4223.589844,3862.564209,4213.589844,4219.615234,4177.692383,4510.384766,4480.769043,4353.205078,4428.205078,3149.0,1.0,15.0,,,,0.0,4.0,4.0,4.0,4.0,4.0,4.0,4.0,4.0,4.0,4.0,4.0,4.0,4.0,4.0,100.0,,,,,,,,,,,,,,,,,,,,,,,,,,,,,,,,,,,,,,,,,,,,,,,,,,,,,,,,,,,,,,,,,,,,,,,,,,,,,,,,,,,,,,,,,,,,,,,,,,,,,,,,,,,,,,,,,,,,,,,,,,,,,,,,,,,
1725710357.211798,1725710357.213405,244.0,0.0,4247.05127,4218.846191,4263.589844,4292.05127,4186.666504,4219.230957,3862.05127,4206.282227,4213.333496,4173.333496,4497.436035,4470.641113,4345.384766,4423.205078,3418.0,1.0,15.0,,,,0.0,4.0,4.0,4.0,4.0,4.0,4.0,4.0,4.0,4.0,4.0,4.0,4.0,4.0,4.0,100.0,,,,,,,,,,,,,,,,,,,,,,,,,,,,,,,,,,,,,,,,,,,,,,,,,,,,,,,,,,,,,,,,,,,,,,,,,,,,,,,,,,,,,,,,,,,,,,,,,,,,,,,,,,,,,,,,,,,,,,,,,,,,,,,,,,,
1725710357.215702,1725710357.21721,245.0,0.0,4246.666504,4218.333496,4261.153809,4292.692383,4183.205078,4217.05127,3860.897461,4201.666504,4210.384766,4169.358887,4487.692383,4465.769043,4338.717773,4418.461426,3927.0,1.0,15.0,,,,0.0,4.0,4.0,4.0,4.0,4.0,4.0,4.0,4.0,4.0,4.0,4.0,4.0,4.0,4.0,100.0,,,,,,,,,,,,,,,,,,,,,,,,,,,,,,,,,,,,,,,,,,,,,,,,,,,,,,,,,,,,,,,,,,,,,,,,,,,,,,,,,,,,,,,,,,,,,,,,,,,,,,,,,,,,,,,,,,,,,,,,,,,,,,,,,,,
1725710357.219606,1725710357.221114,246.0,0.0,4246.153809,4218.333496,4260.128418,4295.512695,4183.846191,4216.922852,3861.025635,4201.025879,4210.897461,4167.05127,4484.615234,4467.563965,4336.538574,4415.641113,2907.0,1.0,15.0,,,,0.0,4.0,4.0,4.0,4.0,4.0,4.0,4.0,4.0,4.0,4.0,4.0,4.0,4.0,4.0,100.0,,,,,,,,,,,,,,,,,,,,,,,,,,,,,,,,,,,,,,,,,,,,,,,,,,,,,,,,,,,,,,,,,,,,,,,,,,,,,,,,,,,,,,,,,,,,,,,,,,,,,,,,,,,,,,,,,,,,,,,,,,,,,,,,,,,
1725710357.22351,1725710357.225018,247.0,0.0,4245.512695,4218.077148,4260.512695,4296.153809,4186.538574,4218.205078,3863.461426,4204.487305,4213.205078,4167.179688,4487.179688,4472.692383,4338.589844,4415.897461,3149.0,1.0,15.0,,,,0.0,4.0,4.0,4.0,4.0,4.0,4.0,4.0,4.0,4.0,4.0,4.0,4.0,4.0,4.0,100.0,,,,,,,,,,,,,,,,,,,,,,,,,,,,,,,,,,,,,,,,,,,,,,,,,,,,,,,,,,,,,,,,,,,,,,,,,,,,,,,,,,,,,,,,,,,,,,,,,,,,,,,,,,,,,,,,,,,,,,,,,,,,,,,,,,,
1725710357.227414,1725710357.228922,248.0,0.0,4245.256348,4217.563965,4261.666504,4292.436035,4188.333496,4219.487305,3867.564209,4210.256348,4215.128418,4168.461426,4491.538574,4476.410156,4341.922852,4418.205078,3418.0,1.0,15.0,,,,0.0,4.0,4.0,4.0,4.0,4.0,4.0,4.0,4.0,4.0,4.0,4.0,4.0,4.0,4.0,100.0,,,,,,,,,,,,,,,,,,,,,,,,,,,,,,,,,,,,,,,,,,,,,,,,,,,,,,,,0.0,0.0,1.0,0.0,512.0,0.0,,,,,,,,,,,,,,,,,,,,,,,,,,,,,,,,,,,,,,,,,,,,,,,,,,,,,,,,,,,,,,,,,,,,,,
1725710357.231319,1725710357.232726,249.0,0.0,4245.384766,4217.179688,4262.692383,4285.897461,4187.692383,4220.128418,3872.435791,4215.641113,4215.256348,4169.487305,4494.358887,4476.538574,4343.717773,4420.256348,3927.0,1.0,15.0,,,,0.0,4.0,4.0,4.0,4.0,4.0,4.0,4.0,4.0,4.0,4.0,4.0,4.0,4.0,4.0,100.0,,,,,,,,,,,,,,,,,,,,,,,,,,,,,,,,,,,,,,,,,,,,,,,,,,,,,,,,,,,,,,,,,,,,,,,,,,,,,,,,,,,,,,,,,,,,,,,,,,,,,,,,,,,,,,,,,,,,,,,,,,,,,,,,,,,
1725710357.235223,1725710357.23663,250.0,0.0,4244.743652,4217.436035,4262.820313,4279.871582,4185.384766,4220.897461,3877.435791,4218.205078,4214.358887,4169.230957,4493.974121,4474.487305,4343.333496,4419.871582,2907.0,1.0,15.0,,,,0.0,4.0,4.0,4.0,4.0,4.0,4.0,4.0,4.0,4.0,4.0,4.0,4.0,4.0,4.0,100.0,,,,,,,,,,,,,,,,,,,,,,,,,,,,,,,,,,,,,,,,,,,,,,,,,,,,,,,,,,,,,,,,,,,,,,,,,,,,,,,,,,,,,,,,,,,,,,,,,,,,,,,,,,,,,,,,,,,,,,,,,,,,,,,,,,,
1725710357.239127,1725710357.240534,251.0,0.0,4242.692383,4218.333496,4262.179688,4276.538574,4183.333496,4222.563965,3881.794922,4217.436035,4213.974121,4168.589844,4491.794922,4472.94873,4342.05127,4416.538574,3149.0,1.0,15.0,,,,0.0,4.0,4.0,4.0,4.0,4.0,4.0,4.0,4.0,4.0,4.0,4.0,4.0,4.0,4.0,100.0,,,,,,,,,,,,,,,,,,,,,,,,,,,,,,,,,,,,,,,,,,,,,,,,,,,,,,,,,,,,,,,,,,,,,,,,,,,,,,,,,,,,,,,,,,,,,,,,,,,,,,,,,,,,,,,,,,,,,,,,,,,,,,,,,,,
1725710357.243031,1725710357.244438,252.0,0.0,4239.102539,4218.589844,4261.282227,4276.282227,4182.563965,4225.384766,3885.128174,4215.0,4214.743652,4168.461426,4489.358887,4472.563965,4340.897461,4412.05127,3418.0,1.0,15.0,,,,0.0,4.0,4.0,4.0,4.0,4.0,4.0,4.0,4.0,4.0,4.0,4.0,4.0,4.0,4.0,100.0,,,,,,,,,,,,,,,,,,,,,,,,,,,,,,,,,,,,,,,,,,,,,,,,,,,,,,,,,,,,,,,,,,,,,,,,,,,,,,,,,,,,,,,,,,,,,,,,,,,,,,,,,,,,,,,,,,,,,,,,,,,,,,,,,,,
1725710357.246935,1725710357.248243,253.0,0.0,4235.512695,4217.94873,4260.512695,4277.692383,4182.820313,4228.205078,3887.564209,4213.333496,4216.282227,4169.358887,4487.820313,4472.436035,4340.256348,4409.230957,3927.0,1.0,15.0,,,,0.0,4.0,4.0,4.0,4.0,4.0,4.0,4.0,4.0,4.0,4.0,4.0,4.0,4.0,4.0,100.0,,,,,,,,,,,,,,,,,,,,,,,,,,,,,,,,,,,,,,,,,,,,,,,,,,,,,,,,,,,,,,,,,,,,,,,,,,,,,,,,,,,,,,,,,,,,,,,,,,,,,,,,,,,,,,,,,,,,,,,,,,,,,,,,,,,
1725710357.250839,1725710357.252147,254.0,0.0,4234.358887,4217.05127,4260.384766,4279.487305,4183.461426,4230.0,3890.384521,4213.974121,4217.563965,4170.256348,4487.05127,4472.436035,4340.128418,4410.384766,2907.0,1.0,15.0,,,,0.0,4.0,4.0,4.0,4.0,4.0,4.0,4.0,4.0,4.0,4.0,4.0,4.0,4.0,4.0,100.0,,,,,,,,,,,,,,,,,,,,,,,,,,,,,,,,,,,,,,,,,,,,,,,,,,,,,,,,,,,,,,,,,,,,,,,,,,,,,,,,,,,,,,,,,,,,,,,,,,,,,,,,,,,,,,,,,,,,,,,,,,,,,,,,,,,
1725710357.254743,1725710357.256051,255.0,0.0,4236.410156,4217.436035,4260.897461,4280.512695,4184.230957,4230.256348,3894.615479,4216.794922,4217.94873,4170.256348,4487.692383,4473.461426,4341.282227,4415.384766,15.0,1.0,15.0,,,,0.0,4.0,4.0,4.0,4.0,4.0,4.0,4.0,4.0,4.0,4.0,4.0,4.0,4.0,4.0,100.0,,,,,,,,,,,,,,,,,,,,,,,,,,,,,,,,,,,,,,,,,,,,,,,,,,,,,,,,,,,,,,,,,,,,,,,,,,,,,,,,,,,,,,,,,,,,,,,,,,,,,,,,,,,,,,,,,,,,,,,,,,,,,,,,,,,
1725710357.258647,1725710357.260055,0.0,0.0,4240.897461,4220.0,4261.538574,4280.256348,4185.641113,4230.128418,3900.0,4219.487305,4217.692383,4169.871582,4490.512695,4476.794922,4344.102539,4422.05127,2705.0,1.0,15.0,,,,0.0,4.0,4.0,4.0,4.0,4.0,4.0,4.0,4.0,4.0,4.0,4.0,4.0,4.0,4.0,100.0,,,,,,,,,,,,,,,,,,,,,,,,,,,,,,,,,,,,,,,,,,,,,,,,,,,,,,,,0.0,0.0,1.0,0.0,512.0,0.0,,,,,,,,,,,,,,,,,,,,,,,,,,,,,,,,,,,,,,,,,,,,,,,,,,,,,,,,,,,,,,,,,,,,,,
1725710357.262551,1725710357.263959,1.0,0.0,4245.641113,4223.333496,4262.05127,4278.717773,4187.436035,4230.641113,3905.128174,4220.641113,4216.922852,4170.128418,4495.128418,4482.05127,4347.820313,4427.436035,2588.0,1.0,15.0,,,,0.0,4.0,4.0,4.0,4.0,4.0,4.0,4.0,4.0,4.0,4.0,4.0,4.0,4.0,4.0,100.0,,,,,,,,,,,,,,,,,,,,,,,,,,,,,,,,,,,,,,,,,,,,,,,,,,,,,,,,,,,,,,,,,,,,,,,,,,,,,,,,,,,,,,,,,,,,,,,,,,,,,,,,,,,,,,,,,,,,,,,,,,,,,,,,,,,
1725710357.266456,1725710357.267863,2.0,0.0,4247.820313,4225.128418,4262.307617,4277.563965,4188.974121,4231.666504,3908.333252,4220.128418,4216.153809,4171.410156,4499.102539,4487.05127,4350.256348,4429.615234,2513.0,1.0,15.0,,,,0.0,4.0,4.0,4.0,4.0,4.0,4.0,4.0,4.0,4.0,4.0,4.0,4.0,4.0,4.0,100.0,,,,,,,,,,,,,,,,,,,,,,,,,,,,,,,,,,,,,,,,,,,,,,,,,,,,,,,,,,,,,,,,,,,,,,,,,,,,,,,,,,,,,,,,,,,,,,,,,,,,,,,,,,,,,,,,,,,,,,,,,,,,,,,,,,,
1725710357.27036,1725710357.271867,3.0,0.0,4246.282227,4223.461426,4262.436035,4278.717773,4189.358887,4232.179688,3908.974365,4219.230957,4215.512695,4172.94873,4499.615234,4490.128418,4350.641113,4429.102539,2481.0,1.0,15.0,,,,0.0,4.0,4.0,4.0,4.0,4.0,4.0,4.0,4.0,4.0,4.0,4.0,4.0,4.0,4.0,100.0,,,,,,,,,,,,,,,,,,,,,,,,,,,,,,,,,,,,,,,,,,,,,,,,,,,,,,,,,,,,,,,,,,,,,,,,,,,,,,,,,,,,,,,,,,,,,,,,,,,,,,,,,,,,,,,,,,,,,,,,,,,,,,,,,,,
1725710357.274264,1725710357.275771,4.0,0.0,4243.205078,4218.846191,4262.563965,4282.94873,4188.717773,4231.922852,3908.718018,4219.230957,4215.897461,4173.461426,4496.922852,4491.538574,4350.0,4427.563965,2453.0,1.0,15.0,,,,0.0,4.0,4.0,4.0,4.0,4.0,4.0,4.0,4.0,4.0,4.0,4.0,4.0,4.0,4.0,100.0,,,,,,,,,,,,,,,,,,,,,,,,,,,,,,,,,,,,,,,,,,,,,,,,,,,,,,,,,,,,,,,,,,,,,,,,,,,,,,,,,,,,,,,,,,,,,,,,,,,,,,,,,,,,,,,,,,,,,,,,,,,,,,,,,,,
1725710357.278168,1725710357.279675,5.0,0.0,4241.794922,4215.0,4262.94873,4288.589844,4188.205078,4231.410156,3910.0,4220.0,4217.820313,4173.077148,4493.589844,4492.307617,4350.512695,4427.436035,2408.0,1.0,15.0,,,,0.0,4.0,4.0,4.0,4.0,4.0,4.0,4.0,4.0,4.0,4.0,4.0,4.0,4.0,4.0,100.0,,,,,,,,,,,,,,,,,,,,,,,,,,,,,,,,,,,,,,,,,,,,,,,,,,,,,,,,,,,,,,,,,,,,,,,,,,,,,,,,,,,,,,,,,,,,,,,,,,,,,,,,,,,,,,,,,,,,,,,,,,,,,,,,,,,
1725710357.282072,1725710357.283579,6.0,0.0,4244.102539,4215.384766,4263.589844,4292.563965,4188.461426,4231.025879,3914.230713,4221.153809,4220.641113,4172.307617,4492.563965,4493.333496,4352.94873,4429.358887,2459.0,1.0,15.0,,,,0.0,4.0,4.0,4.0,4.0,4.0,4.0,4.0,4.0,4.0,4.0,4.0,4.0,4.0,4.0,100.0,,,,,,,,,,,,,,,,,,,,,,,,,,,,,,,,,,,,,,,,,,,,,,,,,,,,,,,,,,,,,,,,,,,,,,,,,,,,,,,,,,,,,,,,,,,,,,,,,,,,,,,,,,,,,,,,,,,,,,,,,,,,,,,,,,,
1725710357.285976,1725710357.287484,7.0,0.0,4248.333496,4220.641113,4263.846191,4293.846191,4189.230957,4231.025879,3920.897461,4221.538574,4222.307617,4172.307617,4493.589844,4493.974121,4355.769043,4432.05127,2491.0,1.0,15.0,,,,0.0,4.0,4.0,4.0,4.0,4.0,4.0,4.0,4.0,4.0,4.0,4.0,4.0,4.0,4.0,100.0,,,,,,,,,,,,,,,,,,,,,,,,,,,,,,,,,,,,,,,,,,,,,,,,,,,,,,,,,,,,,,,,,,,,,,,,,,,,,,,,,,,,,,,,,,,,,,,,,,,,,,,,,,,,,,,,,,,,,,,,,,,,,,,,,,,
1725710357.28988,1725710357.291388,8.0,0.0,4250.256348,4227.307617,4263.461426,4293.461426,4190.0,4230.769043,3927.05127,4220.641113,4221.794922,4173.974121,4493.846191,4493.205078,4355.769043,4433.461426,2478.0,1.0,15.0,,,,0.0,4.0,4.0,4.0,4.0,4.0,4.0,4.0,4.0,4.0,4.0,4.0,4.0,4.0,4.0,100.0,,,,,,,,,,,,,,,,,,,,,,,,,,,,,,,,,,,,,,,,,,,,,,,,,,,,,,,,0.0,0.0,1.0,0.0,512.0,0.0,,,,,,,,,,,,,,,,,,,,,,,,,,,,,,,,,,,,,,,,,,,,,,,,,,,,,,,,,,,,,,,,,,,,,,
1725710357.293784,1725710357.295192,9.0,0.0,4247.563965,4230.769043,4262.563965,4293.205078,4190.128418,4229.615234,3930.256348,4218.205078,4219.487305,4177.05127,4490.384766,4490.897461,4352.179688,4432.179688,2556.0,1.0,15.0,,,,0.0,4.0,4.0,4.0,4.0,4.0,4.0,4.0,4.0,4.0,4.0,4.0,4.0,4.0,4.0,100.0,,,,,,,,,,,,,,,,,,,,,,,,,,,,,,,,,,,,,,,,,,,,,,,,,,,,,,,,,,,,,,,,,,,,,,,,,,,,,,,,,,,,,,,,,,,,,,,,,,,,,,,,,,,,,,,,,,,,,,,,,,,,,,,,,,,
1725710357.297688,1725710357.299096,10.0,0.0,4241.666504,4228.333496,4261.538574,4293.589844,4189.615234,4228.205078,3929.871826,4215.256348,4217.436035,4180.512695,4484.102539,4487.94873,4346.794922,4429.230957,2914.0,1.0,15.0,,,,0.0,4.0,4.0,4.0,4.0,4.0,4.0,4.0,4.0,4.0,4.0,4.0,4.0,4.0,4.0,100.0,,,,,,,,,,,,,,,,,,,,,,,,,,,,,,,,,,,,,,,,,,,,,,,,,,,,,,,,,,,,,,,,,,,,,,,,,,,,,,,,,,,,,,,,,,,,,,,,,,,,,,,,,,,,,,,,,,,,,,,,,,,,,,,,,,,
1725710357.301592,1725710357.303,11.0,0.0,4236.282227,4221.538574,4261.025879,4293.205078,4188.846191,4227.692383,3927.564209,4213.333496,4217.820313,4183.077148,4478.974121,4486.025879,4343.589844,4426.922852,3152.0,1.0,15.0,,,,0.0,4.0,4.0,4.0,4.0,4.0,4.0,4.0,4.0,4.0,4.0,4.0,4.0,4.0,4.0,100.0,,,,,,,,,,,,,,,,,,,,,,,,,,,,,,,,,,,,,,,,,,,,,,,,,,,,,,,,,,,,,,,,,,,,,,,,,,,,,,,,,,,,,,,,,,,,,,,,,,,,,,,,,,,,,,,,,,,,,,,,,,,,,,,,,,,
1725710357.305497,1725710357.306804,12.0,0.0,4234.615234,4215.384766,4260.897461,4290.769043,4188.846191,4228.846191,3926.153809,4213.589844,4220.897461,4183.974121,4479.487305,4486.025879,4345.512695,4426.922852,3433.0,1.0,15.0,,,,0.0,4.0,4.0,4.0,4.0,4.0,4.0,4.0,4.0,4.0,4.0,4.0,4.0,4.0,4.0,100.0,,,,,,,,,,,,,,,,,,,,,,,,,,,,,,,,,,,,,,,,,,,,,,,,,,,,,,,,,,,,,,,,,,,,,,,,,,,,,,,,,,,,,,,,,,,,,,,,,,,,,,,,,,,,,,,,,,,,,,,,,,,,,,,,,,,
1725710357.309401,1725710357.310708,13.0,0.0,4237.436035,4214.487305,4261.153809,4287.179688,4189.615234,4231.153809,3927.307617,4215.897461,4225.256348,4183.846191,4486.410156,4488.077148,4352.436035,4429.358887,3934.0,1.0,15.0,,,,0.0,4.0,4.0,4.0,4.0,4.0,4.0,4.0,4.0,4.0,4.0,4.0,4.0,4.0,4.0,100.0,,,,,,,,,,,,,,,,,,,,,,,,,,,,,,,,,,,,,,,,,,,,,,,,,,,,,,,,,,,,,,,,,,,,,,,,,,,,,,,,,,,,,,,,,,,,,,,,,,,,,,,,,,,,,,,,,,,,,,,,,,,,,,,,,,,
1725710357.313305,1725710357.314612,14.0,0.0,4242.820313,4219.871582,4261.666504,4285.256348,4190.384766,4232.94873,3929.871826,4218.717773,4229.615234,4183.846191,4496.282227,4491.282227,4360.641113,4432.436035,2914.0,1.0,15.0,,,,0.0,4.0,4.0,4.0,4.0,4.0,4.0,4.0,4.0,4.0,4.0,4.0,4.0,4.0,4.0,100.0,,,,,,,,,,,,,,,,,,,,,,,,,,,,,,,,,,,,,,,,,,,,,,,,,,,,,,,,,,,,,,,,,,,,,,,,,,,,,,,,,,,,,,,,,,,,,,,,,,,,,,,,,,,,,,,,,,,,,,,,,,,,,,,,,,,
1725710357.317209,1725710357.318616,15.0,0.0,4248.205078,4227.94873,4262.307617,4286.922852,4190.384766,4232.307617,3931.410156,4220.769043,4232.563965,4184.487305,4503.461426,4493.717773,4365.256348,4434.230957,3152.0,1.0,15.0,,,,0.0,4.0,4.0,4.0,4.0,4.0,4.0,4.0,4.0,4.0,4.0,4.0,4.0,4.0,4.0,100.0,,,,,,,,,,,,,,,,,,,,,,,,,,,,,,,,,,,,,,,,,,,,,,,,,,,,,,,,,,,,,,,,,,,,,,,,,,,,,,,,,,,,,,,,,,,,,,,,,,,,,,,,,,,,,,,,,,,,,,,,,,,,,,,,,,,
1725710357.321113,1725710357.322521,16.0,0.0,4251.410156,4233.461426,4263.077148,4291.538574,4189.102539,4228.461426,3930.256348,4220.641113,4233.333496,4185.769043,4504.230957,4494.102539,4364.102539,4433.717773,3433.0,1.0,15.0,,,,0.0,4.0,4.0,4.0,4.0,4.0,4.0,4.0,4.0,4.0,4.0,4.0,4.0,4.0,4.0,100.0,1.0,75.0,4.0,4.0,4.0,4.0,4.0,4.0,1.0,4.0,4.0,4.0,4.0,4.0,4.0,4.0,1.0,0.0,0.0,,,,,,,,,,,,,,,,,,,,,,,,,,,,,,,,,,,,,0.0,0.0,1.0,0.0,512.0,0.0,1.142943,0.566883,0.433221,0.200854,0.10361,1.120137,0.840761,0.442841,0.295652,0.157123,0.674069,0.267931,0.289051,0.148301,0.061412,1.40614,0.744846,0.543611,0.202619,0.172166,0.136134,0.115061,0.133557,0.072261,0.089933,0.196062,0.109667,0.100443,0.070534,0.095399,7.0999,1.068517,0.721205,0.290925,0.156551,0.522614,2.046772,0.969291,0.350645,0.16669,0.625131,0.921585,0.812041,0.335394,0.188527,1.368501,0.86868,0.564629,0.405161,0.159169,1.622884,1.617628,0.806213,0.553121,0.620351,2.230331,1.335741,0.933885,0.349941,0.182834,1.922556,1.590293,0.826986,0.422888,0.224814,1.540362,1.356975,0.741805,0.283743,0.105526
1725710357.325017,1725710357.326425,17.0,0.0,4250.641113,4232.820313,4263.205078,4295.512695,4187.436035,4222.563965,3927.564209,4218.846191,4231.538574,4186.538574,4499.102539,4492.563965,4358.333496,4431.153809,3934.0,1.0,15.0,,,,0.0,4.0,4.0,4.0,4.0,4.0,4.0,4.0,4.0,4.0,4.0,4.0,4.0,4.0,4.0,100.0,,,,,,,,,,,,,,,,,,,,,,,,,,,,,,,,,,,,,,,,,,,,,,,,,,,,,,,,,,,,,,,,,,,,,,,,,,,,,,,,,,,,,,,,,,,,,,,,,,,,,,,,,,,,,,,,,,,,,,,,,,,,,,,,,,,
1725710357.328921,1725710357.330329,18.0,0.0,4246.282227,4226.538574,4262.436035,4295.0,4186.153809,4217.563965,3925.641113,4216.153809,4228.077148,4185.897461,4492.179688,4490.128418,4351.410156,4428.077148,2914.0,1.0,15.0,,,,0.0,4.0,4.0,4.0,4.0,4.0,4.0,4.0,4.0,4.0,4.0,4.0,4.0,4.0,4.0,100.0,,,,,,,,,,,,,,,,,,,,,,,,,,,,,,,,,,,,,,,,,,,,,,,,,,,,,,,,,,,,,,,,,,,,,,,,,,,,,,,,,,,,,,,,,,,,,,,,,,,,,,,,,,,,,,,,,,,,,,,,,,,,,,,,,,,
1725710357.332825,1725710357.334233,19.0,0.0,4240.256348,4218.589844,4260.384766,4289.230957,4185.897461,4215.897461,3925.512939,4214.358887,4224.487305,4184.102539,4487.94873,4488.077148,4346.410156,4425.769043,3152.0,1.0,15.0,,,,0.0,4.0,4.0,4.0,4.0,4.0,4.0,4.0,4.0,4.0,4.0,4.0,4.0,4.0,4.0,100.0,,,,,,,,,,,,,,,,,,,,,,,,,,,,,,,,,,,,,,,,,,,,,,,,,,,,,,,,,,,,,,,,,,,,,,,,,,,,,,,,,,,,,,,,,,,,,,,,,,,,,,,,,,,,,,,,,,,,,,,,,,,,,,,,,,,
1725710357.336729,1725710357.338037,20.0,0.0,4235.384766,4213.589844,4258.077148,4281.666504,4186.538574,4218.846191,3926.410156,4214.358887,4222.692383,4182.563965,4488.461426,4487.563965,4344.615234,4425.256348,3433.0,1.0,15.0,,,,0.0,4.0,4.0,4.0,4.0,4.0,4.0,4.0,4.0,4.0,4.0,4.0,4.0,4.0,4.0,100.0,,,,,,,,,,,,,,,,,,,,,,,,,,,,,,,,,,,,,,,,,,,,,,,,,,,,,,,,,,,,,,,,,,,,,,,,,,,,,,,,,,,,,,,,,,,,,,,,,,,,,,,,,,,,,,,,,,,,,,,,,,,,,,,,,,,
1725710357.340634,1725710357.341941,21.0,0.0,4233.846191,4214.230957,4256.922852,4277.692383,4188.205078,4224.743652,3926.666748,4216.025879,4223.589844,4182.436035,4491.794922,4488.589844,4346.025879,4426.282227,3934.0,1.0,15.0,,,,0.0,4.0,4.0,4.0,4.0,4.0,4.0,4.0,4.0,4.0,4.0,4.0,4.0,4.0,4.0,100.0,,,,,,,,,,,,,,,,,,,,,,,,,,,,,,,,,,,,,,,,,,,,,,,,,,,,,,,,,,,,,,,,,,,,,,,,,,,,,,,,,,,,,,,,,,,,,,,,,,,,,,,,,,,,,,,,,,,,,,,,,,,,,,,,,,,
1725710357.344538,1725710357.345845,22.0,0.0,4236.282227,4219.871582,4257.820313,4280.256348,4189.743652,4230.512695,3926.025635,4218.589844,4226.666504,4183.333496,4494.102539,4490.384766,4349.743652,4428.205078,2914.0,1.0,15.0,,,,0.0,4.0,4.0,4.0,4.0,4.0,4.0,4.0,4.0,4.0,4.0,4.0,4.0,4.0,4.0,100.0,,,,,,,,,,,,,,,,,,,,,,,,,,,,,,,,,,,,,,,,,,,,,,,,,,,,,,,,,,,,,,,,,,,,,,,,,,,,,,,,,,,,,,,,,,,,,,,,,,,,,,,,,,,,,,,,,,,,,,,,,,,,,,,,,,,
1725710357.348442,1725710357.349749,23.0,0.0,4241.153809,4227.05127,4260.128418,4287.692383,4189.871582,4233.846191,3925.769287,4220.512695,4230.384766,4184.102539,4493.589844,4492.179688,4354.743652,4430.128418,3152.0,1.0,15.0,,,,0.0,4.0,4.0,4.0,4.0,4.0,4.0,4.0,4.0,4.0,4.0,4.0,4.0,4.0,4.0,100.0,,,,,,,,,,,,,,,,,,,,,,,,,,,,,,,,,,,,,,,,,,,,,,,,,,,,,,,,,,,,,,,,,,,,,,,,,,,,,,,,,,,,,,,,,,,,,,,,,,,,,,,,,,,,,,,,,,,,,,,,,,,,,,,,,,,
1725710357.352346,1725710357.353554,24.0,0.0,4246.025879,4232.820313,4262.563965,4294.743652,4188.077148,4234.230957,3926.153809,4220.641113,4232.692383,4184.102539,4491.794922,4493.077148,4359.871582,4431.538574,3433.0,1.0,15.0,,,,0.0,4.0,4.0,4.0,4.0,4.0,4.0,4.0,4.0,4.0,4.0,4.0,4.0,4.0,4.0,100.0,,,,,,,,,,,,,,,,,,,,,,,,,,,,,,,,,,,,,,,,,,,,,,,,,,,,,,,,0.0,0.0,1.0,0.0,512.0,0.0,,,,,,,,,,,,,,,,,,,,,,,,,,,,,,,,,,,,,,,,,,,,,,,,,,,,,,,,,,,,,,,,,,,,,,
1725710357.35625,1725710357.357458,25.0,0.0,4248.846191,4235.256348,4263.333496,4296.922852,4185.512695,4232.820313,3926.538574,4219.230957,4232.820313,4184.615234,4491.153809,4493.077148,4363.717773,4431.922852,3934.0,1.0,15.0,,,,0.0,4.0,4.0,4.0,4.0,4.0,4.0,4.0,4.0,4.0,4.0,4.0,4.0,4.0,4.0,100.0,,,,,,,,,,,,,,,,,,,,,,,,,,,,,,,,,,,,,,,,,,,,,,,,,,,,,,,,,,,,,,,,,,,,,,,,,,,,,,,,,,,,,,,,,,,,,,,,,,,,,,,,,,,,,,,,,,,,,,,,,,,,,,,,,,,
1725710357.360154,1725710357.361362,26.0,0.0,4248.461426,4234.615234,4262.692383,4294.487305,4184.871582,4231.153809,3925.897461,4217.307617,4231.794922,4187.179688,4493.077148,4493.589844,4365.769043,4431.922852,2914.0,1.0,15.0,,,,0.0,4.0,4.0,4.0,4.0,4.0,4.0,4.0,4.0,4.0,4.0,4.0,4.0,4.0,4.0,100.0,,,,,,,,,,,,,,,,,,,,,,,,,,,,,,,,,,,,,,,,,,,,,,,,,,,,,,,,,,,,,,,,,,,,,,,,,,,,,,,,,,,,,,,,,,,,,,,,,,,,,,,,,,,,,,,,,,,,,,,,,,,,,,,,,,,
1725710357.364058,1725710357.365366,27.0,0.0,4246.153809,4232.692383,4262.05127,4291.025879,4187.179688,4230.128418,3924.615479,4216.666504,4230.897461,4191.666504,4497.307617,4495.769043,4366.538574,4432.436035,3152.0,1.0,15.0,,,,0.0,4.0,4.0,4.0,4.0,4.0,4.0,4.0,4.0,4.0,4.0,4.0,4.0,4.0,4.0,100.0,,,,,,,,,,,,,,,,,,,,,,,,,,,,,,,,,,,,,,,,,,,,,,,,,,,,,,,,,,,,,,,,,,,,,,,,,,,,,,,,,,,,,,,,,,,,,,,,,,,,,,,,,,,,,,,,,,,,,,,,,,,,,,,,,,,
1725710357.367962,1725710357.36927,28.0,0.0,4244.358887,4231.282227,4262.563965,4290.384766,4191.025879,4230.256348,3924.230713,4218.205078,4231.410156,4196.025879,4502.05127,4500.256348,4367.05127,4434.102539,3433.0,1.0,15.0,,,,0.0,4.0,4.0,4.0,4.0,4.0,4.0,4.0,4.0,4.0,4.0,4.0,4.0,4.0,4.0,100.0,,,,,,,,,,,,,,,,,,,,,,,,,,,,,,,,,,,,,,,,,,,,,,,,,,,,,,,,,,,,,,,,,,,,,,,,,,,,,,,,,,,,,,,,,,,,,,,,,,,,,,,,,,,,,,,,,,,,,,,,,,,,,,,,,,,
1725710357.371866,1725710357.373174,29.0,0.0,4245.128418,4231.410156,4264.743652,4292.94873,4193.846191,4230.897461,3926.153809,4221.922852,4233.077148,4197.563965,4505.897461,4505.512695,4368.077148,4436.538574,3934.0,1.0,15.0,,,,0.0,4.0,4.0,4.0,4.0,4.0,4.0,4.0,4.0,4.0,4.0,4.0,4.0,4.0,4.0,100.0,,,,,,,,,,,,,,,,,,,,,,,,,,,,,,,,,,,,,,,,,,,,,,,,,,,,,,,,,,,,,,,,,,,,,,,,,,,,,,,,,,,,,,,,,,,,,,,,,,,,,,,,,,,,,,,,,,,,,,,,,,,,,,,,,,,
1725710357.37577,1725710357.377178,30.0,0.0,4248.205078,4232.820313,4267.436035,4296.666504,4193.974121,4231.538574,3930.128174,4226.410156,4234.743652,4195.128418,4508.205078,4509.358887,4369.102539,4438.717773,2914.0,1.0,15.0,,,,0.0,4.0,4.0,4.0,4.0,4.0,4.0,4.0,4.0,4.0,4.0,4.0,4.0,4.0,4.0,100.0,,,,,,,,,,,,,,,,,,,,,,,,,,,,,,,,,,,,,,,,,,,,,,,,,,,,,,,,,,,,,,,,,,,,,,,,,,,,,,,,,,,,,,,,,,,,,,,,,,,,,,,,,,,,,,,,,,,,,,,,,,,,,,,,,,,
1725710357.379675,1725710357.381082,31.0,0.0,4251.282227,4234.743652,4268.717773,4299.230957,4192.436035,4231.794922,3934.871826,4230.256348,4235.0,4189.871582,4509.102539,4510.256348,4369.230957,4439.358887,3152.0,1.0,15.0,,,,0.0,4.0,4.0,4.0,4.0,4.0,4.0,4.0,4.0,4.0,4.0,4.0,4.0,4.0,4.0,100.0,,,,,,,,,,,,,,,,,,,,,,,,,,,,,,,,,,,,,,,,,,,,,,,,,,,,,,,,,,,,,,,,,,,,,,,,,,,,,,,,,,,,,,,,,,,,,,,,,,,,,,,,,,,,,,,,,,,,,,,,,,,,,,,,,,,
1725710357.383579,1725710357.384986,32.0,0.0,4252.179688,4236.282227,4267.692383,4299.487305,4191.922852,4232.05127,3939.487061,4232.436035,4233.717773,4185.256348,4509.358887,4508.333496,4368.077148,4438.205078,0.0,1.0,15.0,,,,0.0,4.0,4.0,4.0,4.0,4.0,4.0,4.0,4.0,4.0,4.0,4.0,4.0,4.0,4.0,100.0,,,,,,,,,,,,,,,,,,,,,,,,,,,,,,,,,,,,,,,,,,,,,,,,,,,,,,,,0.0,0.0,1.0,0.0,512.0,0.0,,,,,,,,,,,,,,,,,,,,,,,,,,,,,,,,,,,,,,,,,,,,,,,,,,,,,,,,,,,,,,,,,,,,,,
1725710357.387483,1725710357.38889,33.0,0.0,4251.025879,4237.05127,4265.128418,4297.820313,4193.461426,4232.436035,3943.718018,4233.077148,4232.563965,4183.846191,4509.487305,4505.769043,4366.153809,4436.153809,0.0,1.0,15.0,,,,0.0,4.0,4.0,4.0,4.0,4.0,4.0,4.0,4.0,4.0,4.0,4.0,4.0,4.0,4.0,100.0,,,,,,,,,,,,,,,,,,,,,,,,,,,,,,,,,,,,,,,,,,,,,,,,,,,,,,,,,,,,,,,,,,,,,,,,,,,,,,,,,,,,,,,,,,,,,,,,,,,,,,,,,,,,,,,,,,,,,,,,,,,,,,,,,,,
1725710357.391387,1725710357.392794,34.0,0.0,4249.615234,4236.922852,4262.94873,4295.512695,4196.538574,4232.94873,3947.94873,4232.820313,4232.820313,4185.897461,4509.487305,4504.487305,4365.0,4434.615234,0.0,1.0,15.0,,,,0.0,4.0,4.0,4.0,4.0,4.0,4.0,4.0,4.0,4.0,4.0,4.0,4.0,4.0,4.0,100.0,,,,,,,,,,,,,,,,,,,,,,,,,,,,,,,,,,,,,,,,,,,,,,,,,,,,,,,,,,,,,,,,,,,,,,,,,,,,,,,,,,,,,,,,,,,,,,,,,,,,,,,,,,,,,,,,,,,,,,,,,,,,,,,,,,,
1725710357.395291,1725710357.396599,35.0,0.0,4249.102539,4236.282227,4262.692383,4294.230957,4198.846191,4233.333496,3952.05127,4231.666504,4234.230957,4188.846191,4508.974121,4505.128418,4365.256348,4434.358887,0.0,1.0,15.0,,,,0.0,4.0,4.0,4.0,4.0,4.0,4.0,4.0,4.0,4.0,4.0,4.0,4.0,4.0,4.0,100.0,,,,,,,,,,,,,,,,,,,,,,,,,,,,,,,,,,,,,,,,,,,,,,,,,,,,,,,,,,,,,,,,,,,,,,,,,,,,,,,,,,,,,,,,,,,,,,,,,,,,,,,,,,,,,,,,,,,,,,,,,,,,,,,,,,,
1725710357.399195,1725710357.400503,36.0,0.0,4249.487305,4235.512695,4263.461426,4294.871582,4198.461426,4233.589844,3955.256348,4229.358887,4235.512695,4189.871582,4507.179688,4506.025879,4366.282227,4434.871582,0.0,1.0,15.0,,,,0.0,4.0,4.0,4.0,4.0,4.0,4.0,4.0,4.0,4.0,4.0,4.0,4.0,4.0,4.0,100.0,,,,,,,,,,,,,,,,,,,,,,,,,,,,,,,,,,,,,,,,,,,,,,,,,,,,,,,,,,,,,,,,,,,,,,,,,,,,,,,,,,,,,,,,,,,,,,,,,,,,,,,,,,,,,,,,,,,,,,,,,,,,,,,,,,,
1725710357.403099,1725710357.404407,37.0,0.0,4249.615234,4235.384766,4263.333496,4296.666504,4195.256348,4233.589844,3956.794922,4226.025879,4235.512695,4188.077148,4504.102539,4505.897461,4366.794922,4435.128418,0.0,1.0,15.0,,,,0.0,4.0,4.0,4.0,4.0,4.0,4.0,4.0,4.0,4.0,4.0,4.0,4.0,4.0,4.0,100.0,,,,,,,,,,,,,,,,,,,,,,,,,,,,,,,,,,,,,,,,,,,,,,,,,,,,,,,,,,,,,,,,,,,,,,,,,,,,,,,,,,,,,,,,,,,,,,,,,,,,,,,,,,,,,,,,,,,,,,,,,,,,,,,,,,,
1725710357.407003,1725710357.408311,38.0,0.0,4249.102539,4236.025879,4260.897461,4298.077148,4190.641113,4233.205078,3957.435791,4223.205078,4234.743652,4184.871582,4501.794922,4504.615234,4366.410156,4434.487305,0.0,1.0,15.0,,,,0.0,4.0,4.0,4.0,4.0,4.0,4.0,4.0,4.0,4.0,4.0,4.0,4.0,4.0,4.0,100.0,,,,,,,,,,,,,,,,,,,,,,,,,,,,,,,,,,,,,,,,,,,,,,,,,,,,,,,,,,,,,,,,,,,,,,,,,,,,,,,,,,,,,,,,,,,,,,,,,,,,,,,,,,,,,,,,,,,,,,,,,,,,,,,,,,,
1725710357.410907,1725710357.412115,39.0,0.0,4248.205078,4236.666504,4256.153809,4297.563965,4186.922852,4232.820313,3958.461426,4223.205078,4233.461426,4182.436035,4502.436035,4503.461426,4365.769043,4432.94873,0.0,1.0,15.0,,,,0.0,4.0,4.0,4.0,4.0,4.0,4.0,4.0,4.0,4.0,4.0,4.0,4.0,4.0,4.0,100.0,,,,,,,,,,,,,,,,,,,,,,,,,,,,,,,,,,,,,,,,,,,,,,,,,,,,,,,,,,,,,,,,,,,,,,,,,,,,,,,,,,,,,,,,,,,,,,,,,,,,,,,,,,,,,,,,,,,,,,,,,,,,,,,,,,,
1725710357.414811,1725710357.416019,40.0,0.0,4247.820313,4236.282227,4251.153809,4295.641113,4185.512695,4232.820313,3961.538574,4226.538574,4232.307617,4182.05127,4506.282227,4503.077148,4366.410156,4431.410156,0.0,1.0,15.0,,,,0.0,4.0,4.0,4.0,4.0,4.0,4.0,4.0,4.0,4.0,4.0,4.0,4.0,4.0,4.0,100.0,,,,,,,,,,,,,,,,,,,,,,,,,,,,,,,,,,,,,,,,,,,,,,,,,,,,,,,,0.0,0.0,1.0,0.0,512.0,0.0,,,,,,,,,,,,,,,,,,,,,,,,,,,,,,,,,,,,,,,,,,,,,,,,,,,,,,,,,,,,,,,,,,,,,,
1725710357.418715,1725710357.419923,41.0,0.0,4248.589844,4235.256348,4247.820313,4294.102539,4186.538574,4233.333496,3966.538574,4231.282227,4231.794922,4183.077148,4510.128418,4502.820313,4368.333496,4430.384766,0.0,1.0,15.0,,,,0.0,4.0,4.0,4.0,4.0,4.0,4.0,4.0,4.0,4.0,4.0,4.0,4.0,4.0,4.0,100.0,,,,,,,,,,,,,,,,,,,,,,,,,,,,,,,,,,,,,,,,,,,,,,,,,,,,,,,,,,,,,,,,,,,,,,,,,,,,,,,,,,,,,,,,,,,,,,,,,,,,,,,,,,,,,,,,,,,,,,,,,,,,,,,,,,,
1725710357.422619,1725710357.423927,42.0,0.0,4250.0,4234.743652,4246.666504,4293.846191,4188.205078,4233.846191,3971.538574,4233.846191,4232.436035,4184.358887,4509.615234,4501.410156,4370.0,4430.128418,0.0,1.0,15.0,,,,0.0,4.0,4.0,4.0,4.0,4.0,4.0,4.0,4.0,4.0,4.0,4.0,4.0,4.0,4.0,100.0,,,,,,,,,,,,,,,,,,,,,,,,,,,,,,,,,,,,,,,,,,,,,,,,,,,,,,,,,,,,,,,,,,,,,,,,,,,,,,,,,,,,,,,,,,,,,,,,,,,,,,,,,,,,,,,,,,,,,,,,,,,,,,,,,,,
1725710357.426524,1725710357.427831,43.0,0.0,4250.897461,4235.641113,4247.179688,4294.102539,4189.102539,4233.846191,3974.358887,4231.410156,4233.589844,4185.0,4503.974121,4498.077148,4370.256348,4429.871582,0.0,1.0,15.0,,,,0.0,4.0,4.0,4.0,4.0,4.0,4.0,4.0,4.0,4.0,4.0,4.0,4.0,4.0,4.0,100.0,,,,,,,,,,,,,,,,,,,,,,,,,,,,,,,,,,,,,,,,,,,,,,,,,,,,,,,,,,,,,,,,,,,,,,,,,,,,,,,,,,,,,,,,,,,,,,,,,,,,,,,,,,,,,,,,,,,,,,,,,,,,,,,,,,,
1725710357.430428,1725710357.431736,44.0,0.0,4250.512695,4237.820313,4247.94873,4293.717773,4188.846191,4232.94873,3973.718018,4224.358887,4233.846191,4185.256348,4496.794922,4493.205078,4368.717773,4429.487305,0.0,1.0,15.0,,,,0.0,4.0,4.0,4.0,4.0,4.0,4.0,4.0,4.0,4.0,4.0,4.0,4.0,4.0,4.0,100.0,,,,,,,,,,,,,,,,,,,,,,,,,,,,,,,,,,,,,,,,,,,,,,,,,,,,,,,,,,,,,,,,,,,,,,,,,,,,,,,,,,,,,,,,,,,,,,,,,,,,,,,,,,,,,,,,,,,,,,,,,,,,,,,,,,,
1725710357.434332,1725710357.43564,45.0,0.0,4248.589844,4239.615234,4248.333496,4292.179688,4187.820313,4231.410156,3970.897461,4216.025879,4231.666504,4185.641113,4493.205078,4488.974121,4366.922852,4428.846191,0.0,1.0,15.0,,,,0.0,4.0,4.0,4.0,4.0,4.0,4.0,4.0,4.0,4.0,4.0,4.0,4.0,4.0,4.0,100.0,,,,,,,,,,,,,,,,,,,,,,,,,,,,,,,,,,,,,,,,,,,,,,,,,,,,,,,,,,,,,,,,,,,,,,,,,,,,,,,,,,,,,,,,,,,,,,,,,,,,,,,,,,,,,,,,,,,,,,,,,,,,,,,,,,,
1725710357.438236,1725710357.439544,46.0,0.0,4246.153809,4239.743652,4247.563965,4290.897461,4186.922852,4230.0,3968.846191,4210.769043,4227.179688,4186.410156,4494.615234,4487.307617,4365.897461,4428.461426,0.0,1.0,15.0,,,,0.0,4.0,4.0,4.0,4.0,4.0,4.0,4.0,4.0,4.0,4.0,4.0,4.0,4.0,4.0,100.0,,,,,,,,,,,,,,,,,,,,,,,,,,,,,,,,,,,,,,,,,,,,,,,,,,,,,,,,,,,,,,,,,,,,,,,,,,,,,,,,,,,,,,,,,,,,,,,,,,,,,,,,,,,,,,,,,,,,,,,,,,,,,,,,,,,
1725710357.44214,1725710357.443348,47.0,0.0,4244.487305,4237.563965,4245.256348,4290.897461,4186.538574,4229.358887,3969.487061,4210.384766,4221.794922,4187.05127,4498.461426,4488.461426,4365.897461,4428.333496,0.0,1.0,15.0,,,,0.0,4.0,4.0,4.0,4.0,4.0,4.0,4.0,4.0,4.0,4.0,4.0,4.0,4.0,4.0,100.0,,,,,,,,,,,,,,,,,,,,,,,,,,,,,,,,,,,,,,,,,,,,,,,,,,,,,,,,,,,,,,,,,,,,,,,,,,,,,,,,,,,,,,,,,,,,,,,,,,,,,,,,,,,,,,,,,,,,,,,,,,,,,,,,,,,
1725710357.446044,1725710357.447252,48.0,0.0,4244.102539,4234.102539,4242.179688,4291.410156,4186.794922,4229.487305,3972.307617,4213.205078,4217.692383,4187.563965,4500.512695,4490.769043,4366.282227,4428.205078,0.0,1.0,15.0,,,,0.0,4.0,4.0,4.0,4.0,4.0,4.0,4.0,4.0,4.0,4.0,4.0,4.0,4.0,4.0,100.0,,,,,,,,,,,,,,,,,1.0,0.0,0.0,,,,,,,,,,,,,,,,,,,,,,,,,,,,,,,,,,,,,0.0,0.0,1.0,0.0,512.0,0.0,1.232734,0.487914,0.294545,0.168949,0.101486,1.154536,0.770384,0.356505,0.324389,0.169974,0.648533,0.287102,0.246437,0.135146,0.067083,1.232072,0.844858,0.450014,0.216806,0.186941,0.138026,0.111463,0.134395,0.086918,0.155954,0.25783,0.143942,0.095423,0.070719,0.101281,7.392319,1.163533,0.863153,0.341648,0.182673,0.673398,1.726507,0.953626,0.313899,0.177266,0.739836,0.660063,0.790602,0.316462,0.205152,1.716222,0.785954,0.547329,0.352531,0.168514,2.061688,1.486959,0.834586,0.566221,0.67722,2.612927,1.158589,0.801053,0.355256,0.213177,2.710527,1.602747,0.694403,0.37013,0.243085,1.978826,1.182303,0.610979,0.281713,0.105688
1725710357.449948,1725710357.451156,49.0,0.0,4245.0,4231.153809,4239.871582,4290.641113,4187.179688,4230.512695,3974.871826,4216.282227,4216.666504,4187.563965,4498.717773,4491.794922,4366.794922,4428.333496,0.0,1.0,15.0,,,,0.0,4.0,4.0,4.0,4.0,4.0,4.0,4.0,4.0,4.0,4.0,4.0,4.0,4.0,4.0,100.0,,,,,,,,,,,,,,,,,,,,,,,,,,,,,,,,,,,,,,,,,,,,,,,,,,,,,,,,,,,,,,,,,,,,,,,,,,,,,,,,,,,,,,,,,,,,,,,,,,,,,,,,,,,,,,,,,,,,,,,,,,,,,,,,,,,
1725710357.453852,1725710357.45516,50.0,0.0,4246.538574,4230.384766,4239.230957,4287.820313,4187.563965,4231.794922,3975.897461,4217.307617,4218.333496,4187.05127,4494.743652,4491.025879,4367.820313,4430.0,0.0,1.0,15.0,,,,0.0,4.0,4.0,4.0,4.0,4.0,4.0,4.0,4.0,4.0,4.0,4.0,4.0,4.0,4.0,100.0,,,,,,,,,,,,,,,,,,,,,,,,,,,,,,,,,,,,,,,,,,,,,,,,,,,,,,,,,,,,,,,,,,,,,,,,,,,,,,,,,,,,,,,,,,,,,,,,,,,,,,,,,,,,,,,,,,,,,,,,,,,,,,,,,,,
1725710357.457756,1725710357.459064,51.0,0.0,4248.077148,4232.179688,4240.769043,4283.589844,4187.563965,4232.94873,3975.512939,4216.153809,4220.641113,4186.538574,4492.692383,4490.384766,4369.743652,4433.717773,0.0,1.0,15.0,,,,0.0,4.0,4.0,4.0,4.0,4.0,4.0,4.0,4.0,4.0,4.0,4.0,4.0,4.0,4.0,100.0,,,,,,,,,,,,,,,,,,,,,,,,,,,,,,,,,,,,,,,,,,,,,,,,,,,,,,,,,,,,,,,,,,,,,,,,,,,,,,,,,,,,,,,,,,,,,,,,,,,,,,,,,,,,,,,,,,,,,,,,,,,,,,,,,,,
1725710357.461661,1725710357.462968,52.0,0.0,4249.230957,4235.769043,4243.589844,4280.256348,4187.179688,4233.589844,3974.487061,4215.0,4221.538574,4186.025879,4495.384766,4492.436035,4371.794922,4438.974121,0.0,1.0,15.0,,,,0.0,4.0,4.0,4.0,4.0,4.0,4.0,4.0,4.0,4.0,4.0,4.0,4.0,4.0,4.0,100.0,,,,,,,,,,,,,,,,,,,,,,,,,,,,,,,,,,,,,,,,,,,,,,,,,,,,,,,,,,,,,,,,,,,,,,,,,,,,,,,,,,,,,,,,,,,,,,,,,,,,,,,,,,,,,,,,,,,,,,,,,,,,,,,,,,,
1725710357.465565,1725710357.466873,53.0,0.0,4250.0,4240.256348,4246.282227,4280.0,4186.666504,4233.205078,3973.461426,4215.384766,4220.128418,4185.641113,4502.307617,4498.077148,4373.077148,4443.717773,0.0,1.0,15.0,,,,0.0,4.0,4.0,4.0,4.0,4.0,4.0,4.0,4.0,4.0,4.0,4.0,4.0,4.0,4.0,100.0,,,,,,,,,,,,,,,,,,,,,,,,,,,,,,,,,,,,,,,,,,,,,,,,,,,,,,,,,,,,,,,,,,,,,,,,,,,,,,,,,,,,,,,,,,,,,,,,,,,,,,,,,,,,,,,,,,,,,,,,,,,,,,,,,,,
1725710357.469469,1725710357.470677,54.0,0.0,4250.384766,4244.615234,4247.820313,4283.846191,4185.769043,4232.179688,3971.923096,4217.05127,4218.077148,4185.512695,4509.358887,4504.358887,4372.692383,4445.769043,0.0,1.0,15.0,,,,0.0,4.0,4.0,4.0,4.0,4.0,4.0,4.0,4.0,4.0,4.0,4.0,4.0,4.0,4.0,100.0,,,,,,,,,,,,,,,,,,,,,,,,,,,,,,,,,,,,,,,,,,,,,,,,,,,,,,,,,,,,,,,,,,,,,,,,,,,,,,,,,,,,,,,,,,,,,,,,,,,,,,,,,,,,,,,,,,,,,,,,,,,,,,,,,,,
1725710357.473373,1725710357.474581,55.0,0.0,4250.256348,4247.94873,4247.820313,4290.384766,4184.615234,4230.897461,3970.641113,4218.461426,4217.307617,4185.128418,4512.179688,4507.05127,4371.025879,4444.358887,0.0,1.0,15.0,,,,0.0,4.0,4.0,4.0,4.0,4.0,4.0,4.0,4.0,4.0,4.0,4.0,4.0,4.0,4.0,100.0,,,,,,,,,,,,,,,,,,,,,,,,,,,,,,,,,,,,,,,,,,,,,,,,,,,,,,,,,,,,,,,,,,,,,,,,,,,,,,,,,,,,,,,,,,,,,,,,,,,,,,,,,,,,,,,,,,,,,,,,,,,,,,,,,,,
1725710357.477277,1725710357.478485,56.0,0.0,4249.615234,4248.717773,4246.794922,4296.025879,4183.589844,4229.871582,3970.897461,4218.589844,4219.102539,4184.358887,4509.358887,4503.846191,4368.846191,4440.384766,0.0,1.0,15.0,,,,0.0,4.0,4.0,4.0,4.0,4.0,4.0,4.0,4.0,4.0,4.0,4.0,4.0,4.0,4.0,100.0,,,,,,,,,,,,,,,,,,,,,,,,,,,,,,,,,,,,,,,,,,,,,,,,,,,,,,,,0.0,0.0,1.0,0.0,512.0,0.0,,,,,,,,,,,,,,,,,,,,,,,,,,,,,,,,,,,,,,,,,,,,,,,,,,,,,,,,,,,,,,,,,,,,,,
1725710357.481181,1725710357.482489,57.0,0.0,4248.589844,4246.538574,4245.769043,4297.692383,4184.358887,4229.743652,3973.974365,4217.692383,4222.820313,4182.94873,4502.94873,4497.05127,4366.922852,4435.512695,0.0,1.0,15.0,,,,0.0,4.0,4.0,4.0,4.0,4.0,4.0,4.0,4.0,4.0,4.0,4.0,4.0,4.0,4.0,100.0,,,,,,,,,,,,,,,,,,,,,,,,,,,,,,,,,,,,,,,,,,,,,,,,,,,,,,,,,,,,,,,,,,,,,,,,,,,,,,,,,,,,,,,,,,,,,,,,,,,,,,,,,,,,,,,,,,,,,,,,,,,,,,,,,,,
