Timestamp,OriginalTimestamp,EEG.Counter,EEG.Interpolated,EEG.AF3,EEG.F7,EEG.F3,EEG.FC5,EEG.T7,EEG.P7,EEG.O1,EEG.O2,EEG.P8,EEG.T8,EEG.FC6,EEG.F4,EEG.F8,EEG.AF4,EEG.RawCq,EEG.Battery,EEG.BatteryPercent,MarkerIndex,MarkerType,MarkerValueInt,EEG.MarkerHardware,CQ.AF3,CQ.F7,CQ.F3,CQ.FC5,CQ.T7,CQ.P7,CQ.O1,CQ.O2,CQ.P8,CQ.T8,CQ.FC6,CQ.F4,CQ.F8,CQ.AF4,CQ.Overall,EQ.SampleRateQuality,EQ.OVERALL,EQ.AF3,EQ.F7,EQ.F3,EQ.FC5,EQ.T7,EQ.P7,EQ.O1,EQ.O2,EQ.P8,EQ.T8,EQ.FC6,EQ.F4,EQ.F8,EQ.AF4,MC.Action,MC.ActionPower,MC.IsActive,PM.Attention.IsActive,PM.Attention.Scaled,PM.Attention.Raw,PM.Attention.Min,PM.Attention.Max,PM.Engagement.IsActive,PM.Engagement.Scaled,PM.Engagement.Raw,PM.Engagement.Min,PM.Engagement.Max,PM.Excitement.IsActive,PM.Excitement.Scaled,PM.Excitement.Raw,PM.Excitement.Min,PM.Excitement.Max,PM.LongTermExcitement,PM.Stress.IsActive,PM.Stress.Scaled,PM.Stress.Raw,PM.Stress.Min,PM.Stress.Max,PM.Relaxation.IsActive,PM.Relaxation.Scaled,PM.Relaxation.Raw,PM.Relaxation.Min,PM.Relaxation.Max,PM.Interest.IsActive,PM.Interest.Scaled,PM.Interest.Raw,PM.Interest.Min,PM.Interest.Max,PM.Focus.IsActive,PM.Focus.Scaled,PM.Focus.Raw,PM.Focus.Min,PM.Focus.Max,FE.BlinkWink,FE.HorizontalEyesDirection,FE.UpperFaceAction,FE.UpperFaceActionPower,FE.LowerFaceAction,FE.LowerFaceActionPower,POW.AF3.Theta,POW.AF3.Alpha,POW.AF3.BetaL,POW.AF3.BetaH,POW.AF3.Gamma,POW.F7.Theta,POW.F7.Alpha,POW.F7.BetaL,POW.F7.BetaH,POW.F7.Gamma,POW.F3.Theta,POW.F3.Alpha,POW.F3.BetaL,POW.F3.BetaH,POW.F3.Gamma,POW.FC5.Theta,POW.FC5.Alpha,POW.FC5.BetaL,POW.FC5.BetaH,POW.FC5.Gamma,POW.T7.Theta,POW.T7.Alpha,POW.T7.BetaL,POW.T7.BetaH,POW.T7.Gamma,POW.P7.Theta,POW.P7.Alpha,POW.P7.BetaL,POW.P7.BetaH,POW.P7.Gamma,POW.O1.Theta,POW.O1.Alpha,POW.O1.BetaL,POW.O1.BetaH,POW.O1.Gamma,POW.O2.Theta,POW.O2.Alpha,POW.O2.BetaL,POW.O2.BetaH,POW.O2.Gamma,POW.P8.Theta,POW.P8.Alpha,POW.P8.BetaL,POW.P8.BetaH,POW.P8.Gamma,POW.T8.Theta,POW.T8.Alpha,POW.T8.BetaL,POW.T8.BetaH,POW.T8.Gamma,POW.FC6.Theta,POW.FC6.Alpha,POW.FC6.BetaL,POW.FC6.BetaH,POW.FC6.Gamma,POW.F4.Theta,POW.F4.Alpha,POW.F4.BetaL,POW.F4.BetaH,POW.F4.Gamma,POW.F8.Theta,POW.F8.Alpha,POW.F8.BetaL,POW.F8.BetaH,POW.F8.Gamma,POW.AF4.Theta,POW.AF4.Alpha,POW.AF4.BetaL,POW.AF4.BetaH,POW.AF4.Gamma
1725710397.654369,1725710397.656221,107.0,0.0,4236.025879,4232.820313,4247.692383,4275.128418,4200.0,4245.0,3973.076904,4213.589844,4185.897461,4202.05127,4514.871582,4470.256348,4354.358887,4408.717773,0.0,1.0,15.0,9.0,1.0,1.0,0.0,4.0,4.0,4.0,4.0,4.0,4.0,4.0,4.0,4.0,4.0,4.0,4.0,4.0,4.0,100.0,,,,,,,,,,,,,,,,,,,,,,,,,,,,,,,,,,,,,,,,,,,,,,,,,,,,,,,,,,,,,,,,,,,,,,,,,,,,,,,,,,,,,,,,,,,,,,,,,,,,,,,,,,,,,,,,,,,,,,,,,,,,,,,,,,,
1725710397.658273,1725710397.660125,108.0,0.0,4234.102539,4231.666504,4245.769043,4277.179688,4198.077148,4244.230957,3974.230713,4213.846191,4187.436035,4201.666504,4516.666504,4471.025879,4351.666504,4408.717773,0.0,1.0,15.0,,,,0.0,4.0,4.0,4.0,4.0,4.0,4.0,4.0,4.0,4.0,4.0,4.0,4.0,4.0,4.0,100.0,,,,,,,,,,,,,,,,,,,,,,,,,,,,,,,,,,,,,,,,,,,,,,,,,,,,,,,,,,,,,,,,,,,,,,,,,,,,,,,,,,,,,,,,,,,,,,,,,,,,,,,,,,,,,,,,,,,,,,,,,,,,,,,,,,,
1725710397.662177,1725710397.664129,109.0,0.0,4236.153809,4231.410156,4244.102539,4277.820313,4196.538574,4245.0,3975.0,4215.384766,4191.153809,4200.0,4520.512695,4473.205078,4351.538574,4411.538574,0.0,1.0,15.0,,,,0.0,4.0,4.0,4.0,4.0,4.0,4.0,4.0,4.0,4.0,4.0,4.0,4.0,4.0,4.0,100.0,,,,,,,,,,,,,,,,,,,,,,,,,,,,,,,,,,,,,,,,,,,,,,,,,,,,,,,,,,,,,,,,,,,,,,,,,,,,,,,,,,,,,,,,,,,,,,,,,,,,,,,,,,,,,,,,,,,,,,,,,,,,,,,,,,,
1725710397.666082,1725710397.668033,110.0,0.0,4240.897461,4232.307617,4243.333496,4275.641113,4196.410156,4246.538574,3974.871826,4216.794922,4195.641113,4198.846191,4526.025879,4475.384766,4354.102539,4415.256348,0.0,1.0,15.0,,,,0.0,4.0,4.0,4.0,4.0,4.0,4.0,4.0,4.0,4.0,4.0,4.0,4.0,4.0,4.0,100.0,,,,,,,,,,,,,,,,,,,,,,,,,,,,,,,,,,,,,,,,,,,,,,,,,,,,,,,,,,,,,,,,,,,,,,,,,,,,,,,,,,,,,,,,,,,,,,,,,,,,,,,,,,,,,,,,,,,,,,,,,,,,,,,,,,,
1725710397.669986,1725710397.671937,111.0,0.0,4245.384766,4233.333496,4244.230957,4271.282227,4197.563965,4247.436035,3973.974365,4217.179688,4199.230957,4200.641113,4531.538574,4476.153809,4357.563965,4417.563965,0.0,1.0,15.0,,,,0.0,4.0,4.0,4.0,4.0,4.0,4.0,4.0,4.0,4.0,4.0,4.0,4.0,4.0,4.0,100.0,,,,,,,,,,,,,,,,,,,,,,,,,,,,,,,,,,,,,,,,,,,,,,,,,,,,,,,,,,,,,,,,,,,,,,,,,,,,,,,,,,,,,,,,,,,,,,,,,,,,,,,,,,,,,,,,,,,,,,,,,,,,,,,,,,,
1725710397.67389,1725710397.675841,112.0,0.0,4247.05127,4233.717773,4246.538574,4267.05127,4199.358887,4246.538574,3973.205078,4216.025879,4200.641113,4205.128418,4534.487305,4475.256348,4360.384766,4418.077148,0.0,1.0,15.0,,,,0.0,4.0,4.0,4.0,4.0,4.0,4.0,4.0,4.0,4.0,4.0,4.0,4.0,4.0,4.0,100.0,,,,,,,,,,,,,,,,,1.0,0.0,0.0,,,,,,,,,,,,,,,,,,,,,,,,,,,,,,,,,,,,,0.0,0.0,1.0,0.0,1024.0,0.023711,0.852176,1.724962,0.328251,0.108069,0.072342,0.827622,0.797681,0.394838,0.28442,0.122169,0.576274,1.142985,0.32921,0.105061,0.035353,0.475045,0.950524,0.502062,0.233994,0.150766,0.329004,0.462453,0.20363,0.049575,0.062262,0.304077,0.607663,0.146094,0.056106,0.042252,5.514203,1.946721,0.820581,0.197045,0.221225,0.804236,4.884407,1.259061,0.169569,0.133484,0.852374,1.528639,0.500511,0.145224,0.14237,1.040668,1.408548,0.586042,0.182316,0.136183,1.634031,2.793079,0.695277,0.729179,0.353072,1.517929,4.617571,0.725092,0.157087,0.179592,1.46728,1.635991,0.624698,0.320791,0.136142,1.151567,2.719177,0.604162,0.230974,0.128226
1725710397.677794,1725710397.679745,113.0,0.0,4245.897461,4233.461426,4248.846191,4266.153809,4200.769043,4244.358887,3973.205078,4213.846191,4200.512695,4210.897461,4533.974121,4474.230957,4361.410156,4417.436035,0.0,1.0,15.0,,,,0.0,4.0,4.0,4.0,4.0,4.0,4.0,4.0,4.0,4.0,4.0,4.0,4.0,4.0,4.0,100.0,,,,,,,,,,,,,,,,,,,,,,,,,,,,,,,,,,,,,,,,,,,,,,,,,,,,,,,,,,,,,,,,,,,,,,,,,,,,,,,,,,,,,,,,,,,,,,,,,,,,,,,,,,,,,,,,,,,,,,,,,,,,,,,,,,,
1725710397.681698,1725710397.68365,114.0,0.0,4243.846191,4233.589844,4250.128418,4269.871582,4201.153809,4242.436035,3974.358887,4211.666504,4200.256348,4215.897461,4532.179688,4475.128418,4361.410156,4418.077148,0.0,1.0,15.0,,,,0.0,4.0,4.0,4.0,4.0,4.0,4.0,4.0,4.0,4.0,4.0,4.0,4.0,4.0,4.0,100.0,,,,,,,,,,,,,,,,,,,,,,,,,,,,,,,,,,,,,,,,,,,,,,,,,,,,,,,,,,,,,,,,,,,,,,,,,,,,,,,,,,,,,,,,,,,,,,,,,,,,,,,,,,,,,,,,,,,,,,,,,,,,,,,,,,,
1725710397.685602,1725710397.687454,115.0,0.0,4243.333496,4234.743652,4250.0,4276.538574,4200.769043,4242.05127,3976.923096,4211.025879,4200.641113,4218.717773,4531.922852,4478.974121,4361.922852,4421.025879,0.0,1.0,15.0,,,,0.0,4.0,4.0,4.0,4.0,4.0,4.0,4.0,4.0,4.0,4.0,4.0,4.0,4.0,4.0,100.0,,,,,,,,,,,,,,,,,,,,,,,,,,,,,,,,,,,,,,,,,,,,,,,,,,,,,,,,,,,,,,,,,,,,,,,,,,,,,,,,,,,,,,,,,,,,,,,,,,,,,,,,,,,,,,,,,,,,,,,,,,,,,,,,,,,
1725710397.689506,1725710397.691358,116.0,0.0,4245.769043,4236.922852,4249.615234,4282.05127,4200.256348,4243.333496,3980.128174,4213.077148,4201.922852,4219.358887,4533.974121,4484.358887,4363.974121,4426.410156,0.0,1.0,15.0,,,,0.0,4.0,4.0,4.0,4.0,4.0,4.0,4.0,4.0,4.0,4.0,4.0,4.0,4.0,4.0,100.0,,,,,,,,,,,,,,,,,,,,,,,,,,,,,,,,,,,,,,,,,,,,,,,,,,,,,,,,,,,,,,,,,,,,,,,,,,,,,,,,,,,,,,,,,,,,,,,,,,,,,,,,,,,,,,,,,,,,,,,,,,,,,,,,,,,
1725710397.69341,1725710397.695262,117.0,0.0,4250.256348,4238.974121,4250.769043,4283.077148,4200.0,4245.128418,3982.94873,4216.922852,4202.94873,4218.717773,4536.410156,4489.230957,4367.820313,4432.563965,0.0,1.0,15.0,,,,0.0,4.0,4.0,4.0,4.0,4.0,4.0,4.0,4.0,4.0,4.0,4.0,4.0,4.0,4.0,100.0,,,,,,,,,,,,,,,,,,,,,,,,,,,,,,,,,,,,,,,,,,,,,,,,,,,,,,,,,,,,,,,,,,,,,,,,,,,,,,,,,,,,,,,,,,,,,,,,,,,,,,,,,,,,,,,,,,,,,,,,,,,,,,,,,,,
1725710397.697314,1725710397.699166,118.0,0.0,4254.743652,4240.512695,4254.358887,4280.256348,4200.256348,4246.282227,3984.230713,4220.384766,4203.333496,4218.077148,4536.282227,4492.307617,4372.436035,4437.692383,0.0,1.0,15.0,,,,0.0,4.0,4.0,4.0,4.0,4.0,4.0,4.0,4.0,4.0,4.0,4.0,4.0,4.0,4.0,100.0,,,,,,,,,,,,,,,,,,,,,,,,,,,,,,,,,,,,,,,,,,,,,,,,,,,,,,,,,,,,,,,,,,,,,,,,,,,,,,,,,,,,,,,,,,,,,,,,,,,,,,,,,,,,,,,,,,,,,,,,,,,,,,,,,,,
1725710397.701218,1725710397.70297,119.0,0.0,4257.820313,4241.922852,4259.230957,4277.307617,4200.769043,4246.410156,3983.974365,4221.538574,4203.077148,4218.077148,4532.307617,4494.358887,4376.538574,4441.025879,0.0,1.0,15.0,,,,0.0,4.0,4.0,4.0,4.0,4.0,4.0,4.0,4.0,4.0,4.0,4.0,4.0,4.0,4.0,100.0,,,,,,,,,,,,,,,,,,,,,,,,,,,,,,,,,,,,,,,,,,,,,,,,,,,,,,,,,,,,,,,,,,,,,,,,,,,,,,,,,,,,,,,,,,,,,,,,,,,,,,,,,,,,,,,,,,,,,,,,,,,,,,,,,,,
1725710397.705123,1725710397.706874,120.0,0.0,4259.358887,4244.102539,4263.717773,4277.94873,4200.897461,4246.025879,3983.205078,4220.256348,4202.692383,4218.974121,4526.922852,4496.794922,4379.230957,4442.692383,0.0,1.0,15.0,,,,0.0,4.0,4.0,4.0,4.0,4.0,4.0,4.0,4.0,4.0,4.0,4.0,4.0,4.0,4.0,100.0,,,,,,,,,,,,,,,,,,,,,,,,,,,,,,,,,,,,,,,,,,,,,,,,,,,,,,,,0.0,0.0,1.0,0.0,1024.0,0.023711,,,,,,,,,,,,,,,,,,,,,,,,,,,,,,,,,,,,,,,,,,,,,,,,,,,,,,,,,,,,,,,,,,,,,,
1725710397.709027,1725710397.710779,121.0,0.0,4260.384766,4247.436035,4266.025879,4283.077148,4200.769043,4246.025879,3983.205078,4218.589844,4203.461426,4219.871582,4525.769043,4500.512695,4380.769043,4443.974121,0.0,1.0,15.0,,,,0.0,4.0,4.0,4.0,4.0,4.0,4.0,4.0,4.0,4.0,4.0,4.0,4.0,4.0,4.0,100.0,,,,,,,,,,,,,,,,,,,,,,,,,,,,,,,,,,,,,,,,,,,,,,,,,,,,,,,,,,,,,,,,,,,,,,,,,,,,,,,,,,,,,,,,,,,,,,,,,,,,,,,,,,,,,,,,,,,,,,,,,,,,,,,,,,,
1725710397.712931,1725710397.714683,122.0,0.0,4261.538574,4251.025879,4266.410156,4289.358887,4200.384766,4246.794922,3984.871826,4219.230957,4206.666504,4220.128418,4532.820313,4505.384766,4382.179688,4445.256348,0.0,1.0,15.0,,,,0.0,4.0,4.0,4.0,4.0,4.0,4.0,4.0,4.0,4.0,4.0,4.0,4.0,4.0,4.0,100.0,,,,,,,,,,,,,,,,,,,,,,,,,,,,,,,,,,,,,,,,,,,,,,,,,,,,,,,,,,,,,,,,,,,,,,,,,,,,,,,,,,,,,,,,,,,,,,,,,,,,,,,,,,,,,,,,,,,,,,,,,,,,,,,,,,,
1725710397.716835,1725710397.718487,123.0,0.0,4262.94873,4252.692383,4265.641113,4292.563965,4200.384766,4247.94873,3987.692383,4223.461426,4212.05127,4219.871582,4547.179688,4509.871582,4383.717773,4446.922852,0.0,1.0,15.0,,,,0.0,4.0,4.0,4.0,4.0,4.0,4.0,4.0,4.0,4.0,4.0,4.0,4.0,4.0,4.0,100.0,,,,,,,,,,,,,,,,,,,,,,,,,,,,,,,,,,,,,,,,,,,,,,,,,,,,,,,,,,,,,,,,,,,,,,,,,,,,,,,,,,,,,,,,,,,,,,,,,,,,,,,,,,,,,,,,,,,,,,,,,,,,,,,,,,,
1725710397.720739,1725710397.722391,124.0,0.0,4264.102539,4251.410156,4265.0,4290.769043,4200.512695,4248.974121,3990.256348,4229.871582,4216.922852,4219.615234,4562.820313,4512.820313,4384.743652,4448.717773,0.0,1.0,15.0,,,,0.0,4.0,4.0,4.0,4.0,4.0,4.0,4.0,4.0,4.0,4.0,4.0,4.0,4.0,4.0,100.0,,,,,,,,,,,,,,,,,,,,,,,,,,,,,,,,,,,,,,,,,,,,,,,,,,,,,,,,,,,,,,,,,,,,,,,,,,,,,,,,,,,,,,,,,,,,,,,,,,,,,,,,,,,,,,,,,,,,,,,,,,,,,,,,,,,
1725710397.724643,1725710397.726295,125.0,0.0,4264.743652,4248.077148,4265.128418,4285.769043,4200.769043,4249.615234,3991.666748,4235.256348,4218.461426,4219.487305,4572.179688,4513.589844,4384.487305,4450.0,0.0,1.0,15.0,,,,0.0,4.0,4.0,4.0,4.0,4.0,4.0,4.0,4.0,4.0,4.0,4.0,4.0,4.0,4.0,100.0,,,,,,,,,,,,,,,,,,,,,,,,,,,,,,,,,,,,,,,,,,,,,,,,,,,,,,,,,,,,,,,,,,,,,,,,,,,,,,,,,,,,,,,,,,,,,,,,,,,,,,,,,,,,,,,,,,,,,,,,,,,,,,,,,,,
1725710397.728547,1725710397.730299,126.0,0.0,4264.358887,4245.0,4265.641113,4280.897461,4200.769043,4249.615234,3991.794922,4237.436035,4215.128418,4219.102539,4571.153809,4512.563965,4383.077148,4450.0,0.0,1.0,15.0,,,,0.0,4.0,4.0,4.0,4.0,4.0,4.0,4.0,4.0,4.0,4.0,4.0,4.0,4.0,4.0,100.0,,,,,,,,,,,,,,,,,,,,,,,,,,,,,,,,,,,,,,,,,,,,,,,,,,,,,,,,,,,,,,,,,,,,,,,,,,,,,,,,,,,,,,,,,,,,,,,,,,,,,,,,,,,,,,,,,,,,,,,,,,,,,,,,,,,
1725710397.732451,1725710397.734203,127.0,0.0,4263.461426,4244.102539,4265.769043,4278.077148,4200.384766,4249.102539,3991.153809,4236.282227,4209.102539,4218.077148,4561.538574,4510.769043,4381.153809,4448.461426,0.0,1.0,15.0,,,,0.0,4.0,4.0,4.0,4.0,4.0,4.0,4.0,4.0,4.0,4.0,4.0,4.0,4.0,4.0,100.0,,,,,,,,,,,,,,,,,,,,,,,,,,,,,,,,,,,,,,,,,,,,,,,,,,,,,,,,,,,,,,,,,,,,,,,,,,,,,,,,,,,,,,,,,,,,,,,,,,,,,,,,,,,,,,,,,,,,,,,,,,,,,,,,,,,
1725710397.736355,1725710397.738107,128.0,0.0,4262.563965,4245.384766,4264.615234,4277.436035,4199.743652,4248.461426,3990.769287,4233.589844,4204.358887,4217.05127,4549.615234,4508.717773,4379.102539,4445.256348,2707.0,1.0,15.0,,,,0.0,4.0,4.0,4.0,4.0,4.0,4.0,4.0,4.0,4.0,4.0,4.0,4.0,4.0,4.0,100.0,,,,,,,,,,,,,,,,,,,,,,,,,,,,,,,,,,,,,,,,,,,,,,,,,,,,,,,,0.0,0.0,1.0,0.0,1024.0,0.023711,,,,,,,,,,,,,,,,,,,,,,,,,,,,,,,,,,,,,,,,,,,,,,,,,,,,,,,,,,,,,,,,,,,,,,
1725710397.74026,1725710397.742111,129.0,0.0,4261.794922,4247.179688,4261.538574,4278.205078,4199.230957,4247.94873,3991.025635,4230.897461,4204.487305,4216.922852,4541.025879,4506.794922,4376.410156,4441.282227,2585.0,1.0,15.0,,,,0.0,4.0,4.0,4.0,4.0,4.0,4.0,4.0,4.0,4.0,4.0,4.0,4.0,4.0,4.0,100.0,,,,,,,,,,,,,,,,,,,,,,,,,,,,,,,,,,,,,,,,,,,,,,,,,,,,,,,,,,,,,,,,,,,,,,,,,,,,,,,,,,,,,,,,,,,,,,,,,,,,,,,,,,,,,,,,,,,,,,,,,,,,,,,,,,,
1725710397.744164,1725710397.746015,130.0,0.0,4260.897461,4247.692383,4257.179688,4279.871582,4198.846191,4247.692383,3991.281982,4229.743652,4209.615234,4217.692383,4537.179688,4505.128418,4373.205078,4438.205078,2513.0,1.0,15.0,,,,0.0,4.0,4.0,4.0,4.0,4.0,4.0,4.0,4.0,4.0,4.0,4.0,4.0,4.0,4.0,100.0,,,,,,,,,,,,,,,,,,,,,,,,,,,,,,,,,,,,,,,,,,,,,,,,,,,,,,,,,,,,,,,,,,,,,,,,,,,,,,,,,,,,,,,,,,,,,,,,,,,,,,,,,,,,,,,,,,,,,,,,,,,,,,,,,,,
1725710397.748068,1725710397.749919,131.0,0.0,4259.743652,4247.307617,4253.077148,4281.410156,4198.717773,4247.563965,3991.538574,4230.512695,4216.410156,4218.589844,4536.410156,4504.230957,4370.897461,4436.922852,2481.0,1.0,15.0,,,,0.0,4.0,4.0,4.0,4.0,4.0,4.0,4.0,4.0,4.0,4.0,4.0,4.0,4.0,4.0,100.0,,,,,,,,,,,,,,,,,,,,,,,,,,,,,,,,,,,,,,,,,,,,,,,,,,,,,,,,,,,,,,,,,,,,,,,,,,,,,,,,,,,,,,,,,,,,,,,,,,,,,,,,,,,,,,,,,,,,,,,,,,,,,,,,,,,
1725710397.751972,1725710397.753824,132.0,0.0,4259.230957,4247.179688,4250.128418,4281.153809,4198.589844,4247.94873,3991.410156,4232.563965,4219.871582,4218.333496,4536.282227,4505.128418,4370.897461,4437.436035,2448.0,1.0,15.0,,,,0.0,4.0,4.0,4.0,4.0,4.0,4.0,4.0,4.0,4.0,4.0,4.0,4.0,4.0,4.0,100.0,,,,,,,,,,,,,,,,,,,,,,,,,,,,,,,,,,,,,,,,,,,,,,,,,,,,,,,,,,,,,,,,,,,,,,,,,,,,,,,,,,,,,,,,,,,,,,,,,,,,,,,,,,,,,,,,,,,,,,,,,,,,,,,,,,,
1725710397.755876,1725710397.757828,133.0,0.0,4259.230957,4247.692383,4248.589844,4277.94873,4198.205078,4248.717773,3991.153809,4234.358887,4217.563965,4216.922852,4535.512695,4507.179688,4373.461426,4438.589844,2411.0,1.0,15.0,,,,0.0,4.0,4.0,4.0,4.0,4.0,4.0,4.0,4.0,4.0,4.0,4.0,4.0,4.0,4.0,100.0,,,,,,,,,,,,,,,,,,,,,,,,,,,,,,,,,,,,,,,,,,,,,,,,,,,,,,,,,,,,,,,,,,,,,,,,,,,,,,,,,,,,,,,,,,,,,,,,,,,,,,,,,,,,,,,,,,,,,,,,,,,,,,,,,,,
1725710397.75978,1725710397.761732,134.0,0.0,4259.230957,4247.563965,4247.563965,4272.692383,4197.94873,4249.358887,3991.153809,4234.102539,4210.641113,4215.512695,4534.871582,4508.333496,4377.563965,4439.358887,2439.0,1.0,15.0,,,,0.0,4.0,4.0,4.0,4.0,4.0,4.0,4.0,4.0,4.0,4.0,4.0,4.0,4.0,4.0,100.0,,,,,,,,,,,,,,,,,,,,,,,,,,,,,,,,,,,,,,,,,,,,,,,,,,,,,,,,,,,,,,,,,,,,,,,,,,,,,,,,,,,,,,,,,,,,,,,,,,,,,,,,,,,,,,,,,,,,,,,,,,,,,,,,,,,
1725710397.763684,1725710397.765636,135.0,0.0,4258.205078,4244.743652,4245.769043,4267.307617,4197.820313,4249.615234,3991.410156,4230.512695,4202.94873,4214.871582,4534.871582,4506.282227,4380.769043,4438.461426,2493.0,1.0,15.0,,,,0.0,4.0,4.0,4.0,4.0,4.0,4.0,4.0,4.0,4.0,4.0,4.0,4.0,4.0,4.0,100.0,,,,,,,,,,,,,,,,,,,,,,,,,,,,,,,,,,,,,,,,,,,,,,,,,,,,,,,,,,,,,,,,,,,,,,,,,,,,,,,,,,,,,,,,,,,,,,,,,,,,,,,,,,,,,,,,,,,,,,,,,,,,,,,,,,,
1725710397.767588,1725710397.76964,136.0,0.0,4256.153809,4239.358887,4242.436035,4264.487305,4198.077148,4249.358887,3991.538574,4224.358887,4197.94873,4215.384766,4535.512695,4500.512695,4381.025879,4435.512695,2468.0,1.0,15.0,,,,0.0,4.0,4.0,4.0,4.0,4.0,4.0,4.0,4.0,4.0,4.0,4.0,4.0,4.0,4.0,100.0,,,,,,,,,,,,,,,,,,,,,,,,,,,,,,,,,,,,,,,,,,,,,,,,,,,,,,,,0.0,0.0,1.0,0.0,1024.0,0.023711,,,,,,,,,,,,,,,,,,,,,,,,,,,,,,,,,,,,,,,,,,,,,,,,,,,,,,,,,,,,,,,,,,,,,,
1725710397.771492,1725710397.773544,137.0,0.0,4254.358887,4234.230957,4237.94873,4265.897461,4198.333496,4248.846191,3991.538574,4217.563965,4197.179688,4216.282227,4535.512695,4493.077148,4377.820313,4431.282227,2555.0,1.0,15.0,,,,0.0,4.0,4.0,4.0,4.0,4.0,4.0,4.0,4.0,4.0,4.0,4.0,4.0,4.0,4.0,100.0,,,,,,,,,,,,,,,,,,,,,,,,,,,,,,,,,,,,,,,,,,,,,,,,,,,,,,,,,,,,,,,,,,,,,,,,,,,,,,,,,,,,,,,,,,,,,,,,,,,,,,,,,,,,,,,,,,,,,,,,,,,,,,,,,,,
1725710397.775396,1725710397.777448,138.0,0.0,4254.358887,4232.436035,4234.102539,4271.025879,4198.717773,4248.333496,3990.769287,4212.820313,4199.871582,4217.05127,4534.358887,4487.692383,4373.077148,4427.820313,2909.0,1.0,15.0,,,,0.0,4.0,4.0,4.0,4.0,4.0,4.0,4.0,4.0,4.0,4.0,4.0,4.0,4.0,4.0,100.0,,,,,,,,,,,,,,,,,,,,,,,,,,,,,,,,,,,,,,,,,,,,,,,,,,,,,,,,,,,,,,,,,,,,,,,,,,,,,,,,,,,,,,,,,,,,,,,,,,,,,,,,,,,,,,,,,,,,,,,,,,,,,,,,,,,
1725710397.779301,1725710397.781352,139.0,0.0,4256.666504,4235.641113,4232.692383,4277.563965,4198.717773,4247.94873,3989.230713,4211.922852,4203.461426,4217.179688,4533.205078,4487.179688,4369.358887,4427.05127,3149.0,1.0,15.0,,,,0.0,4.0,4.0,4.0,4.0,4.0,4.0,4.0,4.0,4.0,4.0,4.0,4.0,4.0,4.0,100.0,,,,,,,,,,,,,,,,,,,,,,,,,,,,,,,,,,,,,,,,,,,,,,,,,,,,,,,,,,,,,,,,,,,,,,,,,,,,,,,,,,,,,,,,,,,,,,,,,,,,,,,,,,,,,,,,,,,,,,,,,,,,,,,,,,,
1725710397.783205,1725710397.785256,140.0,0.0,4260.256348,4242.05127,4234.487305,4282.179688,4198.333496,4247.820313,3987.435791,4214.230957,4205.0,4216.538574,4533.333496,4491.410156,4368.846191,4429.487305,3431.0,1.0,15.0,,,,0.0,4.0,4.0,4.0,4.0,4.0,4.0,4.0,4.0,4.0,4.0,4.0,4.0,4.0,4.0,100.0,,,,,,,,,,,,,,,,,,,,,,,,,,,,,,,,,,,,,,,,,,,,,,,,,,,,,,,,,,,,,,,,,,,,,,,,,,,,,,,,,,,,,,,,,,,,,,,,,,,,,,,,,,,,,,,,,,,,,,,,,,,,,,,,,,,
1725710397.787109,1725710397.78916,141.0,0.0,4263.461426,4248.205078,4238.717773,4283.205078,4197.563965,4247.94873,3986.281982,4217.436035,4203.717773,4216.153809,4536.282227,4498.205078,4371.922852,4434.487305,3929.0,1.0,15.0,,,,0.0,4.0,4.0,4.0,4.0,4.0,4.0,4.0,4.0,4.0,4.0,4.0,4.0,4.0,4.0,100.0,,,,,,,,,,,,,,,,,,,,,,,,,,,,,,,,,,,,,,,,,,,,,,,,,,,,,,,,,,,,,,,,,,,,,,,,,,,,,,,,,,,,,,,,,,,,,,,,,,,,,,,,,,,,,,,,,,,,,,,,,,,,,,,,,,,
1725710397.791013,1725710397.792965,142.0,0.0,4265.0,4251.538574,4243.333496,4281.282227,4197.05127,4248.077148,3986.410156,4218.846191,4201.538574,4216.794922,4541.153809,4504.230957,4377.179688,4440.0,2909.0,1.0,15.0,,,,0.0,4.0,4.0,4.0,4.0,4.0,4.0,4.0,4.0,4.0,4.0,4.0,4.0,4.0,4.0,100.0,,,,,,,,,,,,,,,,,,,,,,,,,,,,,,,,,,,,,,,,,,,,,,,,,,,,,,,,,,,,,,,,,,,,,,,,,,,,,,,,,,,,,,,,,,,,,,,,,,,,,,,,,,,,,,,,,,,,,,,,,,,,,,,,,,,
1725710397.794917,1725710397.796869,143.0,0.0,4264.743652,4251.794922,4246.025879,4279.487305,4196.922852,4248.205078,3987.564209,4218.205078,4201.538574,4218.589844,4545.641113,4507.692383,4382.436035,4444.358887,3149.0,1.0,15.0,,,,0.0,4.0,4.0,4.0,4.0,4.0,4.0,4.0,4.0,4.0,4.0,4.0,4.0,4.0,4.0,100.0,,,,,,,,,,,,,,,,,,,,,,,,,,,,,,,,,,,,,,,,,,,,,,,,,,,,,,,,,,,,,,,,,,,,,,,,,,,,,,,,,,,,,,,,,,,,,,,,,,,,,,,,,,,,,,,,,,,,,,,,,,,,,,,,,,,
1725710397.798821,1725710397.800773,144.0,0.0,4263.717773,4251.025879,4246.025879,4280.0,4197.179688,4248.333496,3988.461426,4216.666504,4204.871582,4220.641113,4547.563965,4508.333496,4385.512695,4447.05127,3431.0,1.0,15.0,,,,0.0,4.0,4.0,4.0,4.0,4.0,4.0,4.0,4.0,4.0,4.0,4.0,4.0,4.0,4.0,100.0,1.0,41.666668,4.0,4.0,4.0,4.0,1.0,4.0,1.0,4.0,3.0,4.0,4.0,4.0,4.0,4.0,1.0,0.0,0.0,,,,,,,,,,,,,,,,,,,,,,,,,,,,,,,,,,,,,0.0,0.0,1.0,0.0,1.0,0.0,0.987265,2.018681,0.403349,0.104086,0.063716,0.945047,0.956373,0.479342,0.2852,0.120493,0.784742,1.489756,0.333917,0.10086,0.036322,0.519659,1.276343,0.507174,0.229874,0.141555,0.420314,0.551519,0.200237,0.050652,0.062733,0.339356,0.543062,0.156951,0.056076,0.038645,7.025263,2.098308,0.919504,0.218534,0.22823,0.682957,5.347174,1.007808,0.206878,0.132839,0.739043,1.676802,0.360296,0.118481,0.150362,0.902173,1.611432,0.495584,0.187376,0.122043,1.543655,3.293456,0.617145,0.637246,0.332415,1.429627,5.745298,0.762378,0.169633,0.156996,1.505287,1.800257,0.657768,0.279433,0.123254,1.324146,3.316959,0.646447,0.209924,0.119425
1725710397.802725,1725710397.804677,145.0,0.0,4263.333496,4250.769043,4243.589844,4282.307617,4197.692383,4248.461426,3988.205078,4215.897461,4210.0,4221.922852,4545.897461,4508.077148,4385.641113,4448.077148,3929.0,1.0,15.0,,,,0.0,4.0,4.0,4.0,4.0,4.0,4.0,4.0,4.0,4.0,4.0,4.0,4.0,4.0,4.0,100.0,,,,,,,,,,,,,,,,,,,,,,,,,,,,,,,,,,,,,,,,,,,,,,,,,,,,,,,,,,,,,,,,,,,,,,,,,,,,,,,,,,,,,,,,,,,,,,,,,,,,,,,,,,,,,,,,,,,,,,,,,,,,,,,,,,,
1725710397.806629,1725710397.808481,146.0,0.0,4263.974121,4250.897461,4239.871582,4284.102539,4198.717773,4248.589844,3986.538574,4216.794922,4213.846191,4221.666504,4542.436035,4508.205078,4383.333496,4447.692383,2909.0,1.0,15.0,,,,0.0,4.0,4.0,4.0,4.0,4.0,4.0,4.0,4.0,4.0,4.0,4.0,4.0,4.0,4.0,100.0,,,,,,,,,,,,,,,,,,,,,,,,,,,,,,,,,,,,,,,,,,,,,,,,,,,,,,,,,,,,,,,,,,,,,,,,,,,,,,,,,,,,,,,,,,,,,,,,,,,,,,,,,,,,,,,,,,,,,,,,,,,,,,,,,,,
1725710397.810533,1725710397.812385,147.0,0.0,4265.256348,4250.256348,4236.025879,4283.461426,4199.743652,4248.717773,3984.871826,4218.461426,4214.358887,4220.512695,4539.615234,4508.846191,4380.0,4446.538574,3149.0,1.0,15.0,,,,0.0,4.0,4.0,4.0,4.0,4.0,4.0,4.0,4.0,4.0,4.0,4.0,4.0,4.0,4.0,100.0,,,,,,,,,,,,,,,,,,,,,,,,,,,,,,,,,,,,,,,,,,,,,,,,,,,,,,,,,,,,,,,,,,,,,,,,,,,,,,,,,,,,,,,,,,,,,,,,,,,,,,,,,,,,,,,,,,,,,,,,,,,,,,,,,,,
1725710397.814438,1725710397.816289,148.0,0.0,4266.025879,4248.333496,4233.205078,4281.538574,4200.641113,4248.846191,3984.871826,4219.487305,4212.05127,4219.615234,4539.230957,4509.615234,4377.820313,4445.256348,3431.0,1.0,15.0,,,,0.0,4.0,4.0,4.0,4.0,4.0,4.0,4.0,4.0,4.0,4.0,4.0,4.0,4.0,4.0,100.0,,,,,,,,,,,,,,,,,,,,,,,,,,,,,,,,,,,,,,,,,,,,,,,,,,,,,,,,,,,,,,,,,,,,,,,,,,,,,,,,,,,,,,,,,,,,,,,,,,,,,,,,,,,,,,,,,,,,,,,,,,,,,,,,,,,
1725710397.818342,1725710397.820193,149.0,0.0,4265.897461,4246.666504,4232.179688,4280.769043,4201.282227,4248.974121,3987.05127,4219.743652,4209.743652,4220.128418,4540.897461,4510.128418,4378.589844,4444.358887,3929.0,1.0,15.0,,,,0.0,4.0,4.0,4.0,4.0,4.0,4.0,4.0,4.0,4.0,4.0,4.0,4.0,4.0,4.0,100.0,,,,,,,,,,,,,,,,,,,,,,,,,,,,,,,,,,,,,,,,,,,,,,,,,,,,,,,,,,,,,,,,,,,,,,,,,,,,,,,,,,,,,,,,,,,,,,,,,,,,,,,,,,,,,,,,,,,,,,,,,,,,,,,,,,,
1725710397.822246,1725710397.823998,150.0,0.0,4265.256348,4247.820313,4232.820313,4282.307617,4201.666504,4249.102539,3989.871826,4220.256348,4209.871582,4221.794922,4542.94873,4510.256348,4382.436035,4444.102539,2909.0,1.0,15.0,,,,0.0,4.0,4.0,4.0,4.0,4.0,4.0,4.0,4.0,4.0,4.0,4.0,4.0,4.0,4.0,100.0,,,,,,,,,,,,,,,,,,,,,,,,,,,,,,,,,,,,,,,,,,,,,,,,,,,,,,,,,,,,,,,,,,,,,,,,,,,,,,,,,,,,,,,,,,,,,,,,,,,,,,,,,,,,,,,,,,,,,,,,,,,,,,,,,,,
1725710397.82615,1725710397.827902,151.0,0.0,4264.615234,4252.307617,4234.487305,4285.256348,4201.794922,4249.102539,3990.769287,4221.153809,4212.05127,4222.820313,4543.717773,4510.128418,4386.922852,4444.358887,3149.0,1.0,15.0,,,,0.0,4.0,4.0,4.0,4.0,4.0,4.0,4.0,4.0,4.0,4.0,4.0,4.0,4.0,4.0,100.0,,,,,,,,,,,,,,,,,,,,,,,,,,,,,,,,,,,,,,,,,,,,,,,,,,,,,,,,,,,,,,,,,,,,,,,,,,,,,,,,,,,,,,,,,,,,,,,,,,,,,,,,,,,,,,,,,,,,,,,,,,,,,,,,,,,
1725710397.830054,1725710397.831806,152.0,0.0,4264.102539,4257.820313,4235.384766,4286.922852,4201.666504,4249.487305,3988.333252,4221.410156,4214.102539,4221.538574,4542.179688,4508.717773,4388.717773,4444.230957,3431.0,1.0,15.0,,,,0.0,4.0,4.0,4.0,4.0,4.0,4.0,4.0,4.0,4.0,4.0,4.0,4.0,4.0,4.0,100.0,,,,,,,,,,,,,,,,,,,,,,,,,,,,,,,,,,,,,,,,,,,,,,,,,,,,,,,,0.0,0.0,1.0,0.0,1.0,0.0,,,,,,,,,,,,,,,,,,,,,,,,,,,,,,,,,,,,,,,,,,,,,,,,,,,,,,,,,,,,,,,,,,,,,,
1725710397.833958,1725710397.83561,153.0,0.0,4263.461426,4260.769043,4234.358887,4285.641113,4201.410156,4250.256348,3983.205078,4220.256348,4213.461426,4218.333496,4539.102539,4505.128418,4386.153809,4443.077148,3929.0,1.0,15.0,,,,0.0,4.0,4.0,4.0,4.0,4.0,4.0,4.0,4.0,4.0,4.0,4.0,4.0,4.0,4.0,100.0,,,,,,,,,,,,,,,,,,,,,,,,,,,,,,,,,,,,,,,,,,,,,,,,,,,,,,,,,,,,,,,,,,,,,,,,,,,,,,,,,,,,,,,,,,,,,,,,,,,,,,,,,,,,,,,,,,,,,,,,,,,,,,,,,,,
1725710397.837862,1725710397.839514,154.0,0.0,4262.692383,4259.358887,4231.922852,4281.794922,4201.153809,4251.282227,3977.692383,4218.717773,4209.743652,4215.0,4536.538574,4499.871582,4380.897461,4440.641113,2909.0,1.0,15.0,,,,0.0,4.0,4.0,4.0,4.0,4.0,4.0,4.0,4.0,4.0,4.0,4.0,4.0,4.0,4.0,100.0,,,,,,,,,,,,,,,,,,,,,,,,,,,,,,,,,,,,,,,,,,,,,,,,,,,,,,,,,,,,,,,,,,,,,,,,,,,,,,,,,,,,,,,,,,,,,,,,,,,,,,,,,,,,,,,,,,,,,,,,,,,,,,,,,,,
1725710397.841766,1725710397.843418,155.0,0.0,4262.05127,4254.743652,4229.487305,4277.307617,4200.769043,4251.794922,3973.589844,4218.589844,4205.0,4213.717773,4536.410156,4494.615234,4376.153809,4437.307617,3149.0,1.0,15.0,,,,0.0,4.0,4.0,4.0,4.0,4.0,4.0,4.0,4.0,4.0,4.0,4.0,4.0,4.0,4.0,100.0,,,,,,,,,,,,,,,,,,,,,,,,,,,,,,,,,,,,,,,,,,,,,,,,,,,,,,,,,,,,,,,,,,,,,,,,,,,,,,,,,,,,,,,,,,,,,,,,,,,,,,,,,,,,,,,,,,,,,,,,,,,,,,,,,,,
1725710397.84567,1725710397.847422,156.0,0.0,4260.897461,4249.871582,4228.461426,4274.230957,4200.769043,4252.05127,3972.179443,4220.769043,4202.05127,4214.487305,4539.102539,4491.538574,4373.205078,4433.717773,3431.0,1.0,15.0,,,,0.0,4.0,4.0,4.0,4.0,4.0,4.0,4.0,4.0,4.0,4.0,4.0,4.0,4.0,4.0,100.0,,,,,,,,,,,,,,,,,,,,,,,,,,,,,,,,,,,,,,,,,,,,,,,,,,,,,,,,,,,,,,,,,,,,,,,,,,,,,,,,,,,,,,,,,,,,,,,,,,,,,,,,,,,,,,,,,,,,,,,,,,,,,,,,,,,
1725710397.849574,1725710397.851326,157.0,0.0,4258.717773,4246.538574,4229.102539,4273.846191,4201.025879,4251.922852,3972.820557,4224.102539,4201.538574,4215.512695,4542.436035,4491.282227,4371.538574,4431.025879,3929.0,1.0,15.0,,,,0.0,4.0,4.0,4.0,4.0,4.0,4.0,4.0,4.0,4.0,4.0,4.0,4.0,4.0,4.0,100.0,,,,,,,,,,,,,,,,,,,,,,,,,,,,,,,,,,,,,,,,,,,,,,,,,,,,,,,,,,,,,,,,,,,,,,,,,,,,,,,,,,,,,,,,,,,,,,,,,,,,,,,,,,,,,,,,,,,,,,,,,,,,,,,,,,,
1725710397.853478,1725710397.85523,158.0,0.0,4255.897461,4245.256348,4230.384766,4275.769043,4201.153809,4251.666504,3974.102539,4226.153809,4202.307617,4213.974121,4542.692383,4492.94873,4370.0,4429.358887,2909.0,1.0,15.0,,,,0.0,4.0,4.0,4.0,4.0,4.0,4.0,4.0,4.0,4.0,4.0,4.0,4.0,4.0,4.0,100.0,,,,,,,,,,,,,,,,,,,,,,,,,,,,,,,,,,,,,,,,,,,,,,,,,,,,,,,,,,,,,,,,,,,,,,,,,,,,,,,,,,,,,,,,,,,,,,,,,,,,,,,,,,,,,,,,,,,,,,,,,,,,,,,,,,,
1725710397.857382,1725710397.859134,159.0,0.0,4253.461426,4245.512695,4231.282227,4278.461426,4200.512695,4251.794922,3974.615479,4224.615234,4202.179688,4208.974121,4537.563965,4494.230957,4367.94873,4428.589844,3149.0,1.0,15.0,,,,0.0,4.0,4.0,4.0,4.0,4.0,4.0,4.0,4.0,4.0,4.0,4.0,4.0,4.0,4.0,100.0,,,,,,,,,,,,,,,,,,,,,,,,,,,,,,,,,,,,,,,,,,,,,,,,,,,,,,,,,,,,,,,,,,,,,,,,,,,,,,,,,,,,,,,,,,,,,,,,,,,,,,,,,,,,,,,,,,,,,,,,,,,,,,,,,,,
1725710397.861287,1725710397.863138,160.0,0.0,4253.077148,4246.922852,4231.282227,4279.871582,4199.102539,4251.794922,3973.333252,4219.487305,4200.256348,4202.563965,4527.820313,4493.333496,4366.410156,4428.974121,3431.0,1.0,15.0,,,,0.0,4.0,4.0,4.0,4.0,4.0,4.0,4.0,4.0,4.0,4.0,4.0,4.0,4.0,4.0,100.0,,,,,,,,,,,,,,,,,,,,,,,,,,,,,,,,,,,,,,,,,,,,,,,,,,,,,,,,0.0,0.0,1.0,0.0,1.0,0.0,,,,,,,,,,,,,,,,,,,,,,,,,,,,,,,,,,,,,,,,,,,,,,,,,,,,,,,,,,,,,,,,,,,,,,
1725710397.865191,1725710397.867043,161.0,0.0,4255.128418,4249.230957,4230.641113,4279.102539,4197.692383,4251.666504,3970.641113,4213.333496,4198.461426,4199.102539,4518.077148,4490.641113,4367.179688,4430.769043,3929.0,1.0,15.0,,,,0.0,4.0,4.0,4.0,4.0,4.0,4.0,4.0,4.0,4.0,4.0,4.0,4.0,4.0,4.0,100.0,,,,,,,,,,,,,,,,,,,,,,,,,,,,,,,,,,,,,,,,,,,,,,,,,,,,,,,,,,,,,,,,,,,,,,,,,,,,,,,,,,,,,,,,,,,,,,,,,,,,,,,,,,,,,,,,,,,,,,,,,,,,,,,,,,,
1725710397.869095,1725710397.870947,162.0,0.0,4258.717773,4251.538574,4230.128418,4277.05127,4197.307617,4251.025879,3967.05127,4208.846191,4199.102539,4201.410156,4514.102539,4488.333496,4371.282227,4434.230957,2909.0,1.0,15.0,,,,0.0,4.0,4.0,4.0,4.0,4.0,4.0,4.0,4.0,4.0,4.0,4.0,4.0,4.0,4.0,100.0,,,,,,,,,,,,,,,,,,,,,,,,,,,,,,,,,,,,,,,,,,,,,,,,,,,,,,,,,,,,,,,,,,,,,,,,,,,,,,,,,,,,,,,,,,,,,,,,,,,,,,,,,,,,,,,,,,,,,,,,,,,,,,,,,,,
1725710397.872999,1725710397.874851,163.0,0.0,4262.05127,4253.333496,4230.0,4275.384766,4198.589844,4250.128418,3963.076904,4208.205078,4201.794922,4208.589844,4518.846191,4488.205078,4377.436035,4438.333496,3149.0,1.0,15.0,,,,0.0,4.0,4.0,4.0,4.0,4.0,4.0,4.0,4.0,4.0,4.0,4.0,4.0,4.0,4.0,100.0,,,,,,,,,,,,,,,,,,,,,,,,,,,,,,,,,,,,,,,,,,,,,,,,,,,,,,,,,,,,,,,,,,,,,,,,,,,,,,,,,,,,,,,,,,,,,,,,,,,,,,,,,,,,,,,,,,,,,,,,,,,,,,,,,,,
1725710397.876903,1725710397.878855,164.0,0.0,4263.846191,4253.717773,4230.384766,4275.384766,4200.641113,4249.102539,3960.0,4211.025879,4203.974121,4216.538574,4529.102539,4489.871582,4382.94873,4441.025879,3431.0,1.0,15.0,,,,0.0,4.0,4.0,4.0,4.0,4.0,4.0,4.0,4.0,4.0,4.0,4.0,4.0,4.0,4.0,100.0,,,,,,,,,,,,,,,,,,,,,,,,,,,,,,,,,,,,,,,,,,,,,,,,,,,,,,,,,,,,,,,,,,,,,,,,,,,,,,,,,,,,,,,,,,,,,,,,,,,,,,,,,,,,,,,,,,,,,,,,,,,,,,,,,,,
1725710397.880807,1725710397.882759,165.0,0.0,4263.333496,4252.563965,4230.897461,4276.794922,4202.179688,4248.974121,3958.718018,4215.256348,4203.205078,4220.512695,4538.589844,4491.538574,4384.743652,4441.025879,3929.0,1.0,15.0,,,,0.0,4.0,4.0,4.0,4.0,4.0,4.0,4.0,4.0,4.0,4.0,4.0,4.0,4.0,4.0,100.0,,,,,,,,,,,,,,,,,,,,,,,,,,,,,,,,,,,,,,,,,,,,,,,,,,,,,,,,,,,,,,,,,,,,,,,,,,,,,,,,,,,,,,,,,,,,,,,,,,,,,,,,,,,,,,,,,,,,,,,,,,,,,,,,,,,
1725710397.884711,1725710397.886663,166.0,0.0,4260.641113,4250.897461,4230.897461,4277.94873,4202.05127,4249.358887,3959.358887,4217.820313,4200.641113,4218.589844,4542.179688,4491.666504,4382.436035,4439.230957,2909.0,1.0,15.0,,,,0.0,4.0,4.0,4.0,4.0,4.0,4.0,4.0,4.0,4.0,4.0,4.0,4.0,4.0,4.0,100.0,,,,,,,,,,,,,,,,,,,,,,,,,,,,,,,,,,,,,,,,,,,,,,,,,,,,,,,,,,,,,,,,,,,,,,,,,,,,,,,,,,,,,,,,,,,,,,,,,,,,,,,,,,,,,,,,,,,,,,,,,,,,,,,,,,,
1725710397.888615,1725710397.890567,167.0,0.0,4256.794922,4249.487305,4230.128418,4277.94873,4200.128418,4249.743652,3960.512939,4217.563965,4199.743652,4213.846191,4540.128418,4490.769043,4378.974121,4437.436035,3149.0,1.0,15.0,,,,0.0,4.0,4.0,4.0,4.0,4.0,4.0,4.0,4.0,4.0,4.0,4.0,4.0,4.0,4.0,100.0,,,,,,,,,,,,,,,,,,,,,,,,,,,,,,,,,,,,,,,,,,,,,,,,,,,,,,,,,,,,,,,,,,,,,,,,,,,,,,,,,,,,,,,,,,,,,,,,,,,,,,,,,,,,,,,,,,,,,,,,,,,,,,,,,,,
1725710397.892519,1725710397.894471,168.0,0.0,4253.589844,4249.230957,4229.230957,4277.05127,4197.692383,4249.102539,3959.743652,4215.641113,4202.820313,4211.153809,4537.307617,4490.897461,4378.077148,4437.820313,3431.0,1.0,15.0,,,,0.0,4.0,4.0,4.0,4.0,4.0,4.0,4.0,4.0,4.0,4.0,4.0,4.0,4.0,4.0,100.0,,,,,,,,,,,,,,,,,,,,,,,,,,,,,,,,,,,,,,,,,,,,,,,,,,,,,,,,0.0,0.0,1.0,0.0,1.0,0.0,,,,,,,,,,,,,,,,,,,,,,,,,,,,,,,,,,,,,,,,,,,,,,,,,,,,,,,,,,,,,,,,,,,,,,
1725710397.896423,1725710397.898275,169.0,0.0,4252.436035,4250.128418,4228.974121,4276.410156,4196.282227,4247.820313,3955.128174,4214.487305,4208.974121,4213.846191,4538.717773,4493.717773,4381.025879,4440.769043,3929.0,1.0,15.0,,,,0.0,4.0,4.0,4.0,4.0,4.0,4.0,4.0,4.0,4.0,4.0,4.0,4.0,4.0,4.0,100.0,,,,,,,,,,,,,,,,,,,,,,,,,,,,,,,,,,,,,,,,,,,,,,,,,,,,,,,,,,,,,,,,,,,,,,,,,,,,,,,,,,,,,,,,,,,,,,,,,,,,,,,,,,,,,,,,,,,,,,,,,,,,,,,,,,,
1725710397.900328,1725710397.90218,170.0,0.0,4253.974121,4251.410156,4229.615234,4277.436035,4196.666504,4247.179688,3947.94873,4216.025879,4215.384766,4220.641113,4545.256348,4498.974121,4385.769043,4444.615234,2909.0,1.0,15.0,,,,0.0,4.0,4.0,4.0,4.0,4.0,4.0,4.0,4.0,4.0,4.0,4.0,4.0,4.0,4.0,100.0,,,,,,,,,,,,,,,,,,,,,,,,,,,,,,,,,,,,,,,,,,,,,,,,,,,,,,,,,,,,,,,,,,,,,,,,,,,,,,,,,,,,,,,,,,,,,,,,,,,,,,,,,,,,,,,,,,,,,,,,,,,,,,,,,,,
1725710397.904232,1725710397.906084,171.0,0.0,4257.179688,4251.666504,4231.153809,4280.0,4198.205078,4248.205078,3942.179443,4220.128418,4219.487305,4227.05127,4553.205078,4504.871582,4389.230957,4447.436035,3149.0,1.0,15.0,,,,0.0,4.0,4.0,4.0,4.0,4.0,4.0,4.0,4.0,4.0,4.0,4.0,4.0,4.0,4.0,100.0,,,,,,,,,,,,,,,,,,,,,,,,,,,,,,,,,,,,,,,,,,,,,,,,,,,,,,,,,,,,,,,,,,,,,,,,,,,,,,,,,,,,,,,,,,,,,,,,,,,,,,,,,,,,,,,,,,,,,,,,,,,,,,,,,,,
1725710397.908136,1725710397.909988,172.0,0.0,4260.897461,4251.153809,4232.563965,4282.820313,4199.487305,4250.769043,3941.153809,4225.512695,4220.384766,4229.358887,4557.94873,4509.615234,4389.230957,4447.94873,3431.0,1.0,15.0,,,,0.0,4.0,4.0,4.0,4.0,4.0,4.0,4.0,4.0,4.0,4.0,4.0,4.0,4.0,4.0,100.0,,,,,,,,,,,,,,,,,,,,,,,,,,,,,,,,,,,,,,,,,,,,,,,,,,,,,,,,,,,,,,,,,,,,,,,,,,,,,,,,,,,,,,,,,,,,,,,,,,,,,,,,,,,,,,,,,,,,,,,,,,,,,,,,,,,
1725710397.91204,1725710397.913792,173.0,0.0,4263.461426,4250.897461,4233.333496,4284.358887,4200.0,4253.461426,3945.384521,4231.025879,4219.615234,4227.05127,4557.94873,4512.436035,4386.922852,4447.179688,3929.0,1.0,15.0,,,,0.0,4.0,4.0,4.0,4.0,4.0,4.0,4.0,4.0,4.0,4.0,4.0,4.0,4.0,4.0,100.0,,,,,,,,,,,,,,,,,,,,,,,,,,,,,,,,,,,,,,,,,,,,,,,,,,,,,,,,,,,,,,,,,,,,,,,,,,,,,,,,,,,,,,,,,,,,,,,,,,,,,,,,,,,,,,,,,,,,,,,,,,,,,,,,,,,
1725710397.915944,1725710397.917696,174.0,0.0,4264.230957,4252.05127,4233.333496,4283.974121,4199.615234,4254.743652,3951.025635,4235.0,4218.846191,4222.436035,4555.641113,4513.077148,4384.230957,4446.666504,2909.0,1.0,15.0,,,,0.0,4.0,4.0,4.0,4.0,4.0,4.0,4.0,4.0,4.0,4.0,4.0,4.0,4.0,4.0,100.0,,,,,,,,,,,,,,,,,,,,,,,,,,,,,,,,,,,,,,,,,,,,,,,,,,,,,,,,,,,,,,,,,,,,,,,,,,,,,,,,,,,,,,,,,,,,,,,,,,,,,,,,,,,,,,,,,,,,,,,,,,,,,,,,,,,
1725710397.919848,1725710397.9216,175.0,0.0,4263.461426,4254.102539,4232.94873,4282.692383,4198.717773,4254.358887,3953.846191,4236.282227,4219.358887,4218.589844,4554.358887,4512.179688,4382.563965,4447.05127,3149.0,1.0,15.0,,,,0.0,4.0,4.0,4.0,4.0,4.0,4.0,4.0,4.0,4.0,4.0,4.0,4.0,4.0,4.0,100.0,,,,,,,,,,,,,,,,,,,,,,,,,,,,,,,,,,,,,,,,,,,,,,,,,,,,,,,,,,,,,,,,,,,,,,,,,,,,,,,,,,,,,,,,,,,,,,,,,,,,,,,,,,,,,,,,,,,,,,,,,,,,,,,,,,,
1725710397.923752,1725710397.925504,176.0,0.0,4262.563965,4255.897461,4232.436035,4281.538574,4198.077148,4253.461426,3952.05127,4235.512695,4220.769043,4217.307617,4554.102539,4510.512695,4381.922852,4448.077148,3431.0,1.0,15.0,,,,0.0,4.0,4.0,4.0,4.0,4.0,4.0,4.0,4.0,4.0,4.0,4.0,4.0,4.0,4.0,100.0,,,,,,,,,,,,,,,,,1.0,0.0,0.0,,,,,,,,,,,,,,,,,,,,,,,,,,,,,,,,,,,,,0.0,0.0,1.0,0.0,1.0,0.0,1.216688,2.384515,0.522764,0.103436,0.061565,1.125421,1.172625,0.602044,0.289613,0.117107,1.033175,1.9312,0.354761,0.097381,0.040184,0.643637,1.75537,0.572379,0.222833,0.133041,0.507435,0.637906,0.20472,0.055831,0.059815,0.337481,0.508901,0.154936,0.054067,0.034109,8.928442,2.209593,1.01956,0.263171,0.222719,0.574541,5.710362,0.771745,0.249664,0.128828,0.734124,1.970889,0.26734,0.109552,0.15732,0.925792,1.953778,0.499236,0.214711,0.116336,1.647158,3.942411,0.635081,0.595416,0.307666,1.512589,7.049368,0.844826,0.205623,0.13795,1.802366,2.128383,0.826727,0.286337,0.118959,1.728363,4.084516,0.784438,0.201392,0.113267
1725710397.927656,1725710397.929308,177.0,0.0,4262.563965,4255.897461,4232.05127,4281.025879,4197.94873,4253.205078,3947.307617,4234.230957,4221.922852,4217.820313,4552.563965,4509.487305,4381.794922,4448.461426,3929.0,1.0,15.0,,,,0.0,4.0,4.0,4.0,4.0,4.0,4.0,4.0,4.0,4.0,4.0,4.0,4.0,4.0,4.0,100.0,,,,,,,,,,,,,,,,,,,,,,,,,,,,,,,,,,,,,,,,,,,,,,,,,,,,,,,,,,,,,,,,,,,,,,,,,,,,,,,,,,,,,,,,,,,,,,,,,,,,,,,,,,,,,,,,,,,,,,,,,,,,,,,,,,,
1725710397.93156,1725710397.933213,178.0,0.0,4263.205078,4253.974121,4231.538574,4280.384766,4197.820313,4254.743652,3943.461426,4233.717773,4221.666504,4218.589844,4547.692383,4509.102539,4381.922852,4447.563965,2909.0,1.0,15.0,,,,0.0,4.0,4.0,4.0,4.0,4.0,4.0,4.0,4.0,4.0,4.0,4.0,4.0,4.0,4.0,100.0,,,,,,,,,,,,,,,,,,,,,,,,,,,,,,,,,,,,,,,,,,,,,,,,,,,,,,,,,,,,,,,,,,,,,,,,,,,,,,,,,,,,,,,,,,,,,,,,,,,,,,,,,,,,,,,,,,,,,,,,,,,,,,,,,,,
1725710397.935465,1725710397.937117,179.0,0.0,4263.205078,4250.897461,4230.897461,4279.487305,4197.692383,4258.333496,3943.333252,4233.974121,4219.487305,4218.461426,4540.256348,4509.230957,4381.922852,4445.897461,3149.0,1.0,15.0,,,,0.0,4.0,4.0,4.0,4.0,4.0,4.0,4.0,4.0,4.0,4.0,4.0,4.0,4.0,4.0,100.0,,,,,,,,,,,,,,,,,,,,,,,,,,,,,,,,,,,,,,,,,,,,,,,,,,,,,,,,,,,,,,,,,,,,,,,,,,,,,,,,,,,,,,,,,,,,,,,,,,,,,,,,,,,,,,,,,,,,,,,,,,,,,,,,,,,
1725710397.939369,1725710397.940921,180.0,0.0,4261.922852,4247.820313,4230.0,4278.974121,4197.436035,4263.205078,3947.05127,4233.461426,4216.282227,4217.179688,4533.717773,4508.717773,4381.666504,4444.871582,3431.0,1.0,15.0,,,,0.0,4.0,4.0,4.0,4.0,4.0,4.0,4.0,4.0,4.0,4.0,4.0,4.0,4.0,4.0,100.0,,,,,,,,,,,,,,,,,,,,,,,,,,,,,,,,,,,,,,,,,,,,,,,,,,,,,,,,,,,,,,,,,,,,,,,,,,,,,,,,,,,,,,,,,,,,,,,,,,,,,,,,,,,,,,,,,,,,,,,,,,,,,,,,,,,
1725710397.943273,1725710397.944825,181.0,0.0,4260.0,4245.512695,4229.102539,4278.974121,4197.436035,4267.179688,3951.538574,4231.538574,4213.717773,4215.0,4531.153809,4506.666504,4380.769043,4444.358887,3929.0,1.0,15.0,,,,0.0,4.0,4.0,4.0,4.0,4.0,4.0,4.0,4.0,4.0,4.0,4.0,4.0,4.0,4.0,100.0,,,,,,,,,,,,,,,,,,,,,,,,,,,,,,,,,,,,,,,,,,,,,,,,,,,,,,,,,,,,,,,,,,,,,,,,,,,,,,,,,,,,,,,,,,,,,,,,,,,,,,,,,,,,,,,,,,,,,,,,,,,,,,,,,,,
1725710397.947177,1725710397.948729,182.0,0.0,4258.461426,4244.102539,4228.717773,4278.846191,4197.692383,4267.820313,3953.718018,4228.333496,4212.820313,4212.692383,4532.94873,4502.307617,4378.846191,4442.94873,2909.0,1.0,15.0,,,,0.0,4.0,4.0,4.0,4.0,4.0,4.0,4.0,4.0,4.0,4.0,4.0,4.0,4.0,4.0,100.0,,,,,,,,,,,,,,,,,,,,,,,,,,,,,,,,,,,,,,,,,,,,,,,,,,,,,,,,,,,,,,,,,,,,,,,,,,,,,,,,,,,,,,,,,,,,,,,,,,,,,,,,,,,,,,,,,,,,,,,,,,,,,,,,,,,
1725710397.951081,1725710397.952733,183.0,0.0,4257.563965,4243.846191,4228.974121,4277.179688,4198.077148,4264.487305,3953.333252,4225.769043,4213.589844,4210.769043,4536.794922,4496.794922,4376.025879,4439.487305,3149.0,1.0,15.0,,,,0.0,4.0,4.0,4.0,4.0,4.0,4.0,4.0,4.0,4.0,4.0,4.0,4.0,4.0,4.0,100.0,,,,,,,,,,,,,,,,,,,,,,,,,,,,,,,,,,,,,,,,,,,,,,,,,,,,,,,,,,,,,,,,,,,,,,,,,,,,,,,,,,,,,,,,,,,,,,,,,,,,,,,,,,,,,,,,,,,,,,,,,,,,,,,,,,,
1725710397.954985,1725710397.956637,184.0,0.0,4256.794922,4244.230957,4229.871582,4273.974121,4198.333496,4258.974121,3952.94873,4225.256348,4215.384766,4209.615234,4539.871582,4492.436035,4372.436035,4434.358887,3431.0,1.0,15.0,,,,0.0,4.0,4.0,4.0,4.0,4.0,4.0,4.0,4.0,4.0,4.0,4.0,4.0,4.0,4.0,100.0,,,,,,,,,,,,,,,,,,,,,,,,,,,,,,,,,,,,,,,,,,,,,,,,,,,,,,,,0.0,0.0,1.0,0.0,1.0,0.0,,,,,,,,,,,,,,,,,,,,,,,,,,,,,,,,,,,,,,,,,,,,,,,,,,,,,,,,,,,,,,,,,,,,,,
1725710397.958889,1725710397.960541,185.0,0.0,4255.256348,4244.358887,4230.769043,4270.384766,4198.461426,4254.102539,3955.897461,4227.05127,4217.563965,4209.230957,4541.282227,4491.410156,4369.487305,4430.128418,3929.0,1.0,15.0,,,,0.0,4.0,4.0,4.0,4.0,4.0,4.0,4.0,4.0,4.0,4.0,4.0,4.0,4.0,4.0,100.0,,,,,,,,,,,,,,,,,,,,,,,,,,,,,,,,,,,,,,,,,,,,,,,,,,,,,,,,,,,,,,,,,,,,,,,,,,,,,,,,,,,,,,,,,,,,,,,,,,,,,,,,,,,,,,,,,,,,,,,,,,,,,,,,,,,
1725710397.962793,1725710397.964445,186.0,0.0,4253.333496,4244.230957,4231.410156,4268.589844,4198.589844,4252.05127,3962.820557,4229.615234,4219.102539,4209.871582,4541.153809,4494.230957,4368.846191,4428.974121,2909.0,1.0,15.0,,,,0.0,4.0,4.0,4.0,4.0,4.0,4.0,4.0,4.0,4.0,4.0,4.0,4.0,4.0,4.0,100.0,,,,,,,,,,,,,,,,,,,,,,,,,,,,,,,,,,,,,,,,,,,,,,,,,,,,,,,,,,,,,,,,,,,,,,,,,,,,,,,,,,,,,,,,,,,,,,,,,,,,,,,,,,,,,,,,,,,,,,,,,,,,,,,,,,,
1725710397.966697,1725710397.968449,187.0,0.0,4252.307617,4243.846191,4231.794922,4269.615234,4198.846191,4253.333496,3970.512939,4231.666504,4219.487305,4211.538574,4540.512695,4498.974121,4371.410156,4431.153809,3149.0,1.0,15.0,,,,0.0,4.0,4.0,4.0,4.0,4.0,4.0,4.0,4.0,4.0,4.0,4.0,4.0,4.0,4.0,100.0,,,,,,,,,,,,,,,,,,,,,,,,,,,,,,,,,,,,,,,,,,,,,,,,,,,,,,,,,,,,,,,,,,,,,,,,,,,,,,,,,,,,,,,,,,,,,,,,,,,,,,,,,,,,,,,,,,,,,,,,,,,,,,,,,,,
1725710397.970601,1725710397.972354,188.0,0.0,4252.820313,4243.846191,4232.179688,4273.333496,4199.487305,4256.794922,3975.0,4232.307617,4218.461426,4213.333496,4539.743652,4502.820313,4376.794922,4435.641113,3431.0,1.0,15.0,,,,0.0,4.0,4.0,4.0,4.0,4.0,4.0,4.0,4.0,4.0,4.0,4.0,4.0,4.0,4.0,100.0,,,,,,,,,,,,,,,,,,,,,,,,,,,,,,,,,,,,,,,,,,,,,,,,,,,,,,,,,,,,,,,,,,,,,,,,,,,,,,,,,,,,,,,,,,,,,,,,,,,,,,,,,,,,,,,,,,,,,,,,,,,,,,,,,,,
1725710397.974506,1725710397.976258,189.0,0.0,4255.0,4244.871582,4232.692383,4277.436035,4200.384766,4260.897461,3974.615479,4231.666504,4216.794922,4214.358887,4538.846191,4504.230957,4381.922852,4440.256348,3929.0,1.0,15.0,,,,0.0,4.0,4.0,4.0,4.0,4.0,4.0,4.0,4.0,4.0,4.0,4.0,4.0,4.0,4.0,100.0,,,,,,,,,,,,,,,,,,,,,,,,,,,,,,,,,,,,,,,,,,,,,,,,,,,,,,,,,,,,,,,,,,,,,,,,,,,,,,,,,,,,,,,,,,,,,,,,,,,,,,,,,,,,,,,,,,,,,,,,,,,,,,,,,,,
1725710397.97841,1725710397.980162,190.0,0.0,4257.563965,4246.282227,4233.717773,4279.743652,4201.153809,4263.589844,3971.666748,4230.384766,4216.282227,4214.230957,4538.333496,4503.589844,4384.230957,4443.333496,2909.0,1.0,15.0,,,,0.0,4.0,4.0,4.0,4.0,4.0,4.0,4.0,4.0,4.0,4.0,4.0,4.0,4.0,4.0,100.0,,,,,,,,,,,,,,,,,,,,,,,,,,,,,,,,,,,,,,,,,,,,,,,,,,,,,,,,,,,,,,,,,,,,,,,,,,,,,,,,,,,,,,,,,,,,,,,,,,,,,,,,,,,,,,,,,,,,,,,,,,,,,,,,,,,
1725710397.982314,1725710397.984166,191.0,0.0,4259.615234,4247.307617,4234.871582,4279.743652,4201.282227,4263.846191,3971.281982,4229.743652,4218.077148,4213.589844,4538.717773,4503.077148,4382.94873,4443.461426,3149.0,1.0,15.0,,,,0.0,4.0,4.0,4.0,4.0,4.0,4.0,4.0,4.0,4.0,4.0,4.0,4.0,4.0,4.0,100.0,,,,,,,,,,,,,,,,,,,,,,,,,,,,,,,,,,,,,,,,,,,,,,,,,,,,,,,,,,,,,,,,,,,,,,,,,,,,,,,,,,,,,,,,,,,,,,,,,,,,,,,,,,,,,,,,,,,,,,,,,,,,,,,,,,,
1725710397.986218,1725710397.98807,192.0,0.0,4260.256348,4246.922852,4235.769043,4278.333496,4200.897461,4262.307617,3977.179443,4230.769043,4221.538574,4213.077148,4540.256348,4504.230957,4379.615234,4441.538574,3431.0,1.0,15.0,,,,0.0,4.0,4.0,4.0,4.0,4.0,4.0,4.0,4.0,4.0,4.0,4.0,4.0,4.0,4.0,100.0,,,,,,,,,,,,,,,,,,,,,,,,,,,,,,,,,,,,,,,,,,,,,,,,,,,,,,,,0.0,0.0,1.0,0.0,1.0,0.0,,,,,,,,,,,,,,,,,,,,,,,,,,,,,,,,,,,,,,,,,,,,,,,,,,,,,,,,,,,,,,,,,,,,,,
1725710397.990122,1725710397.991974,193.0,0.0,4259.487305,4245.384766,4235.897461,4277.563965,4200.256348,4260.384766,3990.0,4233.461426,4225.256348,4212.94873,4541.666504,4506.153809,4376.410156,4439.230957,3929.0,1.0,15.0,,,,0.0,4.0,4.0,4.0,4.0,4.0,4.0,4.0,4.0,4.0,4.0,4.0,4.0,4.0,4.0,100.0,,,,,,,,,,,,,,,,,,,,,,,,,,,,,,,,,,,,,,,,,,,,,,,,,,,,,,,,,,,,,,,,,,,,,,,,,,,,,,,,,,,,,,,,,,,,,,,,,,,,,,,,,,,,,,,,,,,,,,,,,,,,,,,,,,,
1725710397.994026,1725710397.995878,194.0,0.0,4257.820313,4244.102539,4235.256348,4278.333496,4199.743652,4259.743652,4006.538574,4235.769043,4227.563965,4212.820313,4541.410156,4507.563965,4374.358887,4437.820313,2909.0,1.0,15.0,,,,0.0,4.0,4.0,4.0,4.0,4.0,4.0,4.0,4.0,4.0,4.0,4.0,4.0,4.0,4.0,100.0,,,,,,,,,,,,,,,,,,,,,,,,,,,,,,,,,,,,,,,,,,,,,,,,,,,,,,,,,,,,,,,,,,,,,,,,,,,,,,,,,,,,,,,,,,,,,,,,,,,,,,,,,,,,,,,,,,,,,,,,,,,,,,,,,,,
1725710397.99793,1725710397.999782,195.0,0.0,4256.410156,4244.615234,4234.230957,4280.384766,4199.615234,4260.256348,4021.794922,4235.384766,4227.820313,4212.307617,4538.846191,4507.05127,4372.563965,4437.436035,3149.0,1.0,15.0,,,,0.0,4.0,4.0,4.0,4.0,4.0,4.0,4.0,4.0,4.0,4.0,4.0,4.0,4.0,4.0,100.0,,,,,,,,,,,,,,,,,,,,,,,,,,,,,,,,,,,,,,,,,,,,,,,,,,,,,,,,,,,,,,,,,,,,,,,,,,,,,,,,,,,,,,,,,,,,,,,,,,,,,,,,,,,,,,,,,,,,,,,,,,,,,,,,,,,
1725710398.001834,1725710398.003586,196.0,0.0,4256.410156,4247.05127,4233.717773,4282.563965,4200.0,4261.410156,4032.435791,4232.692383,4226.666504,4211.794922,4535.384766,4505.641113,4370.512695,4437.436035,3431.0,1.0,15.0,,,,0.0,4.0,4.0,4.0,4.0,4.0,4.0,4.0,4.0,4.0,4.0,4.0,4.0,4.0,4.0,100.0,,,,,,,,,,,,,,,,,,,,,,,,,,,,,,,,,,,,,,,,,,,,,,,,,,,,,,,,,,,,,,,,,,,,,,,,,,,,,,,,,,,,,,,,,,,,,,,,,,,,,,,,,,,,,,,,,,,,,,,,,,,,,,,,,,,
1725710398.005738,1725710398.00749,197.0,0.0,4258.205078,4249.230957,4234.230957,4284.102539,4201.025879,4261.922852,4038.333252,4230.512695,4226.025879,4211.922852,4534.743652,4505.512695,4369.743652,4438.205078,3929.0,1.0,15.0,,,,0.0,4.0,4.0,4.0,4.0,4.0,4.0,4.0,4.0,4.0,4.0,4.0,4.0,4.0,4.0,100.0,,,,,,,,,,,,,,,,,,,,,,,,,,,,,,,,,,,,,,,,,,,,,,,,,,,,,,,,,,,,,,,,,,,,,,,,,,,,,,,,,,,,,,,,,,,,,,,,,,,,,,,,,,,,,,,,,,,,,,,,,,,,,,,,,,,
1725710398.009642,1725710398.011395,198.0,0.0,4261.153809,4249.358887,4235.641113,4285.769043,4202.179688,4262.05127,4042.179443,4232.179688,4227.563965,4213.333496,4540.128418,4509.230957,4373.205078,4441.538574,2909.0,1.0,15.0,,,,0.0,4.0,4.0,4.0,4.0,4.0,4.0,4.0,4.0,4.0,4.0,4.0,4.0,4.0,4.0,100.0,,,,,,,,,,,,,,,,,,,,,,,,,,,,,,,,,,,,,,,,,,,,,,,,,,,,,,,,,,,,,,,,,,,,,,,,,,,,,,,,,,,,,,,,,,,,,,,,,,,,,,,,,,,,,,,,,,,,,,,,,,,,,,,,,,,
1725710398.013547,1725710398.015299,199.0,0.0,4264.358887,4247.563965,4236.922852,4288.589844,4203.077148,4262.307617,4047.692383,4238.461426,4231.282227,4215.897461,4550.512695,4517.05127,4382.563965,4448.077148,3149.0,1.0,15.0,,,,0.0,4.0,4.0,4.0,4.0,4.0,4.0,4.0,4.0,4.0,4.0,4.0,4.0,4.0,4.0,100.0,,,,,,,,,,,,,,,,,,,,,,,,,,,,,,,,,,,,,,,,,,,,,,,,,,,,,,,,,,,,,,,,,,,,,,,,,,,,,,,,,,,,,,,,,,,,,,,,,,,,,,,,,,,,,,,,,,,,,,,,,,,,,,,,,,,
1725710398.017451,1725710398.019103,200.0,0.0,4266.538574,4246.410156,4237.436035,4292.692383,4203.717773,4262.563965,4055.769287,4246.282227,4235.512695,4218.589844,4560.384766,4525.897461,4394.615234,4455.897461,3431.0,1.0,15.0,,,,0.0,4.0,4.0,4.0,4.0,4.0,4.0,4.0,4.0,4.0,4.0,4.0,4.0,4.0,4.0,100.0,,,,,,,,,,,,,,,,,,,,,,,,,,,,,,,,,,,,,,,,,,,,,,,,,,,,,,,,0.0,0.0,1.0,0.0,1.0,0.0,,,,,,,,,,,,,,,,,,,,,,,,,,,,,,,,,,,,,,,,,,,,,,,,,,,,,,,,,,,,,,,,,,,,,,
1725710398.021355,1725710398.023007,201.0,0.0,4266.410156,4248.077148,4236.922852,4296.282227,4204.230957,4262.436035,4065.256348,4250.769043,4237.94873,4220.256348,4563.205078,4531.153809,4402.94873,4461.153809,3929.0,1.0,15.0,,,,0.0,4.0,4.0,4.0,4.0,4.0,4.0,4.0,4.0,4.0,4.0,4.0,4.0,4.0,4.0,100.0,,,,,,,,,,,,,,,,,,,,,,,,,,,,,,,,,,,,,,,,,,,,,,,,,,,,,,,,,,,,,,,,,,,,,,,,,,,,,,,,,,,,,,,,,,,,,,,,,,,,,,,,,,,,,,,,,,,,,,,,,,,,,,,,,,,
1725710398.025259,1725710398.026911,202.0,0.0,4264.102539,4252.563965,4235.641113,4297.820313,4204.487305,4261.538574,4073.974365,4248.589844,4237.307617,4220.256348,4557.05127,4530.0,4402.692383,4460.769043,2909.0,1.0,15.0,,,,0.0,4.0,4.0,4.0,4.0,4.0,4.0,4.0,4.0,4.0,4.0,4.0,4.0,4.0,4.0,100.0,,,,,,,,,,,,,,,,,,,,,,,,,,,,,,,,,,,,,,,,,,,,,,,,,,,,,,,,,,,,,,,,,,,,,,,,,,,,,,,,,,,,,,,,,,,,,,,,,,,,,,,,,,,,,,,,,,,,,,,,,,,,,,,,,,,
1725710398.029163,1725710398.030815,203.0,0.0,4261.666504,4257.307617,4234.358887,4296.666504,4204.487305,4260.384766,4081.025635,4240.512695,4234.230957,4219.487305,4546.666504,4523.205078,4394.871582,4455.384766,3149.0,1.0,15.0,,,,0.0,4.0,4.0,4.0,4.0,4.0,4.0,4.0,4.0,4.0,4.0,4.0,4.0,4.0,4.0,100.0,,,,,,,,,,,,,,,,,,,,,,,,,,,,,,,,,,,,,,,,,,,,,,,,,,,,,,,,,,,,,,,,,,,,,,,,,,,,,,,,,,,,,,,,,,,,,,,,,,,,,,,,,,,,,,,,,,,,,,,,,,,,,,,,,,,
1725710398.033067,1725710398.034619,204.0,0.0,4261.153809,4259.487305,4233.333496,4292.820313,4204.230957,4259.102539,4086.923096,4231.410156,4230.897461,4218.974121,4539.743652,4514.615234,4386.025879,4448.461426,3431.0,1.0,15.0,,,,0.0,4.0,4.0,4.0,4.0,4.0,4.0,4.0,4.0,4.0,4.0,4.0,4.0,4.0,4.0,100.0,,,,,,,,,,,,,,,,,,,,,,,,,,,,,,,,,,,,,,,,,,,,,,,,,,,,,,,,,,,,,,,,,,,,,,,,,,,,,,,,,,,,,,,,,,,,,,,,,,,,,,,,,,,,,,,,,,,,,,,,,,,,,,,,,,,
1725710398.036971,1725710398.038523,205.0,0.0,4262.563965,4257.692383,4232.436035,4286.666504,4203.589844,4257.820313,4092.307617,4226.666504,4229.487305,4219.230957,4541.153809,4508.333496,4382.692383,4443.974121,3929.0,1.0,15.0,,,,0.0,4.0,4.0,4.0,4.0,4.0,4.0,4.0,4.0,4.0,4.0,4.0,4.0,4.0,4.0,100.0,,,,,,,,,,,,,,,,,,,,,,,,,,,,,,,,,,,,,,,,,,,,,,,,,,,,,,,,,,,,,,,,,,,,,,,,,,,,,,,,,,,,,,,,,,,,,,,,,,,,,,,,,,,,,,,,,,,,,,,,,,,,,,,,,,,
1725710398.040875,1725710398.042428,206.0,0.0,4263.717773,4253.205078,4231.922852,4279.487305,4203.077148,4256.794922,4097.820313,4228.205078,4230.512695,4220.256348,4548.846191,4506.538574,4386.538574,4443.077148,2909.0,1.0,15.0,,,,0.0,4.0,4.0,4.0,4.0,4.0,4.0,4.0,4.0,4.0,4.0,4.0,4.0,4.0,4.0,100.0,,,,,,,,,,,,,,,,,,,,,,,,,,,,,,,,,,,,,,,,,,,,,,,,,,,,,,,,,,,,,,,,,,,,,,,,,,,,,,,,,,,,,,,,,,,,,,,,,,,,,,,,,,,,,,,,,,,,,,,,,,,,,,,,,,,
1725710398.044779,1725710398.046232,207.0,0.0,4262.307617,4248.974121,4231.666504,4274.358887,4202.94873,4256.153809,4103.333496,4233.333496,4232.94873,4221.153809,4556.025879,4508.205078,4393.717773,4444.358887,3149.0,1.0,15.0,,,,0.0,4.0,4.0,4.0,4.0,4.0,4.0,4.0,4.0,4.0,4.0,4.0,4.0,4.0,4.0,100.0,,,,,,,,,,,,,,,,,,,,,,,,,,,,,,,,,,,,,,,,,,,,,,,,,,,,,,,,,,,,,,,,,,,,,,,,,,,,,,,,,,,,,,,,,,,,,,,,,,,,,,,,,,,,,,,,,,,,,,,,,,,,,,,,,,,
1725710398.048684,1725710398.050136,208.0,0.0,4258.333496,4246.922852,4231.922852,4273.717773,4203.077148,4256.410156,4109.102539,4236.666504,4235.0,4221.025879,4556.794922,4510.128418,4397.820313,4445.256348,3431.0,1.0,15.0,,,,0.0,4.0,4.0,4.0,4.0,4.0,4.0,4.0,4.0,4.0,4.0,4.0,4.0,4.0,4.0,100.0,,,,,,,,,,,,,,,,,1.0,0.0,0.0,,,,,,,,,,,,,,,,,,,,,,,,,,,,,,,,,,,,,0.0,0.0,1.0,0.0,1.0,0.0,1.485004,2.763363,0.669228,0.104579,0.06554,1.354641,1.40872,0.745412,0.292552,0.112617,1.277338,2.384692,0.398218,0.094265,0.046928,0.83324,2.276953,0.697295,0.212802,0.127038,0.573495,0.702191,0.215645,0.064939,0.053655,0.303678,0.498286,0.138441,0.050122,0.028842,11.178422,2.343607,1.131308,0.345604,0.212048,0.510963,6.040597,0.594276,0.280912,0.122801,0.890414,2.356501,0.227673,0.116081,0.161971,1.026146,2.401947,0.574167,0.252063,0.11895,1.883962,4.708277,0.737583,0.64119,0.287647,1.740403,8.385417,0.955204,0.252959,0.126894,2.284561,2.609903,1.102589,0.331015,0.123123,2.276883,4.948648,0.995162,0.203333,0.111
1725710398.052588,1725710398.05404,209.0,0.0,4253.846191,4247.179688,4232.307617,4277.179688,4203.205078,4257.307617,4115.384766,4234.358887,4234.871582,4219.487305,4550.256348,4509.487305,4395.769043,4444.615234,3929.0,1.0,15.0,,,,0.0,4.0,4.0,4.0,4.0,4.0,4.0,4.0,4.0,4.0,4.0,4.0,4.0,4.0,4.0,100.0,,,,,,,,,,,,,,,,,,,,,,,,,,,,,,,,,,,,,,,,,,,,,,,,,,,,,,,,,,,,,,,,,,,,,,,,,,,,,,,,,,,,,,,,,,,,,,,,,,,,,,,,,,,,,,,,,,,,,,,,,,,,,,,,,,,
1725710398.056492,1725710398.058044,210.0,0.0,4251.922852,4248.333496,4232.563965,4280.769043,4202.94873,4258.077148,4122.179688,4226.666504,4232.563965,4217.307617,4540.769043,4505.512695,4389.487305,4442.94873,2909.0,1.0,15.0,,,,0.0,4.0,4.0,4.0,4.0,4.0,4.0,4.0,4.0,4.0,4.0,4.0,4.0,4.0,4.0,100.0,,,,,,,,,,,,,,,,,,,,,,,,,,,,,,,,,,,,,,,,,,,,,,,,,,,,,,,,,,,,,,,,,,,,,,,,,,,,,,,,,,,,,,,,,,,,,,,,,,,,,,,,,,,,,,,,,,,,,,,,,,,,,,,,,,,
1725710398.060396,1725710398.061948,211.0,0.0,4253.717773,4248.333496,4232.179688,4280.641113,4202.307617,4257.307617,4128.717773,4218.205078,4229.230957,4215.384766,4534.230957,4500.128418,4384.871582,4441.666504,3149.0,1.0,15.0,,,,0.0,4.0,4.0,4.0,4.0,4.0,4.0,4.0,4.0,4.0,4.0,4.0,4.0,4.0,4.0,100.0,,,,,,,,,,,,,,,,,,,,,,,,,,,,,,,,,,,,,,,,,,,,,,,,,,,,,,,,,,,,,,,,,,,,,,,,,,,,,,,,,,,,,,,,,,,,,,,,,,,,,,,,,,,,,,,,,,,,,,,,,,,,,,,,,,,
1725710398.0643,1725710398.065852,212.0,0.0,4258.077148,4247.436035,4230.897461,4275.641113,4201.410156,4254.615234,4133.846191,4213.333496,4226.666504,4214.743652,4533.589844,4495.512695,4385.769043,4442.307617,3431.0,1.0,15.0,,,,0.0,4.0,4.0,4.0,4.0,4.0,4.0,4.0,4.0,4.0,4.0,4.0,4.0,4.0,4.0,100.0,,,,,,,,,,,,,,,,,,,,,,,,,,,,,,,,,,,,,,,,,,,,,,,,,,,,,,,,,,,,,,,,,,,,,,,,,,,,,,,,,,,,,,,,,,,,,,,,,,,,,,,,,,,,,,,,,,,,,,,,,,,,,,,,,,,
1725710398.068204,1725710398.069756,213.0,0.0,4261.922852,4246.794922,4229.487305,4268.461426,4200.897461,4250.897461,4137.563965,4213.461426,4226.282227,4214.615234,4537.436035,4492.05127,4391.282227,4444.102539,3929.0,1.0,15.0,,,,0.0,4.0,4.0,4.0,4.0,4.0,4.0,4.0,4.0,4.0,4.0,4.0,4.0,4.0,4.0,100.0,,,,,,,,,,,,,,,,,,,,,,,,,,,,,,,,,,,,,,,,,,,,,,,,,,,,,,,,,,,,,,,,,,,,,,,,,,,,,,,,,,,,,,,,,,,,,,,,,,,,,,,,,,,,,,,,,,,,,,,,,,,,,,,,,,,
1725710398.072108,1725710398.07376,214.0,0.0,4263.205078,4247.692383,4228.461426,4263.846191,4201.153809,4248.717773,4141.025879,4216.410156,4227.692383,4214.102539,4541.794922,4490.128418,4396.666504,4445.0,2909.0,1.0,15.0,,,,0.0,4.0,4.0,4.0,4.0,4.0,4.0,4.0,4.0,4.0,4.0,4.0,4.0,4.0,4.0,100.0,,,,,,,,,,,,,,,,,,,,,,,,,,,,,,,,,,,,,,,,,,,,,,,,,,,,,,,,,,,,,,,,,,,,,,,,,,,,,,,,,,,,,,,,,,,,,,,,,,,,,,,,,,,,,,,,,,,,,,,,,,,,,,,,,,,
1725710398.076012,1725710398.077664,215.0,0.0,4261.538574,4249.871582,4228.077148,4265.256348,4202.179688,4249.358887,4145.897461,4218.717773,4230.128418,4212.94873,4543.205078,4490.0,4398.333496,4443.717773,3149.0,1.0,15.0,,,,0.0,4.0,4.0,4.0,4.0,4.0,4.0,4.0,4.0,4.0,4.0,4.0,4.0,4.0,4.0,100.0,,,,,,,,,,,,,,,,,,,,,,,,,,,,,,,,,,,,,,,,,,,,,,,,,,,,,,,,,,,,,,,,,,,,,,,,,,,,,,,,,,,,,,,,,,,,,,,,,,,,,,,,,,,,,,,,,,,,,,,,,,,,,,,,,,,
1725710398.079916,1725710398.081569,216.0,0.0,4258.717773,4252.179688,4228.461426,4272.179688,4203.333496,4252.563965,4152.692383,4218.333496,4232.307617,4212.307617,4541.282227,4491.922852,4396.666504,4441.410156,3431.0,1.0,15.0,,,,0.0,4.0,4.0,4.0,4.0,4.0,4.0,4.0,4.0,4.0,4.0,4.0,4.0,4.0,4.0,100.0,,,,,,,,,,,,,,,,,,,,,,,,,,,,,,,,,,,,,,,,,,,,,,,,,,,,,,,,0.0,0.0,1.0,0.0,1.0,0.0,,,,,,,,,,,,,,,,,,,,,,,,,,,,,,,,,,,,,,,,,,,,,,,,,,,,,,,,,,,,,,,,,,,,,,
1725710398.08382,1725710398.085473,217.0,0.0,4257.05127,4253.077148,4229.102539,4279.615234,4203.589844,4255.897461,4159.871582,4216.666504,4233.333496,4213.589844,4538.333496,4495.384766,4395.128418,4440.256348,3929.0,1.0,15.0,,,,0.0,4.0,4.0,4.0,4.0,4.0,4.0,4.0,4.0,4.0,4.0,4.0,4.0,4.0,4.0,100.0,,,,,,,,,,,,,,,,,,,,,,,,,,,,,,,,,,,,,,,,,,,,,,,,,,,,,,,,,,,,,,,,,,,,,,,,,,,,,,,,,,,,,,,,,,,,,,,,,,,,,,,,,,,,,,,,,,,,,,,,,,,,,,,,,,,
1725710398.087724,1725710398.089477,218.0,0.0,4257.307617,4252.05127,4229.487305,4282.436035,4202.563965,4257.179688,4165.512695,4215.897461,4233.077148,4216.538574,4536.794922,4498.974121,4395.512695,4441.410156,2909.0,1.0,15.0,,,,0.0,4.0,4.0,4.0,4.0,4.0,4.0,4.0,4.0,4.0,4.0,4.0,4.0,4.0,4.0,100.0,,,,,,,,,,,,,,,,,,,,,,,,,,,,,,,,,,,,,,,,,,,,,,,,,,,,,,,,,,,,,,,,,,,,,,,,,,,,,,,,,,,,,,,,,,,,,,,,,,,,,,,,,,,,,,,,,,,,,,,,,,,,,,,,,,,
1725710398.091628,1725710398.093381,219.0,0.0,4258.846191,4249.487305,4229.358887,4278.717773,4200.897461,4256.153809,4169.102539,4217.563965,4231.922852,4218.333496,4537.436035,4501.282227,4397.179688,4443.717773,3149.0,1.0,15.0,,,,0.0,4.0,4.0,4.0,4.0,4.0,4.0,4.0,4.0,4.0,4.0,4.0,4.0,4.0,4.0,100.0,,,,,,,,,,,,,,,,,,,,,,,,,,,,,,,,,,,,,,,,,,,,,,,,,,,,,,,,,,,,,,,,,,,,,,,,,,,,,,,,,,,,,,,,,,,,,,,,,,,,,,,,,,,,,,,,,,,,,,,,,,,,,,,,,,,
1725710398.095533,1725710398.097285,220.0,0.0,4260.256348,4246.794922,4228.846191,4271.282227,4200.0,4254.615234,4171.666504,4221.666504,4231.538574,4216.538574,4539.487305,4501.410156,4397.563965,4445.384766,3431.0,1.0,15.0,,,,0.0,4.0,4.0,4.0,4.0,4.0,4.0,4.0,4.0,4.0,4.0,4.0,4.0,4.0,4.0,100.0,,,,,,,,,,,,,,,,,,,,,,,,,,,,,,,,,,,,,,,,,,,,,,,,,,,,,,,,,,,,,,,,,,,,,,,,,,,,,,,,,,,,,,,,,,,,,,,,,,,,,,,,,,,,,,,,,,,,,,,,,,,,,,,,,,,
1725710398.099437,1725710398.101189,221.0,0.0,4260.256348,4245.384766,4228.461426,4265.256348,4200.512695,4254.487305,4174.743652,4226.025879,4232.179688,4211.153809,4541.410156,4499.615234,4395.128418,4445.0,3929.0,1.0,15.0,,,,0.0,4.0,4.0,4.0,4.0,4.0,4.0,4.0,4.0,4.0,4.0,4.0,4.0,4.0,4.0,100.0,,,,,,,,,,,,,,,,,,,,,,,,,,,,,,,,,,,,,,,,,,,,,,,,,,,,,,,,,,,,,,,,,,,,,,,,,,,,,,,,,,,,,,,,,,,,,,,,,,,,,,,,,,,,,,,,,,,,,,,,,,,,,,,,,,,
1725710398.103341,1725710398.105093,222.0,0.0,4259.102539,4246.538574,4228.589844,4264.487305,4202.179688,4256.410156,4179.230957,4227.692383,4232.94873,4205.128418,4542.692383,4497.307617,4390.897461,4443.077148,2909.0,1.0,15.0,,,,0.0,4.0,4.0,4.0,4.0,4.0,4.0,4.0,4.0,4.0,4.0,4.0,4.0,4.0,4.0,100.0,,,,,,,,,,,,,,,,,,,,,,,,,,,,,,,,,,,,,,,,,,,,,,,,,,,,,,,,,,,,,,,,,,,,,,,,,,,,,,,,,,,,,,,,,,,,,,,,,,,,,,,,,,,,,,,,,,,,,,,,,,,,,,,,,,,
1725710398.107245,1725710398.108897,223.0,0.0,4257.820313,4250.256348,4229.615234,4268.846191,4204.102539,4258.974121,4183.846191,4225.384766,4232.05127,4201.666504,4542.94873,4495.641113,4387.179688,4441.025879,3149.0,1.0,15.0,,,,0.0,4.0,4.0,4.0,4.0,4.0,4.0,4.0,4.0,4.0,4.0,4.0,4.0,4.0,4.0,100.0,,,,,,,,,,,,,,,,,,,,,,,,,,,,,,,,,,,,,,,,,,,,,,,,,,,,,,,,,,,,,,,,,,,,,,,,,,,,,,,,,,,,,,,,,,,,,,,,,,,,,,,,,,,,,,,,,,,,,,,,,,,,,,,,,,,
1725710398.111149,1725710398.112801,224.0,0.0,4257.436035,4255.0,4230.897461,4274.743652,4205.256348,4260.641113,4186.538574,4220.128418,4228.974121,4202.563965,4541.666504,4494.743652,4385.641113,4439.871582,3431.0,1.0,15.0,,,,0.0,4.0,4.0,4.0,4.0,4.0,4.0,4.0,4.0,4.0,4.0,4.0,4.0,4.0,4.0,100.0,,,,,,,,,,,,,,,,,,,,,,,,,,,,,,,,,,,,,,,,,,,,,,,,,,,,,,,,0.0,0.0,1.0,0.0,1.0,0.0,,,,,,,,,,,,,,,,,,,,,,,,,,,,,,,,,,,,,,,,,,,,,,,,,,,,,,,,,,,,,,,,,,,,,,
1725710398.115053,1725710398.116705,225.0,0.0,4257.692383,4258.077148,4232.307617,4278.077148,4205.256348,4260.641113,4187.05127,4215.128418,4224.358887,4206.666504,4539.358887,4494.743652,4386.538574,4440.0,3929.0,1.0,15.0,,,,0.0,4.0,4.0,4.0,4.0,4.0,4.0,4.0,4.0,4.0,4.0,4.0,4.0,4.0,4.0,100.0,,,,,,,,,,,,,,,,,,,,,,,,,,,,,,,,,,,,,,,,,,,,,,,,,,,,,,,,,,,,,,,,,,,,,,,,,,,,,,,,,,,,,,,,,,,,,,,,,,,,,,,,,,,,,,,,,,,,,,,,,,,,,,,,,,,
1725710398.118957,1725710398.12061,226.0,0.0,4258.461426,4257.692383,4233.077148,4278.205078,4204.871582,4259.615234,4187.436035,4213.333496,4220.769043,4211.666504,4537.179688,4495.128418,4388.974121,4441.025879,2909.0,1.0,15.0,,,,0.0,4.0,4.0,4.0,4.0,4.0,4.0,4.0,4.0,4.0,4.0,4.0,4.0,4.0,4.0,100.0,,,,,,,,,,,,,,,,,,,,,,,,,,,,,,,,,,,,,,,,,,,,,,,,,,,,,,,,,,,,,,,,,,,,,,,,,,,,,,,,,,,,,,,,,,,,,,,,,,,,,,,,,,,,,,,,,,,,,,,,,,,,,,,,,,,
1725710398.122861,1725710398.124414,227.0,0.0,4258.974121,4254.358887,4233.461426,4276.666504,4204.487305,4258.717773,4190.897461,4215.128418,4220.128418,4214.871582,4536.666504,4495.256348,4391.922852,4442.307617,3149.0,1.0,15.0,,,,0.0,4.0,4.0,4.0,4.0,4.0,4.0,4.0,4.0,4.0,4.0,4.0,4.0,4.0,4.0,100.0,,,,,,,,,,,,,,,,,,,,,,,,,,,,,,,,,,,,,,,,,,,,,,,,,,,,,,,,,,,,,,,,,,,,,,,,,,,,,,,,,,,,,,,,,,,,,,,,,,,,,,,,,,,,,,,,,,,,,,,,,,,,,,,,,,,
1725710398.126765,1725710398.128318,228.0,0.0,4258.974121,4250.128418,4233.717773,4276.025879,4204.358887,4258.077148,4198.717773,4218.333496,4222.820313,4215.256348,4537.94873,4494.487305,4394.487305,4442.94873,3431.0,1.0,15.0,,,,0.0,4.0,4.0,4.0,4.0,4.0,4.0,4.0,4.0,4.0,4.0,4.0,4.0,4.0,4.0,100.0,,,,,,,,,,,,,,,,,,,,,,,,,,,,,,,,,,,,,,,,,,,,,,,,,,,,,,,,,,,,,,,,,,,,,,,,,,,,,,,,,,,,,,,,,,,,,,,,,,,,,,,,,,,,,,,,,,,,,,,,,,,,,,,,,,,
1725710398.130669,1725710398.132222,229.0,0.0,4258.846191,4248.205078,4234.102539,4276.922852,4204.230957,4257.179688,4208.333496,4220.128418,4226.922852,4213.077148,4540.128418,4492.820313,4396.025879,4442.563965,3929.0,1.0,15.0,,,,0.0,4.0,4.0,4.0,4.0,4.0,4.0,4.0,4.0,4.0,4.0,4.0,4.0,4.0,4.0,100.0,,,,,,,,,,,,,,,,,,,,,,,,,,,,,,,,,,,,,,,,,,,,,,,,,,,,,,,,,,,,,,,,,,,,,,,,,,,,,,,,,,,,,,,,,,,,,,,,,,,,,,,,,,,,,,,,,,,,,,,,,,,,,,,,,,,
1725710398.134574,1725710398.136026,230.0,0.0,4258.974121,4250.0,4234.743652,4278.333496,4203.846191,4255.256348,4215.512695,4220.0,4230.512695,4209.743652,4541.666504,4491.282227,4396.666504,4441.410156,2909.0,1.0,15.0,,,,0.0,4.0,4.0,4.0,4.0,4.0,4.0,4.0,4.0,4.0,4.0,4.0,4.0,4.0,4.0,100.0,,,,,,,,,,,,,,,,,,,,,,,,,,,,,,,,,,,,,,,,,,,,,,,,,,,,,,,,,,,,,,,,,,,,,,,,,,,,,,,,,,,,,,,,,,,,,,,,,,,,,,,,,,,,,,,,,,,,,,,,,,,,,,,,,,,
1725710398.138478,1725710398.13993,231.0,0.0,4259.743652,4254.743652,4235.641113,4279.487305,4203.205078,4252.307617,4218.077148,4219.358887,4232.05127,4206.410156,4542.307617,4490.897461,4396.922852,4440.769043,3149.0,1.0,15.0,,,,0.0,4.0,4.0,4.0,4.0,4.0,4.0,4.0,4.0,4.0,4.0,4.0,4.0,4.0,4.0,100.0,,,,,,,,,,,,,,,,,,,,,,,,,,,,,,,,,,,,,,,,,,,,,,,,,,,,,,,,,,,,,,,,,,,,,,,,,,,,,,,,,,,,,,,,,,,,,,,,,,,,,,,,,,,,,,,,,,,,,,,,,,,,,,,,,,,
1725710398.142382,1725710398.143834,232.0,0.0,4260.128418,4259.871582,4236.282227,4279.743652,4202.307617,4250.0,4217.436035,4220.769043,4231.794922,4203.077148,4542.436035,4492.307617,4396.794922,4441.410156,3431.0,1.0,15.0,,,,0.0,4.0,4.0,4.0,4.0,4.0,4.0,4.0,4.0,4.0,4.0,4.0,4.0,4.0,4.0,100.0,,,,,,,,,,,,,,,,,,,,,,,,,,,,,,,,,,,,,,,,,,,,,,,,,,,,,,,,0.0,0.0,1.0,0.0,1.0,0.0,,,,,,,,,,,,,,,,,,,,,,,,,,,,,,,,,,,,,,,,,,,,,,,,,,,,,,,,,,,,,,,,,,,,,,
1725710398.146286,1725710398.147739,233.0,0.0,4259.358887,4262.179688,4236.410156,4278.846191,4201.538574,4249.743652,4217.05127,4224.871582,4231.025879,4200.0,4542.179688,4495.384766,4395.641113,4443.461426,3929.0,1.0,15.0,,,,0.0,4.0,4.0,4.0,4.0,4.0,4.0,4.0,4.0,4.0,4.0,4.0,4.0,4.0,4.0,100.0,,,,,,,,,,,,,,,,,,,,,,,,,,,,,,,,,,,,,,,,,,,,,,,,,,,,,,,,,,,,,,,,,,,,,,,,,,,,,,,,,,,,,,,,,,,,,,,,,,,,,,,,,,,,,,,,,,,,,,,,,,,,,,,,,,,
1725710398.15019,1725710398.151543,234.0,0.0,4257.307617,4260.384766,4236.153809,4276.922852,4200.897461,4250.897461,4219.487305,4230.128418,4231.410156,4198.333496,4541.410156,4499.358887,4392.820313,4445.897461,2909.0,1.0,15.0,,,,0.0,4.0,4.0,4.0,4.0,4.0,4.0,4.0,4.0,4.0,4.0,4.0,4.0,4.0,4.0,100.0,,,,,,,,,,,,,,,,,,,,,,,,,,,,,,,,,,,,,,,,,,,,,,,,,,,,,,,,,,,,,,,,,,,,,,,,,,,,,,,,,,,,,,,,,,,,,,,,,,,,,,,,,,,,,,,,,,,,,,,,,,,,,,,,,,,
1725710398.154094,1725710398.155447,235.0,0.0,4255.0,4255.512695,4235.897461,4275.256348,4200.384766,4251.922852,4224.358887,4233.717773,4233.333496,4199.230957,4539.743652,4502.94873,4388.717773,4446.794922,3149.0,1.0,15.0,,,,0.0,4.0,4.0,4.0,4.0,4.0,4.0,4.0,4.0,4.0,4.0,4.0,4.0,4.0,4.0,100.0,,,,,,,,,,,,,,,,,,,,,,,,,,,,,,,,,,,,,,,,,,,,,,,,,,,,,,,,,,,,,,,,,,,,,,,,,,,,,,,,,,,,,,,,,,,,,,,,,,,,,,,,,,,,,,,,,,,,,,,,,,,,,,,,,,,
1725710398.157998,1725710398.159351,236.0,0.0,4254.102539,4250.641113,4235.897461,4275.256348,4200.0,4251.922852,4229.487305,4233.974121,4235.256348,4201.922852,4537.820313,4504.871582,4384.871582,4445.512695,3431.0,1.0,15.0,,,,0.0,4.0,4.0,4.0,4.0,4.0,4.0,4.0,4.0,4.0,4.0,4.0,4.0,4.0,4.0,100.0,,,,,,,,,,,,,,,,,,,,,,,,,,,,,,,,,,,,,,,,,,,,,,,,,,,,,,,,,,,,,,,,,,,,,,,,,,,,,,,,,,,,,,,,,,,,,,,,,,,,,,,,,,,,,,,,,,,,,,,,,,,,,,,,,,,
1725710398.161902,1725710398.163355,237.0,0.0,4255.769043,4248.717773,4236.153809,4277.563965,4199.871582,4250.897461,4233.333496,4231.666504,4235.512695,4204.358887,4537.179688,4505.128418,4383.205078,4443.333496,3929.0,1.0,15.0,,,,0.0,4.0,4.0,4.0,4.0,4.0,4.0,4.0,4.0,4.0,4.0,4.0,4.0,4.0,4.0,100.0,,,,,,,,,,,,,,,,,,,,,,,,,,,,,,,,,,,,,,,,,,,,,,,,,,,,,,,,,,,,,,,,,,,,,,,,,,,,,,,,,,,,,,,,,,,,,,,,,,,,,,,,,,,,,,,,,,,,,,,,,,,,,,,,,,,
1725710398.165806,1725710398.167259,238.0,0.0,4259.487305,4250.512695,4236.025879,4281.922852,4200.256348,4250.0,4236.025879,4229.358887,4234.487305,4204.487305,4539.230957,4505.256348,4384.871582,4442.05127,2909.0,1.0,15.0,,,,0.0,4.0,4.0,4.0,4.0,4.0,4.0,4.0,4.0,4.0,4.0,4.0,4.0,4.0,4.0,100.0,,,,,,,,,,,,,,,,,,,,,,,,,,,,,,,,,,,,,,,,,,,,,,,,,,,,,,,,,,,,,,,,,,,,,,,,,,,,,,,,,,,,,,,,,,,,,,,,,,,,,,,,,,,,,,,,,,,,,,,,,,,,,,,,,,,
1725710398.169711,1725710398.171163,239.0,0.0,4263.461426,4254.871582,4235.769043,4287.05127,4201.410156,4249.743652,4239.358887,4228.974121,4234.102539,4202.436035,4543.589844,4506.922852,4389.230957,4443.077148,3149.0,1.0,15.0,,,,0.0,4.0,4.0,4.0,4.0,4.0,4.0,4.0,4.0,4.0,4.0,4.0,4.0,4.0,4.0,100.0,,,,,,,,,,,,,,,,,,,,,,,,,,,,,,,,,,,,,,,,,,,,,,,,,,,,,,,,,,,,,,,,,,,,,,,,,,,,,,,,,,,,,,,,,,,,,,,,,,,,,,,,,,,,,,,,,,,,,,,,,,,,,,,,,,,
1725710398.173615,1725710398.175067,240.0,0.0,4265.769043,4259.358887,4235.769043,4290.641113,4203.077148,4250.256348,4244.487305,4230.769043,4236.410156,4200.769043,4548.717773,4509.358887,4393.974121,4445.641113,3431.0,1.0,15.0,,,,0.0,4.0,4.0,4.0,4.0,4.0,4.0,4.0,4.0,4.0,4.0,4.0,4.0,4.0,4.0,100.0,,,,,,,,,,,,,,,,,1.0,0.0,0.0,,,,,,,,,,,,,,,,,,,,,,,,,,,,,,,,,,,,,0.0,0.0,1.0,0.0,1.0,0.0,1.705582,3.049683,0.801229,0.104816,0.073006,1.575994,1.613972,0.868457,0.290223,0.107814,1.485226,2.727363,0.4567,0.090589,0.055529,1.031695,2.690794,0.839615,0.200874,0.125337,0.602475,0.723611,0.223839,0.074785,0.044993,0.253312,0.489332,0.111303,0.044632,0.023611,13.255732,2.509572,1.258455,0.462656,0.204624,0.517615,6.317932,0.486017,0.287731,0.116958,1.050626,2.732512,0.233258,0.131364,0.164346,1.157808,2.85301,0.671471,0.281872,0.126449,2.126017,5.452155,0.873276,0.779977,0.280753,2.018124,9.47205,1.04737,0.294269,0.124758,2.76381,3.137584,1.391959,0.384317,0.132508,2.789317,5.737596,1.209334,0.20628,0.111979
1725710398.177519,1725710398.179071,241.0,0.0,4265.641113,4262.179688,4236.666504,4291.410156,4205.256348,4251.410156,4251.282227,4233.461426,4240.897461,4202.820313,4552.94873,4510.641113,4397.05127,4448.205078,3929.0,1.0,15.0,,,,0.0,4.0,4.0,4.0,4.0,4.0,4.0,4.0,4.0,4.0,4.0,4.0,4.0,4.0,4.0,100.0,,,,,,,,,,,,,,,,,,,,,,,,,,,,,,,,,,,,,,,,,,,,,,,,,,,,,,,,,,,,,,,,,,,,,,,,,,,,,,,,,,,,,,,,,,,,,,,,,,,,,,,,,,,,,,,,,,,,,,,,,,,,,,,,,,,
1725710398.181423,1725710398.182975,242.0,0.0,4264.102539,4262.563965,4238.077148,4290.0,4207.692383,4252.94873,4257.563965,4234.743652,4245.0,4209.358887,4555.384766,4510.256348,4397.820313,4449.871582,2909.0,1.0,15.0,,,,0.0,4.0,4.0,4.0,4.0,4.0,4.0,4.0,4.0,4.0,4.0,4.0,4.0,4.0,4.0,100.0,,,,,,,,,,,,,,,,,,,,,,,,,,,,,,,,,,,,,,,,,,,,,,,,,,,,,,,,,,,,,,,,,,,,,,,,,,,,,,,,,,,,,,,,,,,,,,,,,,,,,,,,,,,,,,,,,,,,,,,,,,,,,,,,,,,
1725710398.185327,1725710398.186879,243.0,0.0,4263.205078,4261.794922,4239.230957,4288.461426,4210.256348,4255.256348,4261.794922,4232.94873,4246.410156,4217.307617,4555.769043,4509.230957,4397.692383,4450.512695,3149.0,1.0,15.0,,,,0.0,4.0,4.0,4.0,4.0,4.0,4.0,4.0,4.0,4.0,4.0,4.0,4.0,4.0,4.0,100.0,,,,,,,,,,,,,,,,,,,,,,,,,,,,,,,,,,,,,,,,,,,,,,,,,,,,,,,,,,,,,,,,,,,,,,,,,,,,,,,,,,,,,,,,,,,,,,,,,,,,,,,,,,,,,,,,,,,,,,,,,,,,,,,,,,,
1725710398.189231,1725710398.190784,244.0,0.0,4263.717773,4261.922852,4239.230957,4288.974121,4213.077148,4258.333496,4263.589844,4228.205078,4243.717773,4221.922852,4554.102539,4508.974121,4398.077148,4450.512695,3431.0,1.0,15.0,,,,0.0,4.0,4.0,4.0,4.0,4.0,4.0,4.0,4.0,4.0,4.0,4.0,4.0,4.0,4.0,100.0,,,,,,,,,,,,,,,,,,,,,,,,,,,,,,,,,,,,,,,,,,,,,,,,,,,,,,,,,,,,,,,,,,,,,,,,,,,,,,,,,,,,,,,,,,,,,,,,,,,,,,,,,,,,,,,,,,,,,,,,,,,,,,,,,,,
1725710398.193135,1725710398.194788,245.0,0.0,4265.641113,4263.846191,4238.077148,4291.538574,4215.256348,4261.794922,4264.743652,4222.179688,4238.077148,4220.256348,4550.769043,4508.974121,4398.717773,4450.0,3929.0,1.0,15.0,,,,0.0,4.0,4.0,4.0,4.0,4.0,4.0,4.0,4.0,4.0,4.0,4.0,4.0,4.0,4.0,100.0,,,,,,,,,,,,,,,,,,,,,,,,,,,,,,,,,,,,,,,,,,,,,,,,,,,,,,,,,,,,,,,,,,,,,,,,,,,,,,,,,,,,,,,,,,,,,,,,,,,,,,,,,,,,,,,,,,,,,,,,,,,,,,,,,,,
1725710398.197039,1725710398.198692,246.0,0.0,4267.179688,4266.666504,4236.538574,4294.487305,4216.410156,4264.358887,4267.436035,4217.05127,4232.307617,4212.820313,4546.153809,4507.692383,4397.94873,4448.717773,2909.0,1.0,15.0,,,,0.0,4.0,4.0,4.0,4.0,4.0,4.0,4.0,4.0,4.0,4.0,4.0,4.0,4.0,4.0,100.0,,,,,,,,,,,,,,,,,,,,,,,,,,,,,,,,,,,,,,,,,,,,,,,,,,,,,,,,,,,,,,,,,,,,,,,,,,,,,,,,,,,,,,,,,,,,,,,,,,,,,,,,,,,,,,,,,,,,,,,,,,,,,,,,,,,
1725710398.200943,1725710398.202596,247.0,0.0,4267.692383,4268.589844,4235.384766,4296.794922,4216.794922,4265.256348,4272.436035,4214.487305,4228.974121,4203.717773,4540.897461,4503.974121,4394.358887,4447.05127,3149.0,1.0,15.0,,,,0.0,4.0,4.0,4.0,4.0,4.0,4.0,4.0,4.0,4.0,4.0,4.0,4.0,4.0,4.0,100.0,,,,,,,,,,,,,,,,,,,,,,,,,,,,,,,,,,,,,,,,,,,,,,,,,,,,,,,,,,,,,,,,,,,,,,,,,,,,,,,,,,,,,,,,,,,,,,,,,,,,,,,,,,,,,,,,,,,,,,,,,,,,,,,,,,,
1725710398.204847,1725710398.2065,248.0,0.0,4267.179688,4268.846191,4234.615234,4297.692383,4216.794922,4264.743652,4278.077148,4214.871582,4228.846191,4197.563965,4536.153809,4498.205078,4388.589844,4445.128418,3431.0,1.0,15.0,,,,0.0,4.0,4.0,4.0,4.0,4.0,4.0,4.0,4.0,4.0,4.0,4.0,4.0,4.0,4.0,100.0,,,,,,,,,,,,,,,,,,,,,,,,,,,,,,,,,,,,,,,,,,,,,,,,,,,,,,,,0.0,0.0,1.0,0.0,1.0,0.0,,,,,,,,,,,,,,,,,,,,,,,,,,,,,,,,,,,,,,,,,,,,,,,,,,,,,,,,,,,,,,,,,,,,,,
1725710398.208752,1725710398.210404,249.0,0.0,4266.153809,4267.692383,4234.230957,4297.820313,4217.05127,4263.589844,4282.05127,4217.179688,4230.897461,4196.666504,4533.717773,4492.820313,4382.692383,4443.589844,3929.0,1.0,15.0,,,,0.0,4.0,4.0,4.0,4.0,4.0,4.0,4.0,4.0,4.0,4.0,4.0,4.0,4.0,4.0,100.0,,,,,,,,,,,,,,,,,,,,,,,,,,,,,,,,,,,,,,,,,,,,,,,,,,,,,,,,,,,,,,,,,,,,,,,,,,,,,,,,,,,,,,,,,,,,,,,,,,,,,,,,,,,,,,,,,,,,,,,,,,,,,,,,,,,
1725710398.212656,1725710398.214208,250.0,0.0,4265.128418,4266.410156,4234.102539,4298.205078,4217.436035,4262.563965,4282.94873,4219.871582,4233.589844,4198.974121,4534.743652,4490.769043,4378.846191,4442.94873,2909.0,1.0,15.0,,,,0.0,4.0,4.0,4.0,4.0,4.0,4.0,4.0,4.0,4.0,4.0,4.0,4.0,4.0,4.0,100.0,,,,,,,,,,,,,,,,,,,,,,,,,,,,,,,,,,,,,,,,,,,,,,,,,,,,,,,,,,,,,,,,,,,,,,,,,,,,,,,,,,,,,,,,,,,,,,,,,,,,,,,,,,,,,,,,,,,,,,,,,,,,,,,,,,,
1725710398.21656,1725710398.218112,251.0,0.0,4264.487305,4266.025879,4233.974121,4299.358887,4217.563965,4261.922852,4282.179688,4221.410156,4235.641113,4200.769043,4537.94873,4491.922852,4377.692383,4442.307617,3149.0,1.0,15.0,,,,0.0,4.0,4.0,4.0,4.0,4.0,4.0,4.0,4.0,4.0,4.0,4.0,4.0,4.0,4.0,100.0,,,,,,,,,,,,,,,,,,,,,,,,,,,,,,,,,,,,,,,,,,,,,,,,,,,,,,,,,,,,,,,,,,,,,,,,,,,,,,,,,,,,,,,,,,,,,,,,,,,,,,,,,,,,,,,,,,,,,,,,,,,,,,,,,,,
1725710398.220464,1725710398.222016,252.0,0.0,4263.974121,4266.538574,4233.974121,4300.769043,4216.922852,4261.538574,4281.922852,4220.897461,4236.153809,4198.717773,4540.256348,4493.589844,4377.05127,4440.512695,3431.0,1.0,15.0,,,,0.0,4.0,4.0,4.0,4.0,4.0,4.0,4.0,4.0,4.0,4.0,4.0,4.0,4.0,4.0,100.0,,,,,,,,,,,,,,,,,,,,,,,,,,,,,,,,,,,,,,,,,,,,,,,,,,,,,,,,,,,,,,,,,,,,,,,,,,,,,,,,,,,,,,,,,,,,,,,,,,,,,,,,,,,,,,,,,,,,,,,,,,,,,,,,,,,
1725710398.224368,1725710398.225821,253.0,0.0,4263.589844,4266.666504,4233.974121,4301.153809,4215.769043,4261.538574,4283.846191,4219.102539,4234.615234,4192.563965,4538.333496,4492.94873,4374.871582,4436.538574,3929.0,1.0,15.0,,,,0.0,4.0,4.0,4.0,4.0,4.0,4.0,4.0,4.0,4.0,4.0,4.0,4.0,4.0,4.0,100.0,,,,,,,,,,,,,,,,,,,,,,,,,,,,,,,,,,,,,,,,,,,,,,,,,,,,,,,,,,,,,,,,,,,,,,,,,,,,,,,,,,,,,,,,,,,,,,,,,,,,,,,,,,,,,,,,,,,,,,,,,,,,,,,,,,,
1725710398.228272,1725710398.229725,254.0,0.0,4262.820313,4266.153809,4234.230957,4299.871582,4214.743652,4262.05127,4287.820313,4217.05127,4231.922852,4185.128418,4532.05127,4489.358887,4371.282227,4431.410156,2909.0,1.0,15.0,,,,0.0,4.0,4.0,4.0,4.0,4.0,4.0,4.0,4.0,4.0,4.0,4.0,4.0,4.0,4.0,100.0,,,,,,,,,,,,,,,,,,,,,,,,,,,,,,,,,,,,,,,,,,,,,,,,,,,,,,,,,,,,,,,,,,,,,,,,,,,,,,,,,,,,,,,,,,,,,,,,,,,,,,,,,,,,,,,,,,,,,,,,,,,,,,,,,,,
1725710398.232176,1725710398.233629,255.0,0.0,4261.153809,4265.0,4234.487305,4297.563965,4214.230957,4262.436035,4291.538574,4217.179688,4229.487305,4180.128418,4525.0,4485.769043,4368.974121,4428.205078,15.0,1.0,15.0,,,,0.0,4.0,4.0,4.0,4.0,4.0,4.0,4.0,4.0,4.0,4.0,4.0,4.0,4.0,4.0,100.0,,,,,,,,,,,,,,,,,,,,,,,,,,,,,,,,,,,,,,,,,,,,,,,,,,,,,,,,,,,,,,,,,,,,,,,,,,,,,,,,,,,,,,,,,,,,,,,,,,,,,,,,,,,,,,,,,,,,,,,,,,,,,,,,,,,
1725710398.23608,1725710398.237533,0.0,0.0,4258.589844,4263.846191,4234.615234,4295.769043,4214.102539,4261.538574,4293.077148,4221.410156,4229.743652,4180.0,4521.922852,4486.666504,4370.512695,4429.487305,2705.0,1.0,15.0,,,,0.0,4.0,4.0,4.0,4.0,4.0,4.0,4.0,4.0,4.0,4.0,4.0,4.0,4.0,4.0,100.0,,,,,,,,,,,,,,,,,,,,,,,,,,,,,,,,,,,,,,,,,,,,,,,,,,,,,,,,0.0,0.0,1.0,0.0,1.0,0.0,,,,,,,,,,,,,,,,,,,,,,,,,,,,,,,,,,,,,,,,,,,,,,,,,,,,,,,,,,,,,,,,,,,,,,
1725710398.239984,1725710398.241337,1.0,0.0,4255.897461,4262.692383,4234.230957,4295.512695,4214.102539,4259.230957,4291.410156,4229.230957,4234.102539,4183.974121,4525.128418,4493.333496,4374.615234,4434.487305,2585.0,1.0,15.0,,,,0.0,4.0,4.0,4.0,4.0,4.0,4.0,4.0,4.0,4.0,4.0,4.0,4.0,4.0,4.0,100.0,,,,,,,,,,,,,,,,,,,,,,,,,,,,,,,,,,,,,,,,,,,,,,,,,,,,,,,,,,,,,,,,,,,,,,,,,,,,,,,,,,,,,,,,,,,,,,,,,,,,,,,,,,,,,,,,,,,,,,,,,,,,,,,,,,,
1725710398.243889,1725710398.245241,2.0,0.0,4253.846191,4260.897461,4233.717773,4296.282227,4213.717773,4255.897461,4287.820313,4237.05127,4241.410156,4189.615234,4532.563965,4502.692383,4378.077148,4440.0,2513.0,1.0,15.0,,,,0.0,4.0,4.0,4.0,4.0,4.0,4.0,4.0,4.0,4.0,4.0,4.0,4.0,4.0,4.0,100.0,,,,,,,,,,,,,,,,,,,,,,,,,,,,,,,,,,,,,,,,,,,,,,,,,,,,,,,,,,,,,,,,,,,,,,,,,,,,,,,,,,,,,,,,,,,,,,,,,,,,,,,,,,,,,,,,,,,,,,,,,,,,,,,,,,,
1725710398.247793,1725710398.249145,3.0,0.0,4252.94873,4258.333496,4233.333496,4297.179688,4213.205078,4253.461426,4284.871582,4240.384766,4248.077148,4195.256348,4539.487305,4509.358887,4378.077148,4442.563965,2481.0,1.0,15.0,,,,0.0,4.0,4.0,4.0,4.0,4.0,4.0,4.0,4.0,4.0,4.0,4.0,4.0,4.0,4.0,100.0,,,,,,,,,,,,,,,,,,,,,,,,,,,,,,,,,,,,,,,,,,,,,,,,,,,,,,,,,,,,,,,,,,,,,,,,,,,,,,,,,,,,,,,,,,,,,,,,,,,,,,,,,,,,,,,,,,,,,,,,,,,,,,,,,,,
1725710398.251697,1725710398.253049,4.0,0.0,4252.94873,4255.128418,4233.205078,4297.179688,4212.820313,4253.333496,4284.871582,4237.179688,4250.512695,4199.871582,4542.692383,4510.128418,4376.282227,4441.538574,2448.0,1.0,15.0,,,,0.0,4.0,4.0,4.0,4.0,4.0,4.0,4.0,4.0,4.0,4.0,4.0,4.0,4.0,4.0,100.0,,,,,,,,,,,,,,,,,,,,,,,,,,,,,,,,,,,,,,,,,,,,,,,,,,,,,,,,,,,,,,,,,,,,,,,,,,,,,,,,,,,,,,,,,,,,,,,,,,,,,,,,,,,,,,,,,,,,,,,,,,,,,,,,,,,
1725710398.255601,1725710398.256854,5.0,0.0,4252.820313,4251.922852,4233.333496,4296.794922,4212.820313,4255.769043,4288.461426,4230.384766,4248.333496,4203.333496,4542.692383,4506.282227,4376.153809,4439.102539,2411.0,1.0,15.0,,,,0.0,4.0,4.0,4.0,4.0,4.0,4.0,4.0,4.0,4.0,4.0,4.0,4.0,4.0,4.0,100.0,,,,,,,,,,,,,,,,,,,,,,,,,,,,,,,,,,,,,,,,,,,,,,,,,,,,,,,,,,,,,,,,,,,,,,,,,,,,,,,,,,,,,,,,,,,,,,,,,,,,,,,,,,,,,,,,,,,,,,,,,,,,,,,,,,,
1725710398.259505,1725710398.260758,6.0,0.0,4252.05127,4249.743652,4233.205078,4297.179688,4213.077148,4259.615234,4293.974121,4225.0,4244.358887,4204.487305,4541.922852,4501.666504,4378.717773,4437.692383,2428.0,1.0,15.0,,,,0.0,4.0,4.0,4.0,4.0,4.0,4.0,4.0,4.0,4.0,4.0,4.0,4.0,4.0,4.0,100.0,,,,,,,,,,,,,,,,,,,,,,,,,,,,,,,,,,,,,,,,,,,,,,,,,,,,,,,,,,,,,,,,,,,,,,,,,,,,,,,,,,,,,,,,,,,,,,,,,,,,,,,,,,,,,,,,,,,,,,,,,,,,,,,,,,,
1725710398.263409,1725710398.264662,7.0,0.0,4250.384766,4249.102539,4232.94873,4299.358887,4213.717773,4263.205078,4299.102539,4224.358887,4242.05127,4202.307617,4542.05127,4499.230957,4380.769043,4437.307617,2493.0,1.0,15.0,,,,0.0,4.0,4.0,4.0,4.0,4.0,4.0,4.0,4.0,4.0,4.0,4.0,4.0,4.0,4.0,100.0,,,,,,,,,,,,,,,,,,,,,,,,,,,,,,,,,,,,,,,,,,,,,,,,,,,,,,,,,,,,,,,,,,,,,,,,,,,,,,,,,,,,,,,,,,,,,,,,,,,,,,,,,,,,,,,,,,,,,,,,,,,,,,,,,,,
1725710398.267313,1725710398.268666,8.0,0.0,4248.589844,4250.0,4232.436035,4302.820313,4214.358887,4265.128418,4302.563965,4227.307617,4242.692383,4196.922852,4542.307617,4498.461426,4378.077148,4436.538574,2468.0,1.0,15.0,,,,0.0,4.0,4.0,4.0,4.0,4.0,4.0,4.0,4.0,4.0,4.0,4.0,4.0,4.0,4.0,100.0,,,,,,,,,,,,,,,,,,,,,,,,,,,,,,,,,,,,,,,,,,,,,,,,,,,,,,,,0.0,0.0,1.0,0.0,1.0,0.0,,,,,,,,,,,,,,,,,,,,,,,,,,,,,,,,,,,,,,,,,,,,,,,,,,,,,,,,,,,,,,,,,,,,,,
1725710398.271217,1725710398.27257,9.0,0.0,4247.563965,4251.794922,4231.538574,4306.410156,4214.487305,4264.487305,4304.102539,4229.230957,4244.615234,4190.256348,4541.025879,4497.179688,4370.128418,4433.717773,2563.0,1.0,15.0,,,,0.0,4.0,4.0,4.0,4.0,4.0,4.0,4.0,4.0,4.0,4.0,4.0,4.0,4.0,4.0,100.0,,,,,,,,,,,,,,,,,,,,,,,,,,,,,,,,,,,,,,,,,,,,,,,,,,,,,,,,,,,,,,,,,,,,,,,,,,,,,,,,,,,,,,,,,,,,,,,,,,,,,,,,,,,,,,,,,,,,,,,,,,,,,,,,,,,
1725710398.275121,1725710398.276474,10.0,0.0,4248.077148,4253.589844,4230.641113,4308.974121,4213.974121,4261.538574,4304.871582,4226.922852,4245.897461,4185.384766,4537.05127,4493.974121,4361.922852,4430.0,2919.0,1.0,15.0,,,,0.0,4.0,4.0,4.0,4.0,4.0,4.0,4.0,4.0,4.0,4.0,4.0,4.0,4.0,4.0,100.0,,,,,,,,,,,,,,,,,,,,,,,,,,,,,,,,,,,,,,,,,,,,,,,,,,,,,,,,,,,,,,,,,,,,,,,,,,,,,,,,,,,,,,,,,,,,,,,,,,,,,,,,,,,,,,,,,,,,,,,,,,,,,,,,,,,
1725710398.279025,1725710398.280378,11.0,0.0,4249.487305,4255.128418,4229.871582,4310.384766,4213.333496,4258.333496,4306.153809,4220.769043,4245.0,4184.102539,4531.666504,4490.0,4359.615234,4427.563965,3152.0,1.0,15.0,,,,0.0,4.0,4.0,4.0,4.0,4.0,4.0,4.0,4.0,4.0,4.0,4.0,4.0,4.0,4.0,100.0,,,,,,,,,,,,,,,,,,,,,,,,,,,,,,,,,,,,,,,,,,,,,,,,,,,,,,,,,,,,,,,,,,,,,,,,,,,,,,,,,,,,,,,,,,,,,,,,,,,,,,,,,,,,,,,,,,,,,,,,,,,,,,,,,,,
1725710398.282929,1725710398.284382,12.0,0.0,4250.641113,4256.282227,4229.615234,4311.794922,4213.205078,4257.179688,4308.333496,4214.615234,4243.077148,4185.641113,4527.820313,4487.563965,4365.769043,4427.94873,3431.0,1.0,15.0,,,,0.0,4.0,4.0,4.0,4.0,4.0,4.0,4.0,4.0,4.0,4.0,4.0,4.0,4.0,4.0,100.0,,,,,,,,,,,,,,,,,,,,,,,,,,,,,,,,,,,,,,,,,,,,,,,,,,,,,,,,,,,,,,,,,,,,,,,,,,,,,,,,,,,,,,,,,,,,,,,,,,,,,,,,,,,,,,,,,,,,,,,,,,,,,,,,,,,
1725710398.286833,1725710398.288286,13.0,0.0,4251.025879,4257.436035,4230.0,4313.974121,4214.230957,4258.846191,4311.282227,4212.820313,4242.05127,4187.436035,4528.205078,4488.205078,4376.922852,4431.025879,3929.0,1.0,15.0,,,,0.0,4.0,4.0,4.0,4.0,4.0,4.0,4.0,4.0,4.0,4.0,4.0,4.0,4.0,4.0,100.0,,,,,,,,,,,,,,,,,,,,,,,,,,,,,,,,,,,,,,,,,,,,,,,,,,,,,,,,,,,,,,,,,,,,,,,,,,,,,,,,,,,,,,,,,,,,,,,,,,,,,,,,,,,,,,,,,,,,,,,,,,,,,,,,,,,
1725710398.290738,1725710398.29219,14.0,0.0,4250.897461,4258.205078,4230.897461,4317.179688,4215.641113,4262.05127,4313.589844,4216.922852,4243.589844,4187.692383,4532.820313,4491.025879,4385.769043,4434.615234,2919.0,1.0,15.0,,,,0.0,4.0,4.0,4.0,4.0,4.0,4.0,4.0,4.0,4.0,4.0,4.0,4.0,4.0,4.0,100.0,,,,,,,,,,,,,,,,,,,,,,,,,,,,,,,,,,,,,,,,,,,,,,,,,,,,,,,,,,,,,,,,,,,,,,,,,,,,,,,,,,,,,,,,,,,,,,,,,,,,,,,,,,,,,,,,,,,,,,,,,,,,,,,,,,,
1725710398.294642,1725710398.296094,15.0,0.0,4251.025879,4258.333496,4231.666504,4319.871582,4216.282227,4264.743652,4314.102539,4224.102539,4246.666504,4186.666504,4538.461426,4493.589844,4386.025879,4436.410156,3152.0,1.0,15.0,,,,0.0,4.0,4.0,4.0,4.0,4.0,4.0,4.0,4.0,4.0,4.0,4.0,4.0,4.0,4.0,100.0,,,,,,,,,,,,,,,,,,,,,,,,,,,,,,,,,,,,,,,,,,,,,,,,,,,,,,,,,,,,,,,,,,,,,,,,,,,,,,,,,,,,,,,,,,,,,,,,,,,,,,,,,,,,,,,,,,,,,,,,,,,,,,,,,,,
1725710398.298546,1725710398.300098,16.0,0.0,4252.307617,4257.436035,4231.794922,4320.512695,4215.641113,4265.256348,4312.436035,4229.871582,4249.615234,4185.769043,4541.410156,4493.717773,4377.820313,4435.897461,3431.0,1.0,15.0,,,,0.0,4.0,4.0,4.0,4.0,4.0,4.0,4.0,4.0,4.0,4.0,4.0,4.0,4.0,4.0,100.0,1.0,66.666664,4.0,4.0,4.0,4.0,4.0,4.0,1.0,4.0,3.0,4.0,4.0,4.0,4.0,4.0,1.0,0.0,0.0,,,,,,,,,,,,,,,,,,,,,,,,,,,,,,,,,,,,,0.0,0.0,1.0,0.0,128.0,0.0,1.798328,3.132018,0.869281,0.101775,0.080573,1.702596,1.724232,0.921498,0.280948,0.103471,1.634501,2.840282,0.509307,0.085266,0.063799,1.182489,2.873889,0.936315,0.186397,0.128636,0.584264,0.68732,0.217556,0.080662,0.035179,0.204287,0.461505,0.082161,0.038744,0.020086,14.708262,2.662234,1.375303,0.5893,0.20587,0.613629,6.431804,0.42707,0.268236,0.114179,1.211422,2.980522,0.26473,0.145177,0.165167,1.200828,3.157609,0.739076,0.287066,0.134121,2.239006,5.962046,0.981309,0.973719,0.290076,2.267904,9.995084,1.073961,0.31581,0.129744,3.02599,3.536604,1.580173,0.418038,0.144048,3.086097,6.225183,1.343031,0.202168,0.114919
1725710398.30245,1725710398.304003,17.0,0.0,4254.615234,4256.153809,4231.282227,4319.358887,4214.230957,4263.974121,4309.487305,4231.410156,4252.307617,4186.538574,4540.512695,4492.563965,4367.820313,4435.128418,3929.0,1.0,15.0,,,,0.0,4.0,4.0,4.0,4.0,4.0,4.0,4.0,4.0,4.0,4.0,4.0,4.0,4.0,4.0,100.0,,,,,,,,,,,,,,,,,,,,,,,,,,,,,,,,,,,,,,,,,,,,,,,,,,,,,,,,,,,,,,,,,,,,,,,,,,,,,,,,,,,,,,,,,,,,,,,,,,,,,,,,,,,,,,,,,,,,,,,,,,,,,,,,,,,
1725710398.306354,1725710398.307907,18.0,0.0,4257.307617,4255.769043,4231.153809,4318.589844,4213.205078,4262.307617,4307.436035,4229.487305,4256.025879,4190.0,4538.333496,4493.717773,4364.102539,4436.666504,2919.0,1.0,15.0,,,,0.0,4.0,4.0,4.0,4.0,4.0,4.0,4.0,4.0,4.0,4.0,4.0,4.0,4.0,4.0,100.0,,,,,,,,,,,,,,,,,,,,,,,,,,,,,,,,,,,,,,,,,,,,,,,,,,,,,,,,,,,,,,,,,,,,,,,,,,,,,,,,,,,,,,,,,,,,,,,,,,,,,,,,,,,,,,,,,,,,,,,,,,,,,,,,,,,
1725710398.310258,1725710398.311811,19.0,0.0,4260.128418,4257.436035,4231.666504,4320.512695,4213.333496,4261.666504,4308.205078,4227.94873,4261.666504,4196.538574,4537.820313,4499.230957,4369.743652,4441.153809,3152.0,1.0,15.0,,,,0.0,4.0,4.0,4.0,4.0,4.0,4.0,4.0,4.0,4.0,4.0,4.0,4.0,4.0,4.0,100.0,,,,,,,,,,,,,,,,,,,,,,,,,,,,,,,,,,,,,,,,,,,,,,,,,,,,,,,,,,,,,,,,,,,,,,,,,,,,,,,,,,,,,,,,,,,,,,,,,,,,,,,,,,,,,,,,,,,,,,,,,,,,,,,,,,,
1725710398.314162,1725710398.315615,20.0,0.0,4262.179688,4261.282227,4232.436035,4324.871582,4214.743652,4262.563965,4312.05127,4228.846191,4266.794922,4203.717773,4539.871582,4506.666504,4380.897461,4445.641113,3431.0,1.0,15.0,,,,0.0,4.0,4.0,4.0,4.0,4.0,4.0,4.0,4.0,4.0,4.0,4.0,4.0,4.0,4.0,100.0,,,,,,,,,,,,,,,,,,,,,,,,,,,,,,,,,,,,,,,,,,,,,,,,,,,,,,,,,,,,,,,,,,,,,,,,,,,,,,,,,,,,,,,,,,,,,,,,,,,,,,,,,,,,,,,,,,,,,,,,,,,,,,,,,,,
1725710398.318066,1725710398.319519,21.0,0.0,4262.692383,4265.0,4232.692383,4328.717773,4216.153809,4264.102539,4316.666504,4231.666504,4267.820313,4207.436035,4542.179688,4511.282227,4389.102539,4446.410156,3929.0,1.0,15.0,,,,0.0,4.0,4.0,4.0,4.0,4.0,4.0,4.0,4.0,4.0,4.0,4.0,4.0,4.0,4.0,100.0,,,,,,,,,,,,,,,,,,,,,,,,,,,,,,,,,,,,,,,,,,,,,,,,,,,,,,,,,,,,,,,,,,,,,,,,,,,,,,,,,,,,,,,,,,,,,,,,,,,,,,,,,,,,,,,,,,,,,,,,,,,,,,,,,,,
1725710398.32197,1725710398.323423,22.0,0.0,4261.410156,4265.512695,4231.794922,4328.974121,4216.153809,4265.0,4319.358887,4233.461426,4262.94873,4204.871582,4543.205078,4509.615234,4388.974121,4442.179688,2919.0,1.0,15.0,,,,0.0,4.0,4.0,4.0,4.0,4.0,4.0,4.0,4.0,4.0,4.0,4.0,4.0,4.0,4.0,100.0,,,,,,,,,,,,,,,,,,,,,,,,,,,,,,,,,,,,,,,,,,,,,,,,,,,,,,,,,,,,,,,,,,,,,,,,,,,,,,,,,,,,,,,,,,,,,,,,,,,,,,,,,,,,,,,,,,,,,,,,,,,,,,,,,,,
1725710398.325874,1725710398.327327,23.0,0.0,4259.230957,4261.538574,4230.256348,4325.256348,4214.615234,4264.102539,4318.461426,4233.333496,4255.384766,4197.436035,4542.563965,4503.205078,4380.769043,4436.025879,3152.0,1.0,15.0,,,,0.0,4.0,4.0,4.0,4.0,4.0,4.0,4.0,4.0,4.0,4.0,4.0,4.0,4.0,4.0,100.0,,,,,,,,,,,,,,,,,,,,,,,,,,,,,,,,,,,,,,,,,,,,,,,,,,,,,,,,,,,,,,,,,,,,,,,,,,,,,,,,,,,,,,,,,,,,,,,,,,,,,,,,,,,,,,,,,,,,,,,,,,,,,,,,,,,
1725710398.329779,1725710398.331132,24.0,0.0,4257.692383,4254.487305,4229.358887,4320.256348,4212.436035,4262.436035,4315.897461,4232.307617,4251.025879,4189.871582,4542.179688,4497.05127,4370.256348,4432.05127,3431.0,1.0,15.0,,,,0.0,4.0,4.0,4.0,4.0,4.0,4.0,4.0,4.0,4.0,4.0,4.0,4.0,4.0,4.0,100.0,,,,,,,,,,,,,,,,,,,,,,,,,,,,,,,,,,,,,,,,,,,,,,,,,,,,,,,,0.0,0.0,1.0,0.0,128.0,0.0,,,,,,,,,,,,,,,,,,,,,,,,,,,,,,,,,,,,,,,,,,,,,,,,,,,,,,,,,,,,,,,,,,,,,,
1725710398.333683,1725710398.335036,25.0,0.0,4257.692383,4248.846191,4229.615234,4317.692383,4211.153809,4261.538574,4314.743652,4231.922852,4253.077148,4187.179688,4543.717773,4495.256348,4363.846191,4432.820313,3929.0,1.0,15.0,,,,0.0,4.0,4.0,4.0,4.0,4.0,4.0,4.0,4.0,4.0,4.0,4.0,4.0,4.0,4.0,100.0,,,,,,,,,,,,,,,,,,,,,,,,,,,,,,,,,,,,,,,,,,,,,,,,,,,,,,,,,,,,,,,,,,,,,,,,,,,,,,,,,,,,,,,,,,,,,,,,,,,,,,,,,,,,,,,,,,,,,,,,,,,,,,,,,,,
1725710398.337587,1725710398.33894,26.0,0.0,4259.102539,4248.333496,4231.025879,4319.487305,4212.179688,4262.179688,4317.307617,4232.820313,4258.974121,4190.512695,4547.436035,4498.846191,4363.717773,4437.820313,2919.0,1.0,15.0,,,,0.0,4.0,4.0,4.0,4.0,4.0,4.0,4.0,4.0,4.0,4.0,4.0,4.0,4.0,4.0,100.0,,,,,,,,,,,,,,,,,,,,,,,,,,,,,,,,,,,,,,,,,,,,,,,,,,,,,,,,,,,,,,,,,,,,,,,,,,,,,,,,,,,,,,,,,,,,,,,,,,,,,,,,,,,,,,,,,,,,,,,,,,,,,,,,,,,
1725710398.341491,1725710398.342844,27.0,0.0,4261.538574,4252.94873,4232.692383,4324.743652,4214.615234,4263.846191,4323.205078,4234.102539,4263.205078,4196.922852,4551.922852,4505.512695,4368.205078,4443.974121,3152.0,1.0,15.0,,,,0.0,4.0,4.0,4.0,4.0,4.0,4.0,4.0,4.0,4.0,4.0,4.0,4.0,4.0,4.0,100.0,,,,,,,,,,,,,,,,,,,,,,,,,,,,,,,,,,,,,,,,,,,,,,,,,,,,,,,,,,,,,,,,,,,,,,,,,,,,,,,,,,,,,,,,,,,,,,,,,,,,,,,,,,,,,,,,,,,,,,,,,,,,,,,,,,,
1725710398.345395,1725710398.346648,28.0,0.0,4264.102539,4258.717773,4234.358887,4330.641113,4216.922852,4265.0,4329.871582,4235.512695,4262.179688,4201.025879,4555.641113,4512.563965,4373.717773,4448.717773,3431.0,1.0,15.0,,,,0.0,4.0,4.0,4.0,4.0,4.0,4.0,4.0,4.0,4.0,4.0,4.0,4.0,4.0,4.0,100.0,,,,,,,,,,,,,,,,,,,,,,,,,,,,,,,,,,,,,,,,,,,,,,,,,,,,,,,,,,,,,,,,,,,,,,,,,,,,,,,,,,,,,,,,,,,,,,,,,,,,,,,,,,,,,,,,,,,,,,,,,,,,,,,,,,,
1725710398.349299,1725710398.350552,29.0,0.0,4265.897461,4261.538574,4236.025879,4334.487305,4217.692383,4265.0,4334.615234,4236.794922,4257.179688,4200.0,4559.102539,4518.461426,4377.94873,4450.641113,3929.0,1.0,15.0,,,,0.0,4.0,4.0,4.0,4.0,4.0,4.0,4.0,4.0,4.0,4.0,4.0,4.0,4.0,4.0,100.0,,,,,,,,,,,,,,,,,,,,,,,,,,,,,,,,,,,,,,,,,,,,,,,,,,,,,,,,,,,,,,,,,,,,,,,,,,,,,,,,,,,,,,,,,,,,,,,,,,,,,,,,,,,,,,,,,,,,,,,,,,,,,,,,,,,
1725710398.353203,1725710398.354456,30.0,0.0,4266.666504,4259.615234,4238.077148,4335.512695,4217.05127,4264.230957,4336.794922,4237.563965,4253.077148,4195.256348,4563.589844,4522.692383,4381.282227,4450.256348,2919.0,1.0,15.0,,,,0.0,4.0,4.0,4.0,4.0,4.0,4.0,4.0,4.0,4.0,4.0,4.0,4.0,4.0,4.0,100.0,,,,,,,,,,,,,,,,,,,,,,,,,,,,,,,,,,,,,,,,,,,,,,,,,,,,,,,,,,,,,,,,,,,,,,,,,,,,,,,,,,,,,,,,,,,,,,,,,,,,,,,,,,,,,,,,,,,,,,,,,,,,,,,,,,,
1725710398.357107,1725710398.35836,31.0,0.0,4266.794922,4254.743652,4240.769043,4334.615234,4216.282227,4263.717773,4338.077148,4237.436035,4253.461426,4191.666504,4569.358887,4525.256348,4384.487305,4449.230957,3152.0,1.0,15.0,,,,0.0,4.0,4.0,4.0,4.0,4.0,4.0,4.0,4.0,4.0,4.0,4.0,4.0,4.0,4.0,100.0,,,,,,,,,,,,,,,,,,,,,,,,,,,,,,,,,,,,,,,,,,,,,,,,,,,,,,,,,,,,,,,,,,,,,,,,,,,,,,,,,,,,,,,,,,,,,,,,,,,,,,,,,,,,,,,,,,,,,,,,,,,,,,,,,,,
1725710398.361011,1725710398.362165,32.0,0.0,4266.922852,4251.025879,4243.461426,4333.333496,4216.666504,4263.846191,4341.538574,4235.897461,4258.461426,4191.922852,4574.615234,4525.256348,4386.410156,4448.205078,0.0,1.0,15.0,,,,0.0,4.0,4.0,4.0,4.0,4.0,4.0,4.0,4.0,4.0,4.0,4.0,4.0,4.0,4.0,100.0,,,,,,,,,,,,,,,,,,,,,,,,,,,,,,,,,,,,,,,,,,,,,,,,,,,,,,,,0.0,0.0,1.0,0.0,128.0,0.0,,,,,,,,,,,,,,,,,,,,,,,,,,,,,,,,,,,,,,,,,,,,,,,,,,,,,,,,,,,,,,,,,,,,,,
1725710398.364915,1725710398.366069,33.0,0.0,4266.794922,4251.538574,4245.641113,4332.820313,4218.205078,4263.846191,4348.589844,4233.333496,4264.358887,4195.641113,4576.282227,4522.307617,4384.102539,4447.436035,0.0,1.0,15.0,,,,0.0,4.0,4.0,4.0,4.0,4.0,4.0,4.0,4.0,4.0,4.0,4.0,4.0,4.0,4.0,100.0,,,,,,,,,,,,,,,,,,,,,,,,,,,,,,,,,,,,,,,,,,,,,,,,,,,,,,,,,,,,,,,,,,,,,,,,,,,,,,,,,,,,,,,,,,,,,,,,,,,,,,,,,,,,,,,,,,,,,,,,,,,,,,,,,,,
1725710398.36882,1725710398.369973,34.0,0.0,4266.410156,4256.538574,4247.05127,4333.846191,4220.128418,4263.205078,4358.717773,4231.282227,4266.922852,4199.358887,4573.461426,4516.922852,4376.025879,4446.794922,0.0,1.0,15.0,,,,0.0,4.0,4.0,4.0,4.0,4.0,4.0,4.0,4.0,4.0,4.0,4.0,4.0,4.0,4.0,100.0,,,,,,,,,,,,,,,,,,,,,,,,,,,,,,,,,,,,,,,,,,,,,,,,,,,,,,,,,,,,,,,,,,,,,,,,,,,,,,,,,,,,,,,,,,,,,,,,,,,,,,,,,,,,,,,,,,,,,,,,,,,,,,,,,,,
1725710398.372724,1725710398.373977,35.0,0.0,4265.769043,4263.077148,4248.077148,4336.922852,4220.769043,4262.563965,4369.743652,4230.769043,4265.128418,4200.384766,4568.717773,4511.794922,4365.897461,4445.897461,0.0,1.0,15.0,,,,0.0,4.0,4.0,4.0,4.0,4.0,4.0,4.0,4.0,4.0,4.0,4.0,4.0,4.0,4.0,100.0,,,,,,,,,,,,,,,,,,,,,,,,,,,,,,,,,,,,,,,,,,,,,,,,,,,,,,,,,,,,,,,,,,,,,,,,,,,,,,,,,,,,,,,,,,,,,,,,,,,,,,,,,,,,,,,,,,,,,,,,,,,,,,,,,,,
1725710398.376628,1725710398.377881,36.0,0.0,4265.769043,4267.307617,4248.717773,4341.282227,4220.256348,4262.94873,4379.871582,4232.307617,4261.794922,4198.205078,4567.05127,4509.230957,4361.282227,4445.256348,0.0,1.0,15.0,,,,0.0,4.0,4.0,4.0,4.0,4.0,4.0,4.0,4.0,4.0,4.0,4.0,4.0,4.0,4.0,100.0,,,,,,,,,,,,,,,,,,,,,,,,,,,,,,,,,,,,,,,,,,,,,,,,,,,,,,,,,,,,,,,,,,,,,,,,,,,,,,,,,,,,,,,,,,,,,,,,,,,,,,,,,,,,,,,,,,,,,,,,,,,,,,,,,,,
1725710398.380532,1725710398.381785,37.0,0.0,4266.922852,4267.05127,4248.717773,4345.384766,4218.974121,4264.487305,4387.820313,4234.230957,4260.897461,4195.0,4571.282227,4509.743652,4367.05127,4445.512695,0.0,1.0,15.0,,,,0.0,4.0,4.0,4.0,4.0,4.0,4.0,4.0,4.0,4.0,4.0,4.0,4.0,4.0,4.0,100.0,,,,,,,,,,,,,,,,,,,,,,,,,,,,,,,,,,,,,,,,,,,,,,,,,,,,,,,,,,,,,,,,,,,,,,,,,,,,,,,,,,,,,,,,,,,,,,,,,,,,,,,,,,,,,,,,,,,,,,,,,,,,,,,,,,,
1725710398.384436,1725710398.385789,38.0,0.0,4268.333496,4263.205078,4247.692383,4346.666504,4218.077148,4266.153809,4393.717773,4234.230957,4263.461426,4193.333496,4579.358887,4510.897461,4380.0,4446.410156,0.0,1.0,15.0,,,,0.0,4.0,4.0,4.0,4.0,4.0,4.0,4.0,4.0,4.0,4.0,4.0,4.0,4.0,4.0,100.0,,,,,,,,,,,,,,,,,,,,,,,,,,,,,,,,,,,,,,,,,,,,,,,,,,,,,,,,,,,,,,,,,,,,,,,,,,,,,,,,,,,,,,,,,,,,,,,,,,,,,,,,,,,,,,,,,,,,,,,,,,,,,,,,,,,
1725710398.38834,1725710398.389693,39.0,0.0,4267.94873,4257.563965,4245.256348,4343.461426,4217.179688,4266.025879,4397.692383,4231.025879,4266.538574,4193.333496,4585.897461,4509.615234,4391.153809,4446.794922,0.0,1.0,15.0,,,,0.0,4.0,4.0,4.0,4.0,4.0,4.0,4.0,4.0,4.0,4.0,4.0,4.0,4.0,4.0,100.0,,,,,,,,,,,,,,,,,,,,,,,,,,,,,,,,,,,,,,,,,,,,,,,,,,,,,,,,,,,,,,,,,,,,,,,,,,,,,,,,,,,,,,,,,,,,,,,,,,,,,,,,,,,,,,,,,,,,,,,,,,,,,,,,,,,
1725710398.392244,1725710398.393597,40.0,0.0,4264.102539,4251.666504,4241.410156,4336.538574,4215.512695,4263.077148,4399.743652,4225.641113,4266.410156,4193.333496,4586.794922,4504.871582,4392.307617,4445.641113,0.0,1.0,15.0,,,,0.0,4.0,4.0,4.0,4.0,4.0,4.0,4.0,4.0,4.0,4.0,4.0,4.0,4.0,4.0,100.0,,,,,,,,,,,,,,,,,,,,,,,,,,,,,,,,,,,,,,,,,,,,,,,,,,,,,,,,0.0,0.0,1.0,0.0,128.0,0.0,,,,,,,,,,,,,,,,,,,,,,,,,,,,,,,,,,,,,,,,,,,,,,,,,,,,,,,,,,,,,,,,,,,,,,
1725710398.396148,1725710398.397501,41.0,0.0,4257.563965,4246.538574,4236.794922,4328.846191,4212.692383,4258.077148,4400.256348,4220.384766,4262.179688,4191.153809,4582.179688,4498.205078,4382.820313,4442.692383,0.0,1.0,15.0,,,,0.0,4.0,4.0,4.0,4.0,4.0,4.0,4.0,4.0,4.0,4.0,4.0,4.0,4.0,4.0,100.0,,,,,,,,,,,,,,,,,,,,,,,,,,,,,,,,,,,,,,,,,,,,,,,,,,,,,,,,,,,,,,,,,,,,,,,,,,,,,,,,,,,,,,,,,,,,,,,,,,,,,,,,,,,,,,,,,,,,,,,,,,,,,,,,,,,
1725710398.400052,1725710398.401405,42.0,0.0,4250.384766,4242.94873,4232.436035,4323.589844,4208.846191,4252.692383,4400.384766,4217.179688,4255.897461,4186.794922,4575.256348,4491.666504,4368.077148,4437.94873,0.0,1.0,15.0,,,,0.0,4.0,4.0,4.0,4.0,4.0,4.0,4.0,4.0,4.0,4.0,4.0,4.0,4.0,4.0,100.0,,,,,,,,,,,,,,,,,,,,,,,,,,,,,,,,,,,,,,,,,,,,,,,,,,,,,,,,,,,,,,,,,,,,,,,,,,,,,,,,,,,,,,,,,,,,,,,,,,,,,,,,,,,,,,,,,,,,,,,,,,,,,,,,,,,
1725710398.403957,1725710398.405409,43.0,0.0,4245.512695,4240.641113,4228.717773,4322.436035,4205.128418,4249.102539,4401.025879,4216.153809,4250.256348,4181.282227,4568.333496,4486.153809,4354.615234,4431.282227,0.0,1.0,15.0,,,,0.0,4.0,4.0,4.0,4.0,4.0,4.0,4.0,4.0,4.0,4.0,4.0,4.0,4.0,4.0,100.0,,,,,,,,,,,,,,,,,,,,,,,,,,,,,,,,,,,,,,,,,,,,,,,,,,,,,,,,,,,,,,,,,,,,,,,,,,,,,,,,,,,,,,,,,,,,,,,,,,,,,,,,,,,,,,,,,,,,,,,,,,,,,,,,,,,
1725710398.407861,1725710398.409313,44.0,0.0,4243.846191,4237.94873,4224.871582,4324.358887,4202.179688,4248.205078,4402.820313,4215.897461,4246.794922,4174.358887,4561.410156,4480.641113,4345.0,4423.077148,0.0,1.0,15.0,,,,0.0,4.0,4.0,4.0,4.0,4.0,4.0,4.0,4.0,4.0,4.0,4.0,4.0,4.0,4.0,100.0,,,,,,,,,,,,,,,,,,,,,,,,,,,,,,,,,,,,,,,,,,,,,,,,,,,,,,,,,,,,,,,,,,,,,,,,,,,,,,,,,,,,,,,,,,,,,,,,,,,,,,,,,,,,,,,,,,,,,,,,,,,,,,,,,,,
1725710398.411765,1725710398.413218,45.0,0.0,4244.230957,4232.94873,4220.512695,4326.410156,4200.256348,4249.743652,4404.615234,4215.256348,4245.256348,4165.897461,4554.102539,4474.487305,4337.94873,4414.615234,0.0,1.0,15.0,,,,0.0,4.0,4.0,4.0,4.0,4.0,4.0,4.0,4.0,4.0,4.0,4.0,4.0,4.0,4.0,100.0,,,,,,,,,,,,,,,,,,,,,,,,,,,,,,,,,,,,,,,,,,,,,,,,,,,,,,,,,,,,,,,,,,,,,,,,,,,,,,,,,,,,,,,,,,,,,,,,,,,,,,,,,,,,,,,,,,,,,,,,,,,,,,,,,,,
1725710398.415669,1725710398.417122,46.0,0.0,4244.487305,4225.128418,4216.025879,4325.769043,4199.358887,4252.436035,4405.897461,4215.256348,4245.512695,4158.205078,4547.820313,4469.487305,4332.307617,4408.846191,0.0,1.0,15.0,,,,0.0,4.0,4.0,4.0,4.0,4.0,4.0,4.0,4.0,4.0,4.0,4.0,4.0,4.0,4.0,100.0,,,,,,,,,,,,,,,,,,,,,,,,,,,,,,,,,,,,,,,,,,,,,,,,,,,,,,,,,,,,,,,,,,,,,,,,,,,,,,,,,,,,,,,,,,,,,,,,,,,,,,,,,,,,,,,,,,,,,,,,,,,,,,,,,,,
1725710398.419573,1725710398.420926,47.0,0.0,4243.974121,4217.436035,4213.717773,4322.307617,4199.615234,4255.256348,4407.692383,4218.589844,4248.461426,4156.025879,4547.436035,4470.0,4330.0,4408.717773,0.0,1.0,15.0,,,,0.0,4.0,4.0,4.0,4.0,4.0,4.0,4.0,4.0,4.0,4.0,4.0,4.0,4.0,4.0,100.0,,,,,,,,,,,,,,,,,,,,,,,,,,,,,,,,,,,,,,,,,,,,,,,,,,,,,,,,,,,,,,,,,,,,,,,,,,,,,,,,,,,,,,,,,,,,,,,,,,,,,,,,,,,,,,,,,,,,,,,,,,,,,,,,,,,
1725710398.423477,1725710398.42483,48.0,0.0,4243.846191,4213.717773,4215.512695,4319.230957,4201.538574,4257.820313,4411.922852,4226.794922,4255.128418,4163.205078,4557.05127,4479.487305,4335.128418,4416.666504,0.0,1.0,15.0,,,,0.0,4.0,4.0,4.0,4.0,4.0,4.0,4.0,4.0,4.0,4.0,4.0,4.0,4.0,4.0,100.0,,,,,,,,,,,,,,,,,1.0,0.0,0.0,,,,,,,,,,,,,,,,,,,,,,,,,,,,,,,,,,,,,0.0,0.0,1.0,0.0,128.0,0.000163,1.732492,2.948916,0.841298,0.095782,0.085513,1.676414,1.696165,0.874726,0.266461,0.100445,1.715081,2.666926,0.532648,0.078324,0.069087,1.256327,2.779557,0.936998,0.170454,0.136978,0.523339,0.5942,0.191965,0.079541,0.02595,0.170158,0.410989,0.060098,0.033859,0.020083,15.284548,2.706439,1.438838,0.686805,0.214535,0.793586,6.241041,0.398325,0.231578,0.117117,1.25274,3.016312,0.302506,0.150049,0.165378,1.16325,3.195746,0.745131,0.262854,0.139241,2.176624,6.049083,1.016712,1.155805,0.31049,2.44492,9.750518,1.016878,0.312201,0.13919,2.970604,3.650542,1.587135,0.424554,0.157211,3.071837,6.231535,1.33983,0.190323,0.118662
1725710398.427381,1725710398.428734,49.0,0.0,4246.153809,4215.897461,4220.897461,4320.512695,4205.384766,4260.512695,4419.358887,4237.94873,4265.256348,4177.94873,4576.410156,4496.538574,4349.358887,4431.025879,0.0,1.0,15.0,,,,0.0,4.0,4.0,4.0,4.0,4.0,4.0,4.0,4.0,4.0,4.0,4.0,4.0,4.0,4.0,100.0,,,,,,,,,,,,,,,,,,,,,,,,,,,,,,,,,,,,,,,,,,,,,,,,,,,,,,,,,,,,,,,,,,,,,,,,,,,,,,,,,,,,,,,,,,,,,,,,,,,,,,,,,,,,,,,,,,,,,,,,,,,,,,,,,,,
1725710398.431285,1725710398.432638,50.0,0.0,4251.666504,4222.563965,4227.94873,4327.820313,4210.641113,4263.077148,4428.717773,4247.05127,4276.025879,4193.717773,4599.358887,4514.487305,4368.205078,4447.563965,0.0,1.0,15.0,,,,0.0,4.0,4.0,4.0,4.0,4.0,4.0,4.0,4.0,4.0,4.0,4.0,4.0,4.0,4.0,100.0,,,,,,,,,,,,,,,,,,,,,,,,,,,,,,,,,,,,,,,,,,,,,,,,,,,,,,,,,,,,,,,,,,,,,,,,,,,,,,,,,,,,,,,,,,,,,,,,,,,,,,,,,,,,,,,,,,,,,,,,,,,,,,,,,,,
1725710398.435189,1725710398.436542,51.0,0.0,4258.717773,4230.256348,4233.846191,4338.333496,4216.025879,4265.128418,4437.563965,4249.871582,4282.94873,4202.94873,4616.410156,4525.769043,4383.589844,4459.871582,0.0,1.0,15.0,,,,0.0,4.0,4.0,4.0,4.0,4.0,4.0,4.0,4.0,4.0,4.0,4.0,4.0,4.0,4.0,100.0,,,,,,,,,,,,,,,,,,,,,,,,,,,,,,,,,,,,,,,,,,,,,,,,,,,,,,,,,,,,,,,,,,,,,,,,,,,,,,,,,,,,,,,,,,,,,,,,,,,,,,,,,,,,,,,,,,,,,,,,,,,,,,,,,,,
1725710398.439093,1725710398.440347,52.0,0.0,4264.230957,4236.410156,4236.666504,4346.922852,4219.487305,4266.025879,4443.717773,4246.153809,4283.333496,4202.94873,4621.410156,4527.05127,4389.487305,4463.974121,0.0,1.0,15.0,,,,0.0,4.0,4.0,4.0,4.0,4.0,4.0,4.0,4.0,4.0,4.0,4.0,4.0,4.0,4.0,100.0,,,,,,,,,,,,,,,,,,,,,,,,,,,,,,,,,,,,,,,,,,,,,,,,,,,,,,,,,,,,,,,,,,,,,,,,,,,,,,,,,,,,,,,,,,,,,,,,,,,,,,,,,,,,,,,,,,,,,,,,,,,,,,,,,,,
1725710398.442998,1725710398.444251,53.0,0.0,4266.025879,4240.384766,4236.666504,4349.743652,4220.384766,4266.025879,4447.563965,4239.230957,4278.077148,4197.563965,4615.769043,4520.769043,4386.410156,4459.871582,0.0,1.0,15.0,,,,0.0,4.0,4.0,4.0,4.0,4.0,4.0,4.0,4.0,4.0,4.0,4.0,4.0,4.0,4.0,100.0,,,,,,,,,,,,,,,,,,,,,,,,,,,,,,,,,,,,,,,,,,,,,,,,,,,,,,,,,,,,,,,,,,,,,,,,,,,,,,,,,,,,,,,,,,,,,,,,,,,,,,,,,,,,,,,,,,,,,,,,,,,,,,,,,,,
1725710398.446902,1725710398.448155,54.0,0.0,4264.487305,4242.94873,4235.641113,4347.436035,4219.743652,4265.641113,4450.769043,4233.589844,4270.897461,4193.461426,4606.025879,4511.794922,4380.256348,4451.538574,0.0,1.0,15.0,,,,0.0,4.0,4.0,4.0,4.0,4.0,4.0,4.0,4.0,4.0,4.0,4.0,4.0,4.0,4.0,100.0,,,,,,,,,,,,,,,,,,,,,,,,,,,,,,,,,,,,,,,,,,,,,,,,,,,,,,,,,,,,,,,,,,,,,,,,,,,,,,,,,,,,,,,,,,,,,,,,,,,,,,,,,,,,,,,,,,,,,,,,,,,,,,,,,,,
1725710398.450806,1725710398.451959,55.0,0.0,4262.179688,4245.0,4235.0,4343.461426,4218.974121,4265.512695,4455.0,4230.897461,4266.538574,4194.615234,4599.230957,4504.487305,4376.538574,4444.102539,0.0,1.0,15.0,,,,0.0,4.0,4.0,4.0,4.0,4.0,4.0,4.0,4.0,4.0,4.0,4.0,4.0,4.0,4.0,100.0,,,,,,,,,,,,,,,,,,,,,,,,,,,,,,,,,,,,,,,,,,,,,,,,,,,,,,,,,,,,,,,,,,,,,,,,,,,,,,,,,,,,,,,,,,,,,,,,,,,,,,,,,,,,,,,,,,,,,,,,,,,,,,,,,,,
1725710398.45471,1725710398.455963,56.0,0.0,4261.538574,4247.05127,4235.0,4341.794922,4219.487305,4265.641113,4459.487305,4230.897461,4266.922852,4199.102539,4597.94873,4500.641113,4377.05127,4441.025879,0.0,1.0,15.0,,,,0.0,4.0,4.0,4.0,4.0,4.0,4.0,4.0,4.0,4.0,4.0,4.0,4.0,4.0,4.0,100.0,,,,,,,,,,,,,,,,,,,,,,,,,,,,,,,,,,,,,,,,,,,,,,,,,,,,,,,,0.0,0.0,1.0,0.0,128.0,0.000163,,,,,,,,,,,,,,,,,,,,,,,,,,,,,,,,,,,,,,,,,,,,,,,,,,,,,,,,,,,,,,,,,,,,,,
1725710398.458614,1725710398.459867,57.0,0.0,4262.94873,4248.846191,4234.871582,4344.102539,4221.153809,4265.769043,4462.820313,4232.563965,4271.666504,4202.692383,4600.512695,4500.897461,4380.384766,4442.820313,0.0,1.0,15.0,,,,0.0,4.0,4.0,4.0,4.0,4.0,4.0,4.0,4.0,4.0,4.0,4.0,4.0,4.0,4.0,100.0,,,,,,,,,,,,,,,,,,,,,,,,,,,,,,,,,,,,,,,,,,,,,,,,,,,,,,,,,,,,,,,,,,,,,,,,,,,,,,,,,,,,,,,,,,,,,,,,,,,,,,,,,,,,,,,,,,,,,,,,,,,,,,,,,,,
1725710398.462518,1725710398.463771,58.0,0.0,4265.128418,4249.615234,4234.743652,4348.589844,4222.179688,4265.641113,4463.846191,4235.641113,4278.077148,4202.692383,4604.871582,4505.384766,4385.128418,4448.333496,0.0,1.0,15.0,,,,0.0,4.0,4.0,4.0,4.0,4.0,4.0,4.0,4.0,4.0,4.0,4.0,4.0,4.0,4.0,100.0,,,,,,,,,,,,,,,,,,,,,,,,,,,,,,,,,,,,,,,,,,,,,,,,,,,,,,,,,,,,,,,,,,,,,,,,,,,,,,,,,,,,,,,,,,,,,,,,,,,,,,,,,,,,,,,,,,,,,,,,,,,,,,,,,,,
1725710398.466422,1725710398.467675,59.0,0.0,4266.922852,4248.846191,4235.384766,4352.692383,4221.666504,4265.512695,4463.589844,4240.641113,4283.846191,4201.025879,4609.487305,4512.94873,4390.512695,4455.384766,0.0,1.0,15.0,,,,0.0,4.0,4.0,4.0,4.0,4.0,4.0,4.0,4.0,4.0,4.0,4.0,4.0,4.0,4.0,100.0,,,,,,,,,,,,,,,,,,,,,,,,,,,,,,,,,,,,,,,,,,,,,,,,,,,,,,,,,,,,,,,,,,,,,,,,,,,,,,,,,,,,,,,,,,,,,,,,,,,,,,,,,,,,,,,,,,,,,,,,,,,,,,,,,,,
1725710398.470326,1725710398.471579,60.0,0.0,4267.436035,4247.179688,4237.436035,4354.102539,4220.256348,4265.641113,4463.717773,4246.282227,4287.692383,4201.153809,4613.333496,4520.384766,4394.871582,4461.666504,0.0,1.0,15.0,,,,0.0,4.0,4.0,4.0,4.0,4.0,4.0,4.0,4.0,4.0,4.0,4.0,4.0,4.0,4.0,100.0,,,,,,,,,,,,,,,,,,,,,,,,,,,,,,,,,,,,,,,,,,,,,,,,,,,,,,,,,,,,,,,,,,,,,,,,,,,,,,,,,,,,,,,,,,,,,,,,,,,,,,,,,,,,,,,,,,,,,,,,,,,,,,,,,,,
1725710398.47423,1725710398.475483,61.0,0.0,4266.794922,4246.538574,4240.769043,4352.820313,4219.102539,4265.897461,4465.512695,4249.743652,4288.974121,4204.230957,4614.487305,4523.717773,4395.128418,4465.256348,0.0,1.0,15.0,,,,0.0,4.0,4.0,4.0,4.0,4.0,4.0,4.0,4.0,4.0,4.0,4.0,4.0,4.0,4.0,100.0,,,,,,,,,,,,,,,,,,,,,,,,,,,,,,,,,,,,,,,,,,,,,,,,,,,,,,,,,,,,,,,,,,,,,,,,,,,,,,,,,,,,,,,,,,,,,,,,,,,,,,,,,,,,,,,,,,,,,,,,,,,,,,,,,,,
1725710398.478135,1725710398.479487,62.0,0.0,4265.641113,4247.436035,4243.974121,4350.641113,4219.358887,4265.641113,4469.102539,4248.077148,4287.179688,4207.05127,4611.025879,4521.025879,4389.102539,4465.128418,0.0,1.0,15.0,,,,0.0,4.0,4.0,4.0,4.0,4.0,4.0,4.0,4.0,4.0,4.0,4.0,4.0,4.0,4.0,100.0,,,,,,,,,,,,,,,,,,,,,,,,,,,,,,,,,,,,,,,,,,,,,,,,,,,,,,,,,,,,,,,,,,,,,,,,,,,,,,,,,,,,,,,,,,,,,,,,,,,,,,,,,,,,,,,,,,,,,,,,,,,,,,,,,,,
1725710398.482039,1725710398.483392,63.0,0.0,4265.128418,4248.846191,4244.871582,4349.615234,4220.256348,4264.487305,4472.94873,4241.153809,4283.077148,4205.256348,4603.974121,4513.846191,4379.487305,4462.307617,0.0,1.0,15.0,,,,0.0,4.0,4.0,4.0,4.0,4.0,4.0,4.0,4.0,4.0,4.0,4.0,4.0,4.0,4.0,100.0,,,,,,,,,,,,,,,,,,,,,,,,,,,,,,,,,,,,,,,,,,,,,,,,,,,,,,,,,,,,,,,,,,,,,,,,,,,,,,,,,,,,,,,,,,,,,,,,,,,,,,,,,,,,,,,,,,,,,,,,,,,,,,,,,,,
1725710398.485943,1725710398.487296,64.0,0.0,4265.641113,4248.974121,4242.692383,4350.384766,4220.641113,4262.94873,4474.615234,4232.563965,4278.077148,4197.179688,4597.307617,4506.025879,4372.820313,4458.974121,0.0,1.0,15.0,,,,0.0,4.0,4.0,4.0,4.0,4.0,4.0,4.0,4.0,4.0,4.0,4.0,4.0,4.0,4.0,100.0,,,,,,,,,,,,,,,,,,,,,,,,,,,,,,,,,,,,,,,,,,,,,,,,,,,,,,,,0.0,0.0,1.0,0.0,128.0,0.000163,,,,,,,,,,,,,,,,,,,,,,,,,,,,,,,,,,,,,,,,,,,,,,,,,,,,,,,,,,,,,,,,,,,,,,
1725710398.489847,1725710398.4913,65.0,0.0,4266.410156,4246.666504,4238.333496,4352.05127,4219.743652,4261.666504,4473.461426,4227.05127,4274.230957,4186.794922,4594.358887,4501.794922,4373.461426,4457.307617,0.0,1.0,15.0,,,,0.0,4.0,4.0,4.0,4.0,4.0,4.0,4.0,4.0,4.0,4.0,4.0,4.0,4.0,4.0,100.0,,,,,,,,,,,,,,,,,,,,,,,,,,,,,,,,,,,,,,,,,,,,,,,,,,,,,,,,,,,,,,,,,,,,,,,,,,,,,,,,,,,,,,,,,,,,,,,,,,,,,,,,,,,,,,,,,,,,,,,,,,,,,,,,,,,
1725710398.493751,1725710398.495204,66.0,0.0,4266.794922,4242.436035,4234.358887,4352.692383,4218.205078,4261.282227,4471.666504,4226.922852,4272.563965,4180.512695,4595.128418,4502.179688,4379.615234,4457.563965,0.0,1.0,15.0,,,,0.0,4.0,4.0,4.0,4.0,4.0,4.0,4.0,4.0,4.0,4.0,4.0,4.0,4.0,4.0,100.0,,,,,,,,,,,,,,,,,,,,,,,,,,,,,,,,,,,,,,,,,,,,,,,,,,,,,,,,,,,,,,,,,,,,,,,,,,,,,,,,,,,,,,,,,,,,,,,,,,,,,,,,,,,,,,,,,,,,,,,,,,,,,,,,,,,
1725710398.497655,1725710398.499108,67.0,0.0,4265.769043,4237.692383,4232.436035,4351.282227,4216.922852,4261.410156,4471.794922,4230.769043,4272.820313,4181.538574,4596.025879,4505.128418,4385.0,4458.205078,0.0,1.0,15.0,,,,0.0,4.0,4.0,4.0,4.0,4.0,4.0,4.0,4.0,4.0,4.0,4.0,4.0,4.0,4.0,100.0,,,,,,,,,,,,,,,,,,,,,,,,,,,,,,,,,,,,,,,,,,,,,,,,,,,,,,,,,,,,,,,,,,,,,,,,,,,,,,,,,,,,,,,,,,,,,,,,,,,,,,,,,,,,,,,,,,,,,,,,,,,,,,,,,,,
1725710398.501559,1725710398.503012,68.0,0.0,4263.846191,4233.846191,4232.307617,4347.820313,4216.410156,4261.922852,4475.256348,4234.743652,4273.077148,4186.410156,4592.94873,4507.05127,4384.743652,4458.333496,0.0,1.0,15.0,,,,0.0,4.0,4.0,4.0,4.0,4.0,4.0,4.0,4.0,4.0,4.0,4.0,4.0,4.0,4.0,100.0,,,,,,,,,,,,,,,,,,,,,,,,,,,,,,,,,,,,,,,,,,,,,,,,,,,,,,,,,,,,,,,,,,,,,,,,,,,,,,,,,,,,,,,,,,,,,,,,,,,,,,,,,,,,,,,,,,,,,,,,,,,,,,,,,,,
1725710398.505463,1725710398.506916,69.0,0.0,4261.922852,4232.563965,4233.077148,4343.717773,4216.538574,4262.307617,4480.641113,4235.512695,4271.794922,4188.846191,4584.871582,4505.897461,4379.615234,4457.692383,0.0,1.0,15.0,,,,0.0,4.0,4.0,4.0,4.0,4.0,4.0,4.0,4.0,4.0,4.0,4.0,4.0,4.0,4.0,100.0,,,,,,,,,,,,,,,,,,,,,,,,,,,,,,,,,,,,,,,,,,,,,,,,,,,,,,,,,,,,,,,,,,,,,,,,,,,,,,,,,,,,,,,,,,,,,,,,,,,,,,,,,,,,,,,,,,,,,,,,,,,,,,,,,,,
1725710398.509367,1725710398.51092,70.0,0.0,4261.410156,4234.230957,4233.461426,4340.256348,4217.179688,4262.05127,4486.025879,4233.205078,4268.333496,4184.487305,4575.256348,4502.94873,4374.102539,4457.05127,0.0,1.0,15.0,,,,0.0,4.0,4.0,4.0,4.0,4.0,4.0,4.0,4.0,4.0,4.0,4.0,4.0,4.0,4.0,100.0,,,,,,,,,,,,,,,,,,,,,,,,,,,,,,,,,,,,,,,,,,,,,,,,,,,,,,,,,,,,,,,,,,,,,,,,,,,,,,,,,,,,,,,,,,,,,,,,,,,,,,,,,,,,,,,,,,,,,,,,,,,,,,,,,,,
1725710398.513271,1725710398.514824,71.0,0.0,4263.077148,4238.333496,4233.333496,4339.102539,4217.94873,4261.410156,4490.641113,4229.615234,4264.230957,4175.256348,4570.0,4501.794922,4372.94873,4457.436035,0.0,1.0,15.0,,,,0.0,4.0,4.0,4.0,4.0,4.0,4.0,4.0,4.0,4.0,4.0,4.0,4.0,4.0,4.0,100.0,,,,,,,,,,,,,,,,,,,,,,,,,,,,,,,,,,,,,,,,,,,,,,,,,,,,,,,,,,,,,,,,,,,,,,,,,,,,,,,,,,,,,,,,,,,,,,,,,,,,,,,,,,,,,,,,,,,,,,,,,,,,,,,,,,,
1725710398.517175,1725710398.518728,72.0,0.0,4266.153809,4243.077148,4232.94873,4341.153809,4218.205078,4260.384766,4494.743652,4227.05127,4262.05127,4167.307617,4572.563965,4503.974121,4376.153809,4459.358887,0.0,1.0,15.0,,,,0.0,4.0,4.0,4.0,4.0,4.0,4.0,4.0,4.0,4.0,4.0,4.0,4.0,4.0,4.0,100.0,,,,,,,,,,,,,,,,,,,,,,,,,,,,,,,,,,,,,,,,,,,,,,,,,,,,,,,,0.0,0.0,1.0,0.0,128.0,0.000163,,,,,,,,,,,,,,,,,,,,,,,,,,,,,,,,,,,,,,,,,,,,,,,,,,,,,,,,,,,,,,,,,,,,,,
1725710398.521079,1725710398.522632,73.0,0.0,4269.230957,4246.794922,4232.820313,4345.769043,4218.205078,4259.615234,4498.974121,4226.410156,4263.846191,4166.282227,4581.153809,4508.205078,4380.0,4461.794922,0.0,1.0,15.0,,,,0.0,4.0,4.0,4.0,4.0,4.0,4.0,4.0,4.0,4.0,4.0,4.0,4.0,4.0,4.0,100.0,,,,,,,,,,,,,,,,,,,,,,,,,,,,,,,,,,,,,,,,,,,,,,,,,,,,,,,,,,,,,,,,,,,,,,,,,,,,,,,,,,,,,,,,,,,,,,,,,,,,,,,,,,,,,,,,,,,,,,,,,,,,,,,,,,,
1725710398.524984,1725710398.526437,74.0,0.0,4271.025879,4249.102539,4233.333496,4351.025879,4217.94873,4258.974121,4502.94873,4227.563965,4268.846191,4172.563965,4588.974121,4511.153809,4380.641113,4463.461426,0.0,1.0,15.0,,,,0.0,4.0,4.0,4.0,4.0,4.0,4.0,4.0,4.0,4.0,4.0,4.0,4.0,4.0,4.0,100.0,,,,,,,,,,,,,,,,,,,,,,,,,,,,,,,,,,,,,,,,,,,,,,,,,,,,,,,,,,,,,,,,,,,,,,,,,,,,,,,,,,,,,,,,,,,,,,,,,,,,,,,,,,,,,,,,,,,,,,,,,,,,,,,,,,,
1725710398.528888,1725710398.530341,75.0,0.0,4270.641113,4249.871582,4233.846191,4353.846191,4217.307617,4258.717773,4505.769043,4229.102539,4273.974121,4181.922852,4590.256348,4511.153809,4377.692383,4463.461426,0.0,1.0,15.0,,,,0.0,4.0,4.0,4.0,4.0,4.0,4.0,4.0,4.0,4.0,4.0,4.0,4.0,4.0,4.0,100.0,,,,,,,,,,,,,,,,,,,,,,,,,,,,,,,,,,,,,,,,,,,,,,,,,,,,,,,,,,,,,,,,,,,,,,,,,,,,,,,,,,,,,,,,,,,,,,,,,,,,,,,,,,,,,,,,,,,,,,,,,,,,,,,,,,,
1725710398.532792,1725710398.534245,76.0,0.0,4268.333496,4248.717773,4234.230957,4352.692383,4216.153809,4258.717773,4507.179688,4230.128418,4277.307617,4189.230957,4583.974121,4509.358887,4374.487305,4461.794922,0.0,1.0,15.0,,,,0.0,4.0,4.0,4.0,4.0,4.0,4.0,4.0,4.0,4.0,4.0,4.0,4.0,4.0,4.0,100.0,,,,,,,,,,,,,,,,,,,,,,,,,,,,,,,,,,,,,,,,,,,,,,,,,,,,,,,,,,,,,,,,,,,,,,,,,,,,,,,,,,,,,,,,,,,,,,,,,,,,,,,,,,,,,,,,,,,,,,,,,,,,,,,,,,,
1725710398.536696,1725710398.538149,77.0,0.0,4265.0,4245.256348,4234.487305,4347.563965,4215.256348,4258.717773,4507.307617,4230.384766,4279.358887,4192.179688,4575.256348,4507.692383,4374.487305,4460.128418,0.0,1.0,15.0,,,,0.0,4.0,4.0,4.0,4.0,4.0,4.0,4.0,4.0,4.0,4.0,4.0,4.0,4.0,4.0,100.0,,,,,,,,,,,,,,,,,,,,,,,,,,,,,,,,,,,,,,,,,,,,,,,,,,,,,,,,,,,,,,,,,,,,,,,,,,,,,,,,,,,,,,,,,,,,,,,,,,,,,,,,,,,,,,,,,,,,,,,,,,,,,,,,,,,
1725710398.5406,1725710398.541953,78.0,0.0,4262.563965,4240.256348,4234.487305,4341.410156,4214.743652,4259.102539,4506.794922,4230.641113,4281.538574,4192.179688,4570.0,4507.307617,4377.94873,4459.615234,0.0,1.0,15.0,,,,0.0,4.0,4.0,4.0,4.0,4.0,4.0,4.0,4.0,4.0,4.0,4.0,4.0,4.0,4.0,100.0,,,,,,,,,,,,,,,,,,,,,,,,,,,,,,,,,,,,,,,,,,,,,,,,,,,,,,,,,,,,,,,,,,,,,,,,,,,,,,,,,,,,,,,,,,,,,,,,,,,,,,,,,,,,,,,,,,,,,,,,,,,,,,,,,,,
1725710398.544504,1725710398.545857,79.0,0.0,4262.179688,4235.641113,4234.102539,4337.563965,4214.743652,4260.0,4506.666504,4232.05127,4284.487305,4192.436035,4571.666504,4507.94873,4382.05127,4460.384766,0.0,1.0,15.0,,,,0.0,4.0,4.0,4.0,4.0,4.0,4.0,4.0,4.0,4.0,4.0,4.0,4.0,4.0,4.0,100.0,,,,,,,,,,,,,,,,,,,,,,,,,,,,,,,,,,,,,,,,,,,,,,,,,,,,,,,,,,,,,,,,,,,,,,,,,,,,,,,,,,,,,,,,,,,,,,,,,,,,,,,,,,,,,,,,,,,,,,,,,,,,,,,,,,,
1725710398.548408,1725710398.549761,80.0,0.0,4263.717773,4233.846191,4233.461426,4337.820313,4215.0,4261.794922,4507.307617,4235.897461,4287.179688,4194.487305,4578.846191,4509.102539,4383.846191,4460.897461,0.0,1.0,15.0,,,,0.0,4.0,4.0,4.0,4.0,4.0,4.0,4.0,4.0,4.0,4.0,4.0,4.0,4.0,4.0,100.0,,,,,,,,,,,,,,,,,1.0,0.0,0.0,,,,,,,,,,,,,,,,,,,,,,,,,,,,,,,,,,,,,0.0,0.0,1.0,0.0,128.0,0.003007,1.53701,2.522406,0.71775,0.088656,0.086532,1.505792,1.523531,0.731172,0.247565,0.099541,1.728834,2.240171,0.510461,0.070027,0.069412,1.246103,2.451763,0.826428,0.153917,0.149337,0.439829,0.465888,0.152008,0.0707,0.018792,0.156114,0.356762,0.05111,0.03126,0.024616,14.584186,2.553623,1.395964,0.720762,0.223975,1.018301,5.653392,0.402349,0.192584,0.127372,1.215847,2.804875,0.331388,0.146307,0.165555,1.033567,2.922755,0.692644,0.222656,0.142867,1.954511,5.634942,0.956651,1.257608,0.333901,2.544585,8.746341,0.890044,0.288494,0.151069,2.619325,3.399356,1.40001,0.416475,0.175638,2.764754,5.699945,1.186742,0.177987,0.122403
1725710398.552312,1725710398.553665,81.0,0.0,4265.512695,4235.128418,4232.563965,4341.153809,4215.641113,4263.717773,4508.461426,4241.282227,4288.717773,4197.692383,4587.692383,4510.512695,4383.333496,4460.256348,0.0,1.0,15.0,,,,0.0,4.0,4.0,4.0,4.0,4.0,4.0,4.0,4.0,4.0,4.0,4.0,4.0,4.0,4.0,100.0,,,,,,,,,,,,,,,,,,,,,,,,,,,,,,,,,,,,,,,,,,,,,,,,,,,,,,,,,,,,,,,,,,,,,,,,,,,,,,,,,,,,,,,,,,,,,,,,,,,,,,,,,,,,,,,,,,,,,,,,,,,,,,,,,,,
1725710398.556216,1725710398.55747,82.0,0.0,4265.512695,4237.05127,4232.179688,4344.230957,4216.153809,4264.615234,4509.230957,4245.897461,4288.974121,4200.128418,4593.461426,4511.538574,4382.179688,4458.333496,0.0,1.0,15.0,,,,0.0,4.0,4.0,4.0,4.0,4.0,4.0,4.0,4.0,4.0,4.0,4.0,4.0,4.0,4.0,100.0,,,,,,,,,,,,,,,,,,,,,,,,,,,,,,,,,,,,,,,,,,,,,,,,,,,,,,,,,,,,,,,,,,,,,,,,,,,,,,,,,,,,,,,,,,,,,,,,,,,,,,,,,,,,,,,,,,,,,,,,,,,,,,,,,,,
1725710398.56012,1725710398.561374,83.0,0.0,4262.820313,4237.179688,4232.307617,4343.717773,4216.410156,4263.333496,4508.717773,4246.153809,4287.94873,4200.128418,4592.94873,4510.897461,4381.153809,4455.641113,0.0,1.0,15.0,,,,0.0,4.0,4.0,4.0,4.0,4.0,4.0,4.0,4.0,4.0,4.0,4.0,4.0,4.0,4.0,100.0,,,,,,,,,,,,,,,,,,,,,,,,,,,,,,,,,,,,,,,,,,,,,,,,,,,,,,,,,,,,,,,,,,,,,,,,,,,,,,,,,,,,,,,,,,,,,,,,,,,,,,,,,,,,,,,,,,,,,,,,,,,,,,,,,,,
1725710398.564025,1725710398.565278,84.0,0.0,4258.077148,4234.230957,4232.179688,4338.589844,4215.769043,4259.358887,4506.666504,4240.384766,4285.512695,4197.05127,4585.128418,4507.563965,4378.974121,4451.794922,0.0,1.0,15.0,,,,0.0,4.0,4.0,4.0,4.0,4.0,4.0,4.0,4.0,4.0,4.0,4.0,4.0,4.0,4.0,100.0,,,,,,,,,,,,,,,,,,,,,,,,,,,,,,,,,,,,,,,,,,,,,,,,,,,,,,,,,,,,,,,,,,,,,,,,,,,,,,,,,,,,,,,,,,,,,,,,,,,,,,,,,,,,,,,,,,,,,,,,,,,,,,,,,,,
1725710398.567929,1725710398.569182,85.0,0.0,4252.820313,4229.615234,4230.641113,4331.025879,4214.102539,4253.974121,4504.102539,4230.128418,4281.538574,4191.922852,4571.794922,4501.025879,4373.333496,4446.025879,0.0,1.0,15.0,,,,0.0,4.0,4.0,4.0,4.0,4.0,4.0,4.0,4.0,4.0,4.0,4.0,4.0,4.0,4.0,100.0,,,,,,,,,,,,,,,,,,,,,,,,,,,,,,,,,,,,,,,,,,,,,,,,,,,,,,,,,,,,,,,,,,,,,,,,,,,,,,,,,,,,,,,,,,,,,,,,,,,,,,,,,,,,,,,,,,,,,,,,,,,,,,,,,,,
1725710398.571833,1725710398.572986,86.0,0.0,4248.974121,4226.538574,4227.436035,4324.615234,4211.153809,4248.974121,4501.794922,4219.230957,4276.410156,4186.153809,4557.05127,4492.307617,4364.358887,4438.846191,0.0,1.0,15.0,,,,0.0,4.0,4.0,4.0,4.0,4.0,4.0,4.0,4.0,4.0,4.0,4.0,4.0,4.0,4.0,100.0,,,,,,,,,,,,,,,,,,,,,,,,,,,,,,,,,,,,,,,,,,,,,,,,,,,,,,,,,,,,,,,,,,,,,,,,,,,,,,,,,,,,,,,,,,,,,,,,,,,,,,,,,,,,,,,,,,,,,,,,,,,,,,,,,,,
1725710398.575737,1725710398.57689,87.0,0.0,4247.307617,4227.307617,4223.333496,4322.692383,4207.820313,4246.410156,4499.615234,4212.179688,4271.410156,4180.512695,4545.769043,4483.461426,4355.512695,4432.436035,0.0,1.0,15.0,,,,0.0,4.0,4.0,4.0,4.0,4.0,4.0,4.0,4.0,4.0,4.0,4.0,4.0,4.0,4.0,100.0,,,,,,,,,,,,,,,,,,,,,,,,,,,,,,,,,,,,,,,,,,,,,,,,,,,,,,,,,,,,,,,,,,,,,,,,,,,,,,,,,,,,,,,,,,,,,,,,,,,,,,,,,,,,,,,,,,,,,,,,,,,,,,,,,,,
1725710398.579641,1725710398.580794,88.0,0.0,4247.820313,4231.666504,4220.256348,4324.871582,4204.743652,4246.794922,4496.794922,4210.512695,4267.436035,4174.615234,4541.025879,4476.922852,4351.025879,4429.230957,0.0,1.0,15.0,,,,0.0,4.0,4.0,4.0,4.0,4.0,4.0,4.0,4.0,4.0,4.0,4.0,4.0,4.0,4.0,100.0,,,,,,,,,,,,,,,,,,,,,,,,,,,,,,,,,,,,,,,,,,,,,,,,,,,,,,,,0.0,0.0,1.0,0.0,128.0,0.003007,,,,,,,,,,,,,,,,,,,,,,,,,,,,,,,,,,,,,,,,,,,,,,,,,,,,,,,,,,,,,,,,,,,,,,
1725710398.583545,1725710398.584798,89.0,0.0,4248.974121,4236.153809,4219.230957,4327.563965,4202.820313,4249.230957,4493.717773,4212.692383,4264.743652,4167.94873,4542.436035,4474.230957,4351.922852,4430.0,0.0,1.0,15.0,,,,0.0,4.0,4.0,4.0,4.0,4.0,4.0,4.0,4.0,4.0,4.0,4.0,4.0,4.0,4.0,100.0,,,,,,,,,,,,,,,,,,,,,,,,,,,,,,,,,,,,,,,,,,,,,,,,,,,,,,,,,,,,,,,,,,,,,,,,,,,,,,,,,,,,,,,,,,,,,,,,,,,,,,,,,,,,,,,,,,,,,,,,,,,,,,,,,,,
1725710398.587449,1725710398.588702,90.0,0.0,4249.102539,4237.05127,4219.743652,4327.05127,4202.179688,4251.410156,4491.538574,4215.128418,4263.461426,4161.666504,4545.769043,4474.615234,4355.769043,4432.820313,0.0,1.0,15.0,,,,0.0,4.0,4.0,4.0,4.0,4.0,4.0,4.0,4.0,4.0,4.0,4.0,4.0,4.0,4.0,100.0,,,,,,,,,,,,,,,,,,,,,,,,,,,,,,,,,,,,,,,,,,,,,,,,,,,,,,,,,,,,,,,,,,,,,,,,,,,,,,,,,,,,,,,,,,,,,,,,,,,,,,,,,,,,,,,,,,,,,,,,,,,,,,,,,,,
1725710398.591353,1725710398.592607,91.0,0.0,4247.179688,4232.563965,4220.384766,4322.436035,4201.922852,4252.179688,4491.794922,4215.512695,4263.077148,4157.179688,4546.410156,4475.897461,4358.461426,4435.0,0.0,1.0,15.0,,,,0.0,4.0,4.0,4.0,4.0,4.0,4.0,4.0,4.0,4.0,4.0,4.0,4.0,4.0,4.0,100.0,,,,,,,,,,,,,,,,,,,,,,,,,,,,,,,,,,,,,,,,,,,,,,,,,,,,,,,,,,,,,,,,,,,,,,,,,,,,,,,,,,,,,,,,,,,,,,,,,,,,,,,,,,,,,,,,,,,,,,,,,,,,,,,,,,,
1725710398.595257,1725710398.596611,92.0,0.0,4243.589844,4225.128418,4219.871582,4316.282227,4201.410156,4251.410156,4494.871582,4214.102539,4263.333496,4155.384766,4542.436035,4475.512695,4357.179688,4433.974121,0.0,1.0,15.0,,,,0.0,4.0,4.0,4.0,4.0,4.0,4.0,4.0,4.0,4.0,4.0,4.0,4.0,4.0,4.0,100.0,,,,,,,,,,,,,,,,,,,,,,,,,,,,,,,,,,,,,,,,,,,,,,,,,,,,,,,,,,,,,,,,,,,,,,,,,,,,,,,,,,,,,,,,,,,,,,,,,,,,,,,,,,,,,,,,,,,,,,,,,,,,,,,,,,,
1725710398.599162,1725710398.600515,93.0,0.0,4239.615234,4218.589844,4218.077148,4312.179688,4200.512695,4250.128418,4499.743652,4212.436035,4263.589844,4155.897461,4535.384766,4472.436035,4351.153809,4428.974121,0.0,1.0,15.0,,,,0.0,4.0,4.0,4.0,4.0,4.0,4.0,4.0,4.0,4.0,4.0,4.0,4.0,4.0,4.0,100.0,,,,,,,,,,,,,,,,,,,,,,,,,,,,,,,,,,,,,,,,,,,,,,,,,,,,,,,,,,,,,,,,,,,,,,,,,,,,,,,,,,,,,,,,,,,,,,,,,,,,,,,,,,,,,,,,,,,,,,,,,,,,,,,,,,,
1725710398.603066,1725710398.604419,94.0,0.0,4236.282227,4216.025879,4215.512695,4310.512695,4199.743652,4249.230957,4504.871582,4212.179688,4263.205078,4156.922852,4528.205078,4467.563965,4341.666504,4421.666504,0.0,1.0,15.0,,,,0.0,4.0,4.0,4.0,4.0,4.0,4.0,4.0,4.0,4.0,4.0,4.0,4.0,4.0,4.0,100.0,,,,,,,,,,,,,,,,,,,,,,,,,,,,,,,,,,,,,,,,,,,,,,,,,,,,,,,,,,,,,,,,,,,,,,,,,,,,,,,,,,,,,,,,,,,,,,,,,,,,,,,,,,,,,,,,,,,,,,,,,,,,,,,,,,,
1725710398.60697,1725710398.608323,95.0,0.0,4233.333496,4216.538574,4213.333496,4309.358887,4199.615234,4249.358887,4508.846191,4213.333496,4261.922852,4156.922852,4522.436035,4462.563965,4330.641113,4414.615234,0.0,1.0,15.0,,,,0.0,4.0,4.0,4.0,4.0,4.0,4.0,4.0,4.0,4.0,4.0,4.0,4.0,4.0,4.0,100.0,,,,,,,,,,,,,,,,,,,,,,,,,,,,,,,,,,,,,,,,,,,,,,,,,,,,,,,,,,,,,,,,,,,,,,,,,,,,,,,,,,,,,,,,,,,,,,,,,,,,,,,,,,,,,,,,,,,,,,,,,,,,,,,,,,,
1725710398.610874,1725710398.612227,96.0,0.0,4230.384766,4217.307617,4211.922852,4306.282227,4200.512695,4250.0,4510.897461,4214.871582,4260.641113,4155.384766,4517.436035,4457.94873,4320.384766,4409.615234,0.0,1.0,15.0,,,,0.0,4.0,4.0,4.0,4.0,4.0,4.0,4.0,4.0,4.0,4.0,4.0,4.0,4.0,4.0,100.0,,,,,,,,,,,,,,,,,,,,,,,,,,,,,,,,,,,,,,,,,,,,,,,,,,,,,,,,0.0,0.0,1.0,0.0,128.0,0.003007,,,,,,,,,,,,,,,,,,,,,,,,,,,,,,,,,,,,,,,,,,,,,,,,,,,,,,,,,,,,,,,,,,,,,,
1725710398.614778,1725710398.616131,97.0,0.0,4227.692383,4215.641113,4211.410156,4301.282227,4201.538574,4250.641113,4510.641113,4215.512695,4260.384766,4153.077148,4512.05127,4454.871582,4313.333496,4407.692383,0.0,1.0,15.0,,,,0.0,4.0,4.0,4.0,4.0,4.0,4.0,4.0,4.0,4.0,4.0,4.0,4.0,4.0,4.0,100.0,,,,,,,,,,,,,,,,,,,,,,,,,,,,,,,,,,,,,,,,,,,,,,,,,,,,,,,,,,,,,,,,,,,,,,,,,,,,,,,,,,,,,,,,,,,,,,,,,,,,,,,,,,,,,,,,,,,,,,,,,,,,,,,,,,,
1725710398.618682,1725710398.620035,98.0,0.0,4226.410156,4211.153809,4211.410156,4296.410156,4201.538574,4250.512695,4508.974121,4214.615234,4261.410156,4151.410156,4507.179688,4454.615234,4311.666504,4408.589844,0.0,1.0,15.0,,,,0.0,4.0,4.0,4.0,4.0,4.0,4.0,4.0,4.0,4.0,4.0,4.0,4.0,4.0,4.0,100.0,,,,,,,,,,,,,,,,,,,,,,,,,,,,,,,,,,,,,,,,,,,,,,,,,,,,,,,,,,,,,,,,,,,,,,,,,,,,,,,,,,,,,,,,,,,,,,,,,,,,,,,,,,,,,,,,,,,,,,,,,,,,,,,,,,,
1725710398.622586,1725710398.623939,99.0,0.0,4226.666504,4205.512695,4212.179688,4293.846191,4199.743652,4249.743652,4507.692383,4213.077148,4263.589844,4152.436035,4505.512695,4458.333496,4316.025879,4411.282227,0.0,1.0,15.0,,,,0.0,4.0,4.0,4.0,4.0,4.0,4.0,4.0,4.0,4.0,4.0,4.0,4.0,4.0,4.0,100.0,,,,,,,,,,,,,,,,,,,,,,,,,,,,,,,,,,,,,,,,,,,,,,,,,,,,,,,,,,,,,,,,,,,,,,,,,,,,,,,,,,,,,,,,,,,,,,,,,,,,,,,,,,,,,,,,,,,,,,,,,,,,,,,,,,,
1725710398.62649,1725710398.627843,100.0,0.0,4227.563965,4201.153809,4214.102539,4293.077148,4197.179688,4248.846191,4508.461426,4212.563965,4266.410156,4156.025879,4509.487305,4465.0,4324.358887,4414.487305,0.0,1.0,15.0,,,,0.0,4.0,4.0,4.0,4.0,4.0,4.0,4.0,4.0,4.0,4.0,4.0,4.0,4.0,4.0,100.0,,,,,,,,,,,,,,,,,,,,,,,,,,,,,,,,,,,,,,,,,,,,,,,,,,,,,,,,,,,,,,,,,,,,,,,,,,,,,,,,,,,,,,,,,,,,,,,,,,,,,,,,,,,,,,,,,,,,,,,,,,,,,,,,,,,
1725710398.630394,1725710398.631648,101.0,0.0,4227.692383,4199.358887,4216.666504,4291.922852,4195.641113,4247.94873,4510.641113,4214.358887,4268.974121,4160.0,4518.205078,4471.666504,4331.794922,4416.153809,0.0,1.0,15.0,,,,0.0,4.0,4.0,4.0,4.0,4.0,4.0,4.0,4.0,4.0,4.0,4.0,4.0,4.0,4.0,100.0,,,,,,,,,,,,,,,,,,,,,,,,,,,,,,,,,,,,,,,,,,,,,,,,,,,,,,,,,,,,,,,,,,,,,,,,,,,,,,,,,,,,,,,,,,,,,,,,,,,,,,,,,,,,,,,,,,,,,,,,,,,,,,,,,,,
1725710398.634298,1725710398.635552,102.0,0.0,4226.025879,4199.871582,4217.94873,4288.333496,4196.282227,4247.436035,4512.307617,4217.307617,4270.0,4161.538574,4526.153809,4473.846191,4333.333496,4414.871582,0.0,1.0,15.0,,,,0.0,4.0,4.0,4.0,4.0,4.0,4.0,4.0,4.0,4.0,4.0,4.0,4.0,4.0,4.0,100.0,,,,,,,,,,,,,,,,,,,,,,,,,,,,,,,,,,,,,,,,,,,,,,,,,,,,,,,,,,,,,,,,,,,,,,,,,,,,,,,,,,,,,,,,,,,,,,,,,,,,,,,,,,,,,,,,,,,,,,,,,,,,,,,,,,,
1725710398.638203,1725710398.639456,103.0,0.0,4222.692383,4200.897461,4216.666504,4282.820313,4198.077148,4247.307617,4511.153809,4218.589844,4268.846191,4158.974121,4526.666504,4469.230957,4327.05127,4409.871582,0.0,1.0,15.0,,,,0.0,4.0,4.0,4.0,4.0,4.0,4.0,4.0,4.0,4.0,4.0,4.0,4.0,4.0,4.0,100.0,,,,,,,,,,,,,,,,,,,,,,,,,,,,,,,,,,,,,,,,,,,,,,,,,,,,,,,,,,,,,,,,,,,,,,,,,,,,,,,,,,,,,,,,,,,,,,,,,,,,,,,,,,,,,,,,,,,,,,,,,,,,,,,,,,,
1725710398.642107,1725710398.64336,104.0,0.0,4218.717773,4200.769043,4212.692383,4277.94873,4199.230957,4247.307617,4506.282227,4215.769043,4266.282227,4153.589844,4517.307617,4459.230957,4316.025879,4402.307617,0.0,1.0,15.0,,,,0.0,4.0,4.0,4.0,4.0,4.0,4.0,4.0,4.0,4.0,4.0,4.0,4.0,4.0,4.0,100.0,,,,,,,,,,,,,,,,,,,,,,,,,,,,,,,,,,,,,,,,,,,,,,,,,,,,,,,,0.0,0.0,1.0,0.0,128.0,0.003007,,,,,,,,,,,,,,,,,,,,,,,,,,,,,,,,,,,,,,,,,,,,,,,,,,,,,,,,,,,,,,,,,,,,,,
1725710398.646011,1725710398.647164,105.0,0.0,4215.641113,4199.358887,4207.563965,4275.512695,4198.077148,4246.794922,4499.615234,4209.615234,4264.487305,4149.102539,4502.563965,4447.820313,4306.794922,4395.384766,0.0,1.0,15.0,,,,0.0,4.0,4.0,4.0,4.0,4.0,4.0,4.0,4.0,4.0,4.0,4.0,4.0,4.0,4.0,100.0,,,,,,,,,,,,,,,,,,,,,,,,,,,,,,,,,,,,,,,,,,,,,,,,,,,,,,,,,,,,,,,,,,,,,,,,,,,,,,,,,,,,,,,,,,,,,,,,,,,,,,,,,,,,,,,,,,,,,,,,,,,,,,,,,,,
1725710398.649915,1725710398.651068,106.0,0.0,4214.230957,4197.94873,4203.333496,4275.769043,4194.615234,4245.769043,4493.589844,4202.820313,4265.128418,4149.102539,4490.256348,4440.0,4304.743652,4392.05127,0.0,1.0,15.0,,,,0.0,4.0,4.0,4.0,4.0,4.0,4.0,4.0,4.0,4.0,4.0,4.0,4.0,4.0,4.0,100.0,,,,,,,,,,,,,,,,,,,,,,,,,,,,,,,,,,,,,,,,,,,,,,,,,,,,,,,,,,,,,,,,,,,,,,,,,,,,,,,,,,,,,,,,,,,,,,,,,,,,,,,,,,,,,,,,,,,,,,,,,,,,,,,,,,,
1725710398.653819,1725710398.654972,107.0,0.0,4214.743652,4198.077148,4201.282227,4276.538574,4190.128418,4244.487305,4490.0,4199.102539,4267.563965,4153.846191,4486.282227,4438.461426,4310.128418,4393.333496,0.0,1.0,15.0,,,,0.0,4.0,4.0,4.0,4.0,4.0,4.0,4.0,4.0,4.0,4.0,4.0,4.0,4.0,4.0,100.0,,,,,,,,,,,,,,,,,,,,,,,,,,,,,,,,,,,,,,,,,,,,,,,,,,,,,,,,,,,,,,,,,,,,,,,,,,,,,,,,,,,,,,,,,,,,,,,,,,,,,,,,,,,,,,,,,,,,,,,,,,,,,,,,,,,
1725710398.657723,1725710398.658876,108.0,0.0,4216.410156,4199.743652,4201.153809,4275.641113,4186.538574,4243.589844,4488.846191,4199.871582,4269.358887,4160.128418,4489.871582,4442.05127,4318.589844,4397.307617,0.0,1.0,15.0,,,,0.0,4.0,4.0,4.0,4.0,4.0,4.0,4.0,4.0,4.0,4.0,4.0,4.0,4.0,4.0,100.0,,,,,,,,,,,,,,,,,,,,,,,,,,,,,,,,,,,,,,,,,,,,,,,,,,,,,,,,,,,,,,,,,,,,,,,,,,,,,,,,,,,,,,,,,,,,,,,,,,,,,,,,,,,,,,,,,,,,,,,,,,,,,,,,,,,
1725710398.661627,1725710398.662681,109.0,0.0,4217.563965,4201.538574,4201.794922,4272.436035,4185.128418,4243.333496,4489.230957,4203.333496,4268.077148,4162.94873,4495.384766,4446.794922,4323.846191,4400.769043,0.0,1.0,15.0,,,,0.0,4.0,4.0,4.0,4.0,4.0,4.0,4.0,4.0,4.0,4.0,4.0,4.0,4.0,4.0,100.0,,,,,,,,,,,,,,,,,,,,,,,,,,,,,,,,,,,,,,,,,,,,,,,,,,,,,,,,,,,,,,,,,,,,,,,,,,,,,,,,,,,,,,,,,,,,,,,,,,,,,,,,,,,,,,,,,,,,,,,,,,,,,,,,,,,
1725710398.665531,1725710398.666585,110.0,0.0,4217.436035,4202.05127,4201.794922,4268.461426,4185.769043,4243.846191,4489.871582,4206.282227,4262.692383,4158.846191,4496.025879,4448.205078,4322.563965,4401.410156,0.0,1.0,15.0,,,,0.0,4.0,4.0,4.0,4.0,4.0,4.0,4.0,4.0,4.0,4.0,4.0,4.0,4.0,4.0,100.0,,,,,,,,,,,,,,,,,,,,,,,,,,,,,,,,,,,,,,,,,,,,,,,,,,,,,,,,,,,,,,,,,,,,,,,,,,,,,,,,,,,,,,,,,,,,,,,,,,,,,,,,,,,,,,,,,,,,,,,,,,,,,,,,,,,
1725710398.669435,1725710398.670489,111.0,0.0,4216.025879,4201.282227,4200.641113,4265.769043,4187.05127,4244.871582,4490.256348,4206.025879,4254.871582,4148.589844,4489.230957,4445.0,4315.512695,4398.846191,0.0,1.0,15.0,,,,0.0,4.0,4.0,4.0,4.0,4.0,4.0,4.0,4.0,4.0,4.0,4.0,4.0,4.0,4.0,100.0,,,,,,,,,,,,,,,,,,,,,,,,,,,,,,,,,,,,,,,,,,,,,,,,,,,,,,,,,,,,,,,,,,,,,,,,,,,,,,,,,,,,,,,,,,,,,,,,,,,,,,,,,,,,,,,,,,,,,,,,,,,,,,,,,,,
1725710398.673339,1725710398.674493,112.0,0.0,4214.743652,4200.0,4199.102539,4264.871582,4187.94873,4246.025879,4489.871582,4202.307617,4247.820313,4136.922852,4477.820313,4439.230957,4307.820313,4394.743652,0.0,1.0,15.0,,,,0.0,4.0,4.0,4.0,4.0,4.0,4.0,4.0,4.0,4.0,4.0,4.0,4.0,4.0,4.0,100.0,,,,,,,,,,,,,,,,,1.0,0.0,0.0,,,,,,,,,,,,,,,,,,,,,,,,,,,,,,,,,,,,,0.0,0.0,1.0,0.0,128.0,0.00102,1.297847,1.954262,0.537931,0.083485,0.083805,1.260855,1.260297,0.546229,0.227296,0.101953,1.664006,1.687929,0.449529,0.062435,0.064316,1.19575,2.005361,0.638745,0.13861,0.163358,0.363621,0.342099,0.114087,0.057505,0.014499,0.166169,0.329054,0.057816,0.032311,0.033117,13.069324,2.219151,1.24133,0.67962,0.226273,1.22999,4.707108,0.443318,0.166151,0.144219,1.089176,2.387803,0.346788,0.142924,0.165966,0.892076,2.419764,0.615586,0.193699,0.149746,1.686106,4.827688,0.81565,1.249518,0.35423,2.598825,7.237395,0.733775,0.265145,0.165625,2.127902,2.847948,1.088666,0.419615,0.20756,2.304415,4.741563,0.924577,0.182436,0.126346
