Timestamp,OriginalTimestamp,EEG.Counter,EEG.Interpolated,EEG.AF3,EEG.F7,EEG.F3,EEG.FC5,EEG.T7,EEG.P7,EEG.O1,EEG.O2,EEG.P8,EEG.T8,EEG.FC6,EEG.F4,EEG.F8,EEG.AF4,EEG.RawCq,EEG.Battery,EEG.BatteryPercent,MarkerIndex,MarkerType,MarkerValueInt,EEG.MarkerHardware,CQ.AF3,CQ.F7,CQ.F3,CQ.FC5,CQ.T7,CQ.P7,CQ.O1,CQ.O2,CQ.P8,CQ.T8,CQ.FC6,CQ.F4,CQ.F8,CQ.AF4,CQ.Overall,EQ.SampleRateQuality,EQ.OVERALL,EQ.AF3,EQ.F7,EQ.F3,EQ.FC5,EQ.T7,EQ.P7,EQ.O1,EQ.O2,EQ.P8,EQ.T8,EQ.FC6,EQ.F4,EQ.F8,EQ.AF4,MC.Action,MC.ActionPower,MC.IsActive,PM.Attention.IsActive,PM.Attention.Scaled,PM.Attention.Raw,PM.Attention.Min,PM.Attention.Max,PM.Engagement.IsActive,PM.Engagement.Scaled,PM.Engagement.Raw,PM.Engagement.Min,PM.Engagement.Max,PM.Excitement.IsActive,PM.Excitement.Scaled,PM.Excitement.Raw,PM.Excitement.Min,PM.Excitement.Max,PM.LongTermExcitement,PM.Stress.IsActive,PM.Stress.Scaled,PM.Stress.Raw,PM.Stress.Min,PM.Stress.Max,PM.Relaxation.IsActive,PM.Relaxation.Scaled,PM.Relaxation.Raw,PM.Relaxation.Min,PM.Relaxation.Max,PM.Interest.IsActive,PM.Interest.Scaled,PM.Interest.Raw,PM.Interest.Min,PM.Interest.Max,PM.Focus.IsActive,PM.Focus.Scaled,PM.Focus.Raw,PM.Focus.Min,PM.Focus.Max,FE.BlinkWink,FE.HorizontalEyesDirection,FE.UpperFaceAction,FE.UpperFaceActionPower,FE.LowerFaceAction,FE.LowerFaceActionPower,POW.AF3.Theta,POW.AF3.Alpha,POW.AF3.BetaL,POW.AF3.BetaH,POW.AF3.Gamma,POW.F7.Theta,POW.F7.Alpha,POW.F7.BetaL,POW.F7.BetaH,POW.F7.Gamma,POW.F3.Theta,POW.F3.Alpha,POW.F3.BetaL,POW.F3.BetaH,POW.F3.Gamma,POW.FC5.Theta,POW.FC5.Alpha,POW.FC5.BetaL,POW.FC5.BetaH,POW.FC5.Gamma,POW.T7.Theta,POW.T7.Alpha,POW.T7.BetaL,POW.T7.BetaH,POW.T7.Gamma,POW.P7.Theta,POW.P7.Alpha,POW.P7.BetaL,POW.P7.BetaH,POW.P7.Gamma,POW.O1.Theta,POW.O1.Alpha,POW.O1.BetaL,POW.O1.BetaH,POW.O1.Gamma,POW.O2.Theta,POW.O2.Alpha,POW.O2.BetaL,POW.O2.BetaH,POW.O2.Gamma,POW.P8.Theta,POW.P8.Alpha,POW.P8.BetaL,POW.P8.BetaH,POW.P8.Gamma,POW.T8.Theta,POW.T8.Alpha,POW.T8.BetaL,POW.T8.BetaH,POW.T8.Gamma,POW.FC6.Theta,POW.FC6.Alpha,POW.FC6.BetaL,POW.FC6.BetaH,POW.FC6.Gamma,POW.F4.Theta,POW.F4.Alpha,POW.F4.BetaL,POW.F4.BetaH,POW.F4.Gamma,POW.F8.Theta,POW.F8.Alpha,POW.F8.BetaL,POW.F8.BetaH,POW.F8.Gamma,POW.AF4.Theta,POW.AF4.Alpha,POW.AF4.BetaL,POW.AF4.BetaH,POW.AF4.Gamma
1725717276.143658,1725717276.146454,61.0,0.0,4411.282227,4283.205078,4283.589844,4351.410156,4248.205078,4156.794922,4095.128174,4263.333496,4258.846191,4260.384766,4530.128418,4556.538574,4377.179688,4442.307617,0.0,0.0,11.0,5.0,1.0,1.0,0.0,4.0,4.0,4.0,4.0,4.0,4.0,4.0,4.0,4.0,4.0,4.0,4.0,4.0,4.0,100.0,,,,,,,,,,,,,,,,,,,,,,,,,,,,,,,,,,,,,,,,,,,,,,,,,,,,,,,,,,,,,,,,,,,,,,,,,,,,,,,,,,,,,,,,,,,,,,,,,,,,,,,,,,,,,,,,,,,,,,,,,,,,,,,,,,,
1725717276.147562,1725717276.150358,62.0,0.0,4410.641113,4281.666504,4287.05127,4350.256348,4245.641113,4156.794922,4094.102539,4263.589844,4258.974121,4258.846191,4528.077148,4558.589844,4378.205078,4445.0,0.0,0.0,11.0,,,,0.0,4.0,4.0,4.0,4.0,4.0,4.0,4.0,4.0,4.0,4.0,4.0,4.0,4.0,4.0,100.0,,,,,,,,,,,,,,,,,,,,,,,,,,,,,,,,,,,,,,,,,,,,,,,,,,,,,,,,,,,,,,,,,,,,,,,,,,,,,,,,,,,,,,,,,,,,,,,,,,,,,,,,,,,,,,,,,,,,,,,,,,,,,,,,,,,
1725717276.151466,1725717276.154262,63.0,0.0,4410.0,4282.307617,4288.589844,4349.615234,4241.922852,4155.512695,4092.564209,4263.974121,4260.769043,4256.538574,4526.410156,4561.538574,4381.538574,4450.384766,0.0,0.0,11.0,,,,0.0,4.0,4.0,4.0,4.0,4.0,4.0,4.0,4.0,4.0,4.0,4.0,4.0,4.0,4.0,100.0,,,,,,,,,,,,,,,,,,,,,,,,,,,,,,,,,,,,,,,,,,,,,,,,,,,,,,,,,,,,,,,,,,,,,,,,,,,,,,,,,,,,,,,,,,,,,,,,,,,,,,,,,,,,,,,,,,,,,,,,,,,,,,,,,,,
1725717276.155371,1725717276.158166,64.0,0.0,4409.743652,4285.512695,4287.307617,4350.0,4238.589844,4153.717773,4091.281982,4265.256348,4263.333496,4255.128418,4526.282227,4566.282227,4386.922852,4456.410156,0.0,0.0,11.0,,,,0.0,4.0,4.0,4.0,4.0,4.0,4.0,4.0,4.0,4.0,4.0,4.0,4.0,4.0,4.0,100.0,,,,,,,,,,,,,,,,,,,,,,,,,,,,,,,,,,,,,,,,,,,,,,,,,,,,,,,,,,,,,,,,,,,,,,,,,,,,,,,,,,,,,,,,,,,,,,,,,,,,,,,,,,,,,,,,,,,,,,,,,,,,,,,,,,,
1725717276.159275,1725717276.16197,65.0,0.0,4410.0,4289.487305,4284.743652,4350.641113,4236.538574,4152.436035,4091.281982,4267.179688,4265.512695,4256.025879,4529.102539,4571.025879,4393.333496,4461.153809,0.0,0.0,11.0,,,,0.0,4.0,4.0,4.0,4.0,4.0,4.0,4.0,4.0,4.0,4.0,4.0,4.0,4.0,4.0,100.0,,,,,,,,,,,,,,,,,,,,,,,,,,,,,,,,,,,,,,,,,,,,,,,,,,,,,,,,,,,,,,,,,,,,,,,,,,,,,,,,,,,,,,,,,,,,,,,,,,,,,,,,,,,,,,,,,,,,,,,,,,,,,,,,,,,
1725717276.163179,1725717276.165874,66.0,0.0,4410.384766,4292.820313,4282.820313,4350.641113,4235.769043,4152.563965,4092.692383,4268.461426,4266.666504,4258.717773,4534.230957,4572.436035,4398.846191,4462.94873,0.0,0.0,11.0,,,,0.0,4.0,4.0,4.0,4.0,4.0,4.0,4.0,4.0,4.0,4.0,4.0,4.0,4.0,4.0,100.0,,,,,,,,,,,,,,,,,,,,,,,,,,,,,,,,,,,,,,,,,,,,,,,,,,,,,,,,,,,,,,,,,,,,,,,,,,,,,,,,,,,,,,,,,,,,,,,,,,,,,,,,,,,,,,,,,,,,,,,,,,,,,,,,,,,
1725717276.167083,1725717276.169778,67.0,0.0,4410.384766,4294.615234,4282.692383,4349.487305,4235.769043,4153.846191,4094.743652,4268.205078,4266.153809,4261.025879,4538.461426,4568.846191,4402.05127,4462.179688,0.0,0.0,11.0,,,,0.0,4.0,4.0,4.0,4.0,4.0,4.0,4.0,4.0,4.0,4.0,4.0,4.0,4.0,4.0,100.0,,,,,,,,,,,,,,,,,,,,,,,,,,,,,,,,,,,,,,,,,,,,,,,,,,,,,,,,,,,,,,,,,,,,,,,,,,,,,,,,,,,,,,,,,,,,,,,,,,,,,,,,,,,,,,,,,,,,,,,,,,,,,,,,,,,
1725717276.170987,1725717276.173682,68.0,0.0,4409.615234,4295.384766,4283.461426,4347.94873,4236.282227,4155.512695,4096.538574,4266.922852,4264.871582,4261.282227,4539.230957,4561.794922,4402.307617,4460.0,0.0,0.0,11.0,,,,0.0,4.0,4.0,4.0,4.0,4.0,4.0,4.0,4.0,4.0,4.0,4.0,4.0,4.0,4.0,100.0,,,,,,,,,,,,,,,,,,,,,,,,,,,,,,,,,,,,,,,,,,,,,,,,,,,,,,,,0.0,0.0,64.0,0.002161,1.0,0.0,,,,,,,,,,,,,,,,,,,,,,,,,,,,,,,,,,,,,,,,,,,,,,,,,,,,,,,,,,,,,,,,,,,,,,
1725717276.174891,1725717276.177587,69.0,0.0,4408.461426,4296.153809,4283.589844,4347.820313,4236.922852,4156.410156,4097.563965,4265.384766,4263.717773,4260.256348,4536.922852,4555.641113,4400.512695,4457.94873,0.0,0.0,11.0,,,,0.0,4.0,4.0,4.0,4.0,4.0,4.0,4.0,4.0,4.0,4.0,4.0,4.0,4.0,4.0,100.0,,,,,,,,,,,,,,,,,,,,,,,,,,,,,,,,,,,,,,,,,,,,,,,,,,,,,,,,,,,,,,,,,,,,,,,,,,,,,,,,,,,,,,,,,,,,,,,,,,,,,,,,,,,,,,,,,,,,,,,,,,,,,,,,,,,
1725717276.178795,1725717276.181391,70.0,0.0,4408.205078,4296.410156,4282.563965,4349.615234,4237.692383,4155.256348,4098.589844,4264.871582,4263.461426,4259.743652,4534.871582,4554.615234,4398.333496,4456.922852,0.0,0.0,11.0,,,,0.0,4.0,4.0,4.0,4.0,4.0,4.0,4.0,4.0,4.0,4.0,4.0,4.0,4.0,4.0,100.0,,,,,,,,,,,,,,,,,,,,,,,,,,,,,,,,,,,,,,,,,,,,,,,,,,,,,,,,,,,,,,,,,,,,,,,,,,,,,,,,,,,,,,,,,,,,,,,,,,,,,,,,,,,,,,,,,,,,,,,,,,,,,,,,,,,
1725717276.182699,1725717276.185295,71.0,0.0,4409.102539,4294.871582,4281.794922,4352.820313,4238.077148,4152.179688,4099.871582,4266.666504,4264.615234,4261.025879,4535.128418,4559.358887,4396.794922,4457.436035,0.0,0.0,11.0,,,,0.0,4.0,4.0,4.0,4.0,4.0,4.0,4.0,4.0,4.0,4.0,4.0,4.0,4.0,4.0,100.0,,,,,,,,,,,,,,,,,,,,,,,,,,,,,,,,,,,,,,,,,,,,,,,,,,,,,,,,,,,,,,,,,,,,,,,,,,,,,,,,,,,,,,,,,,,,,,,,,,,,,,,,,,,,,,,,,,,,,,,,,,,,,,,,,,,
1725717276.186603,1725717276.189199,72.0,0.0,4410.897461,4290.384766,4282.820313,4355.769043,4238.846191,4149.358887,4101.538574,4271.153809,4266.794922,4263.846191,4536.666504,4567.563965,4396.025879,4459.230957,0.0,0.0,11.0,,,,0.0,4.0,4.0,4.0,4.0,4.0,4.0,4.0,4.0,4.0,4.0,4.0,4.0,4.0,4.0,100.0,,,,,,,,,,,,,,,,,,,,,,,,,,,,,,,,,,,,,,,,,,,,,,,,,,,,,,,,,,,,,,,,,,,,,,,,,,,,,,,,,,,,,,,,,,,,,,,,,,,,,,,,,,,,,,,,,,,,,,,,,,,,,,,,,,,
1725717276.190508,1725717276.193003,73.0,0.0,4412.692383,4284.358887,4286.410156,4357.692383,4240.641113,4149.871582,4103.205078,4276.410156,4268.717773,4266.410156,4536.666504,4574.358887,4396.153809,4461.410156,0.0,0.0,11.0,,,,0.0,4.0,4.0,4.0,4.0,4.0,4.0,4.0,4.0,4.0,4.0,4.0,4.0,4.0,4.0,100.0,,,,,,,,,,,,,,,,,,,,,,,,,,,,,,,,,,,,,,,,,,,,,,,,,,,,,,,,,,,,,,,,,,,,,,,,,,,,,,,,,,,,,,,,,,,,,,,,,,,,,,,,,,,,,,,,,,,,,,,,,,,,,,,,,,,
1725717276.194412,1725717276.196907,74.0,0.0,4413.974121,4279.487305,4291.282227,4358.461426,4243.461426,4155.0,4104.871582,4279.487305,4269.743652,4266.922852,4533.846191,4576.666504,4397.307617,4462.820313,0.0,0.0,11.0,,,,0.0,4.0,4.0,4.0,4.0,4.0,4.0,4.0,4.0,4.0,4.0,4.0,4.0,4.0,4.0,100.0,,,,,,,,,,,,,,,,,,,,,,,,,,,,,,,,,,,,,,,,,,,,,,,,,,,,,,,,,,,,,,,,,,,,,,,,,,,,,,,,,,,,,,,,,,,,,,,,,,,,,,,,,,,,,,,,,,,,,,,,,,,,,,,,,,,
1725717276.198316,1725717276.200811,75.0,0.0,4413.974121,4277.563965,4295.384766,4358.717773,4245.769043,4162.307617,4106.794922,4278.717773,4269.358887,4265.128418,4530.0,4574.487305,4399.102539,4463.077148,0.0,0.0,11.0,,,,0.0,4.0,4.0,4.0,4.0,4.0,4.0,4.0,4.0,4.0,4.0,4.0,4.0,4.0,4.0,100.0,,,,,,,,,,,,,,,,,,,,,,,,,,,,,,,,,,,,,,,,,,,,,,,,,,,,,,,,,,,,,,,,,,,,,,,,,,,,,,,,,,,,,,,,,,,,,,,,,,,,,,,,,,,,,,,,,,,,,,,,,,,,,,,,,,,
1725717276.20222,1725717276.204815,76.0,0.0,4412.94873,4277.563965,4296.666504,4359.102539,4246.282227,4167.179688,4108.974121,4275.0,4267.94873,4262.692383,4528.205078,4570.256348,4399.743652,4462.05127,0.0,0.0,11.0,,,,0.0,4.0,4.0,4.0,4.0,4.0,4.0,4.0,4.0,4.0,4.0,4.0,4.0,4.0,4.0,100.0,,,,,,,,,,,,,,,,,,,,,,,,,,,,,,,,,,,,,,,,,,,,,,,,,,,,,,,,0.0,0.0,64.0,0.002161,1.0,0.0,,,,,,,,,,,,,,,,,,,,,,,,,,,,,,,,,,,,,,,,,,,,,,,,,,,,,,,,,,,,,,,,,,,,,,
1725717276.206124,1725717276.20872,77.0,0.0,4411.282227,4276.922852,4294.615234,4359.487305,4244.230957,4166.922852,4111.025879,4271.025879,4266.153809,4261.666504,4531.153809,4566.666504,4398.333496,4459.871582,0.0,0.0,11.0,,,,0.0,4.0,4.0,4.0,4.0,4.0,4.0,4.0,4.0,4.0,4.0,4.0,4.0,4.0,4.0,100.0,,,,,,,,,,,,,,,,,,,,,,,,,,,,,,,,,,,,,,,,,,,,,,,,,,,,,,,,,,,,,,,,,,,,,,,,,,,,,,,,,,,,,,,,,,,,,,,,,,,,,,,,,,,,,,,,,,,,,,,,,,,,,,,,,,,
1725717276.210028,1725717276.212624,78.0,0.0,4409.871582,4274.230957,4290.897461,4359.230957,4241.025879,4162.94873,4112.563965,4269.358887,4264.615234,4262.436035,4537.820313,4564.871582,4395.0,4456.410156,0.0,0.0,11.0,,,,0.0,4.0,4.0,4.0,4.0,4.0,4.0,4.0,4.0,4.0,4.0,4.0,4.0,4.0,4.0,100.0,,,,,,,,,,,,,,,,,,,,,,,,,,,,,,,,,,,,,,,,,,,,,,,,,,,,,,,,,,,,,,,,,,,,,,,,,,,,,,,,,,,,,,,,,,,,,,,,,,,,,,,,,,,,,,,,,,,,,,,,,,,,,,,,,,,
1725717276.213932,1725717276.216528,79.0,0.0,4409.358887,4270.512695,4287.94873,4358.333496,4238.974121,4159.487305,4113.589844,4270.256348,4263.974121,4263.846191,4544.230957,4563.974121,4391.282227,4452.179688,0.0,0.0,11.0,,,,0.0,4.0,4.0,4.0,4.0,4.0,4.0,4.0,4.0,4.0,4.0,4.0,4.0,4.0,4.0,100.0,,,,,,,,,,,,,,,,,,,,,,,,,,,,,,,,,,,,,,,,,,,,,,,,,,,,,,,,,,,,,,,,,,,,,,,,,,,,,,,,,,,,,,,,,,,,,,,,,,,,,,,,,,,,,,,,,,,,,,,,,,,,,,,,,,,
1725717276.217836,1725717276.220532,80.0,0.0,4410.128418,4268.461426,4287.692383,4357.820313,4239.358887,4159.615234,4114.230957,4271.794922,4264.230957,4263.461426,4545.769043,4562.436035,4389.102539,4448.205078,0.0,0.0,11.0,,,,0.0,4.0,4.0,4.0,4.0,4.0,4.0,4.0,4.0,4.0,4.0,4.0,4.0,4.0,4.0,100.0,,,,,,,,,,,,,,,,,,,,,,,,,,,,,,,,,,,,,,,,,,,,,,,,,,,,,,,,,,,,,,,,,,,,,,,,,,,,,,,,,,,,,,,,,,,,,,,,,,,,,,,,,,,,,,,,,,,,,,,,,,,,,,,,,,,
1725717276.22174,1725717276.224436,81.0,0.0,4411.666504,4269.358887,4290.0,4358.717773,4242.179688,4163.333496,4114.358887,4271.666504,4265.128418,4260.512695,4540.384766,4560.0,4389.102539,4445.512695,0.0,0.0,11.0,,,,0.0,4.0,4.0,4.0,4.0,4.0,4.0,4.0,4.0,4.0,4.0,4.0,4.0,4.0,4.0,100.0,,,,,,,,,,,,,,,,,,,,,,,,,,,,,,,,,,,,,,,,,,,,,,,,,,,,,,,,,,,,,,,,,,,,,,,,,,,,,,,,,,,,,,,,,,,,,,,,,,,,,,,,,,,,,,,,,,,,,,,,,,,,,,,,,,,
1725717276.225644,1725717276.22834,82.0,0.0,4413.077148,4272.820313,4292.692383,4361.282227,4245.897461,4167.563965,4113.717773,4269.102539,4265.641113,4256.538574,4531.153809,4558.077148,4390.641113,4445.0,0.0,0.0,11.0,,,,0.0,4.0,4.0,4.0,4.0,4.0,4.0,4.0,4.0,4.0,4.0,4.0,4.0,4.0,4.0,100.0,,,,,,,,,,,,,,,,,,,,,,,,,,,,,,,,,,,,,,,,,,,,,,,,,,,,,,,,,,,,,,,,,,,,,,,,,,,,,,,,,,,,,,,,,,,,,,,,,,,,,,,,,,,,,,,,,,,,,,,,,,,,,,,,,,,
1725717276.229548,1725717276.232244,83.0,0.0,4413.333496,4275.897461,4293.333496,4364.487305,4248.461426,4168.333496,4112.563965,4265.769043,4265.512695,4254.615234,4523.589844,4558.205078,4391.794922,4446.410156,0.0,0.0,11.0,,,,0.0,4.0,4.0,4.0,4.0,4.0,4.0,4.0,4.0,4.0,4.0,4.0,4.0,4.0,4.0,100.0,,,,,,,,,,,,,,,,,,,,,,,,,,,,,,,,,,,,,,,,,,,,,,,,,,,,,,,,,,,,,,,,,,,,,,,,,,,,,,,,,,,,,,,,,,,,,,,,,,,,,,,,,,,,,,,,,,,,,,,,,,,,,,,,,,,
1725717276.233452,1725717276.236248,84.0,0.0,4412.307617,4276.153809,4290.769043,4366.666504,4248.717773,4164.230957,4111.282227,4263.974121,4265.128418,4255.897461,4521.922852,4560.128418,4391.922852,4449.358887,0.0,0.0,11.0,,,,0.0,4.0,4.0,4.0,4.0,4.0,4.0,4.0,4.0,4.0,4.0,4.0,4.0,4.0,4.0,100.0,,,,,,,,,,,,,,,,,1.0,0.0,0.0,,,,,,,,,,,,,,,,,,,,,,,,,,,,,,,,,,,,,0.0,0.0,1.0,0.0,1.0,0.0,1.444128,1.518089,0.330426,0.134586,0.065315,4.151345,2.056347,1.186333,0.482042,0.205942,1.374635,1.493374,0.381238,0.108625,0.071928,1.445308,1.045076,0.302645,0.124353,0.115585,0.501859,0.659961,0.283259,0.1084,0.067435,0.619014,0.757968,0.380828,0.114749,0.089257,8.814072,0.999473,0.588663,0.176715,0.093077,0.409834,3.974545,0.881545,0.417692,0.181944,1.079302,1.503706,0.544175,0.196248,0.113669,1.338134,1.214808,0.60241,0.168547,0.232913,2.932891,2.827831,0.524612,0.468548,0.538042,2.562616,3.388502,0.827716,0.309938,0.332174,2.303236,1.941804,0.764869,0.236056,0.149029,2.011786,2.331483,0.573888,0.200097,0.17605
1725717276.237357,1725717276.240152,85.0,0.0,4410.641113,4273.589844,4286.794922,4366.410156,4246.922852,4157.436035,4110.128418,4264.743652,4264.871582,4258.717773,4526.666504,4561.922852,4391.666504,4452.563965,0.0,0.0,11.0,,,,0.0,4.0,4.0,4.0,4.0,4.0,4.0,4.0,4.0,4.0,4.0,4.0,4.0,4.0,4.0,100.0,,,,,,,,,,,,,,,,,,,,,,,,,,,,,,,,,,,,,,,,,,,,,,,,,,,,,,,,,,,,,,,,,,,,,,,,,,,,,,,,,,,,,,,,,,,,,,,,,,,,,,,,,,,,,,,,,,,,,,,,,,,,,,,,,,,
1725717276.241261,1725717276.244056,86.0,0.0,4409.358887,4270.769043,4283.974121,4363.333496,4244.487305,4152.179688,4109.358887,4266.794922,4264.871582,4259.358887,4534.358887,4561.666504,4392.179688,4455.384766,0.0,0.0,11.0,,,,0.0,4.0,4.0,4.0,4.0,4.0,4.0,4.0,4.0,4.0,4.0,4.0,4.0,4.0,4.0,100.0,,,,,,,,,,,,,,,,,,,,,,,,,,,,,,,,,,,,,,,,,,,,,,,,,,,,,,,,,,,,,,,,,,,,,,,,,,,,,,,,,,,,,,,,,,,,,,,,,,,,,,,,,,,,,,,,,,,,,,,,,,,,,,,,,,,
1725717276.245165,1725717276.24806,87.0,0.0,4408.974121,4270.384766,4284.230957,4358.974121,4243.589844,4151.922852,4109.487305,4268.077148,4264.871582,4256.153809,4540.384766,4559.615234,4393.974121,4457.563965,0.0,0.0,11.0,,,,0.0,4.0,4.0,4.0,4.0,4.0,4.0,4.0,4.0,4.0,4.0,4.0,4.0,4.0,4.0,100.0,,,,,,,,,,,,,,,,,,,,,,,,,,,,,,,,,,,,,,,,,,,,,,,,,,,,,,,,,,,,,,,,,,,,,,,,,,,,,,,,,,,,,,,,,,,,,,,,,,,,,,,,,,,,,,,,,,,,,,,,,,,,,,,,,,,
1725717276.249069,1725717276.251964,88.0,0.0,4409.358887,4272.05127,4287.563965,4355.769043,4244.871582,4156.666504,4111.153809,4267.820313,4264.615234,4251.025879,4542.05127,4557.05127,4396.410156,4458.974121,0.0,0.0,11.0,,,,0.0,4.0,4.0,4.0,4.0,4.0,4.0,4.0,4.0,4.0,4.0,4.0,4.0,4.0,4.0,100.0,,,,,,,,,,,,,,,,,,,,,,,,,,,,,,,,,,,,,,,,,,,,,,,,,,,,,,,,,,,,,,,,,,,,,,,,,,,,,,,,,,,,,,,,,,,,,,,,,,,,,,,,,,,,,,,,,,,,,,,,,,,,,,,,,,,
1725717276.252973,1725717276.255868,89.0,0.0,4410.128418,4273.717773,4291.282227,4355.512695,4247.05127,4162.820313,4114.102539,4266.282227,4264.487305,4247.820313,4539.358887,4555.384766,4398.077148,4458.974121,0.0,0.0,11.0,,,,0.0,4.0,4.0,4.0,4.0,4.0,4.0,4.0,4.0,4.0,4.0,4.0,4.0,4.0,4.0,100.0,,,,,,,,,,,,,,,,,,,,,,,,,,,,,,,,,,,,,,,,,,,,,,,,,,,,,,,,,,,,,,,,,,,,,,,,,,,,,,,,,,,,,,,,,,,,,,,,,,,,,,,,,,,,,,,,,,,,,,,,,,,,,,,,,,,
1725717276.256877,1725717276.259773,90.0,0.0,4410.0,4273.589844,4291.666504,4357.820313,4248.589844,4166.153809,4117.820313,4264.871582,4264.615234,4248.974121,4533.333496,4555.0,4397.94873,4456.922852,0.0,0.0,11.0,,,,0.0,4.0,4.0,4.0,4.0,4.0,4.0,4.0,4.0,4.0,4.0,4.0,4.0,4.0,4.0,100.0,,,,,,,,,,,,,,,,,,,,,,,,,,,,,,,,,,,,,,,,,,,,,,,,,,,,,,,,,,,,,,,,,,,,,,,,,,,,,,,,,,,,,,,,,,,,,,,,,,,,,,,,,,,,,,,,,,,,,,,,,,,,,,,,,,,
1725717276.260781,1725717276.263677,91.0,0.0,4407.820313,4271.794922,4287.820313,4361.410156,4248.461426,4165.256348,4120.641113,4264.615234,4264.743652,4253.717773,4526.282227,4555.512695,4395.897461,4452.820313,0.0,0.0,11.0,,,,0.0,4.0,4.0,4.0,4.0,4.0,4.0,4.0,4.0,4.0,4.0,4.0,4.0,4.0,4.0,100.0,,,,,,,,,,,,,,,,,,,,,,,,,,,,,,,,,,,,,,,,,,,,,,,,,,,,,,,,,,,,,,,,,,,,,,,,,,,,,,,,,,,,,,,,,,,,,,,,,,,,,,,,,,,,,,,,,,,,,,,,,,,,,,,,,,,
1725717276.264685,1725717276.267481,92.0,0.0,4404.358887,4270.512695,4281.794922,4364.358887,4247.307617,4162.05127,4121.153809,4265.769043,4264.615234,4258.974121,4521.153809,4556.538574,4393.205078,4448.333496,0.0,0.0,11.0,,,,0.0,4.0,4.0,4.0,4.0,4.0,4.0,4.0,4.0,4.0,4.0,4.0,4.0,4.0,4.0,100.0,,,,,,,,,,,,,,,,,,,,,,,,,,,,,,,,,,,,,,,,,,,,,,,,,,,,,,,,0.0,0.0,1.0,0.0,1.0,0.0,,,,,,,,,,,,,,,,,,,,,,,,,,,,,,,,,,,,,,,,,,,,,,,,,,,,,,,,,,,,,,,,,,,,,,
1725717276.268589,1725717276.271385,93.0,0.0,4401.922852,4271.922852,4277.94873,4365.897461,4246.538574,4159.615234,4119.615234,4267.307617,4263.974121,4261.666504,4521.282227,4556.922852,4391.794922,4446.153809,0.0,0.0,11.0,,,,0.0,4.0,4.0,4.0,4.0,4.0,4.0,4.0,4.0,4.0,4.0,4.0,4.0,4.0,4.0,100.0,,,,,,,,,,,,,,,,,,,,,,,,,,,,,,,,,,,,,,,,,,,,,,,,,,,,,,,,,,,,,,,,,,,,,,,,,,,,,,,,,,,,,,,,,,,,,,,,,,,,,,,,,,,,,,,,,,,,,,,,,,,,,,,,,,,
1725717276.272493,1725717276.275289,94.0,0.0,4402.563965,4276.025879,4278.589844,4366.282227,4246.794922,4159.358887,4117.05127,4268.205078,4262.94873,4261.282227,4526.794922,4556.153809,4392.94873,4448.333496,0.0,0.0,11.0,,,,0.0,4.0,4.0,4.0,4.0,4.0,4.0,4.0,4.0,4.0,4.0,4.0,4.0,4.0,4.0,100.0,,,,,,,,,,,,,,,,,,,,,,,,,,,,,,,,,,,,,,,,,,,,,,,,,,,,,,,,,,,,,,,,,,,,,,,,,,,,,,,,,,,,,,,,,,,,,,,,,,,,,,,,,,,,,,,,,,,,,,,,,,,,,,,,,,,
1725717276.276398,1725717276.279193,95.0,0.0,4405.641113,4280.897461,4282.563965,4366.282227,4247.692383,4161.025879,4114.871582,4268.077148,4261.666504,4258.846191,4534.230957,4554.743652,4395.384766,4453.846191,0.0,0.0,11.0,,,,0.0,4.0,4.0,4.0,4.0,4.0,4.0,4.0,4.0,4.0,4.0,4.0,4.0,4.0,4.0,100.0,,,,,,,,,,,,,,,,,,,,,,,,,,,,,,,,,,,,,,,,,,,,,,,,,,,,,,,,,,,,,,,,,,,,,,,,,,,,,,,,,,,,,,,,,,,,,,,,,,,,,,,,,,,,,,,,,,,,,,,,,,,,,,,,,,,
1725717276.280302,1725717276.282997,96.0,0.0,4408.846191,4283.333496,4286.538574,4366.282227,4248.333496,4163.461426,4113.717773,4267.820313,4260.128418,4256.794922,4538.717773,4554.615234,4396.538574,4459.102539,0.0,0.0,11.0,,,,0.0,4.0,4.0,4.0,4.0,4.0,4.0,4.0,4.0,4.0,4.0,4.0,4.0,4.0,4.0,100.0,,,,,,,,,,,,,,,,,,,,,,,,,,,,,,,,,,,,,,,,,,,,,,,,,,,,,,,,,,,,,,,,,,,,,,,,,,,,,,,,,,,,,,,,,,,,,,,,,,,,,,,,,,,,,,,,,,,,,,,,,,,,,,,,,,,
1725717276.284206,1725717276.286902,97.0,0.0,4409.615234,4281.794922,4287.94873,4366.282227,4248.077148,4165.641113,4113.333496,4268.205078,4258.974121,4255.384766,4537.692383,4556.794922,4395.0,4460.769043,0.0,0.0,11.0,,,,0.0,4.0,4.0,4.0,4.0,4.0,4.0,4.0,4.0,4.0,4.0,4.0,4.0,4.0,4.0,100.0,,,,,,,,,,,,,,,,,,,,,,,,,,,,,,,,,,,,,,,,,,,,,,,,,,,,,,,,,,,,,,,,,,,,,,,,,,,,,,,,,,,,,,,,,,,,,,,,,,,,,,,,,,,,,,,,,,,,,,,,,,,,,,,,,,,
1725717276.28811,1725717276.290806,98.0,0.0,4407.563965,4276.410156,4286.666504,4366.153809,4246.666504,4166.794922,4112.94873,4269.487305,4258.717773,4253.589844,4531.922852,4560.641113,4391.282227,4458.077148,0.0,0.0,11.0,,,,0.0,4.0,4.0,4.0,4.0,4.0,4.0,4.0,4.0,4.0,4.0,4.0,4.0,4.0,4.0,100.0,,,,,,,,,,,,,,,,,,,,,,,,,,,,,,,,,,,,,,,,,,,,,,,,,,,,,,,,,,,,,,,,,,,,,,,,,,,,,,,,,,,,,,,,,,,,,,,,,,,,,,,,,,,,,,,,,,,,,,,,,,,,,,,,,,,
1725717276.292014,1725717276.29471,99.0,0.0,4404.615234,4270.256348,4284.743652,4366.410156,4245.128418,4166.794922,4112.436035,4272.179688,4260.0,4250.641113,4525.512695,4563.974121,4387.307617,4453.589844,0.0,0.0,11.0,,,,0.0,4.0,4.0,4.0,4.0,4.0,4.0,4.0,4.0,4.0,4.0,4.0,4.0,4.0,4.0,100.0,,,,,,,,,,,,,,,,,,,,,,,,,,,,,,,,,,,,,,,,,,,,,,,,,,,,,,,,,,,,,,,,,,,,,,,,,,,,,,,,,,,,,,,,,,,,,,,,,,,,,,,,,,,,,,,,,,,,,,,,,,,,,,,,,,,
1725717276.295918,1725717276.298514,100.0,0.0,4403.461426,4267.563965,4284.871582,4367.820313,4244.230957,4166.282227,4112.05127,4275.641113,4262.05127,4248.077148,4522.436035,4564.743652,4385.512695,4451.153809,0.0,0.0,11.0,,,,0.0,4.0,4.0,4.0,4.0,4.0,4.0,4.0,4.0,4.0,4.0,4.0,4.0,4.0,4.0,100.0,,,,,,,,,,,,,,,,,,,,,,,,,,,,,,,,,,,,,,,,,,,,,,,,,,,,,,,,0.0,0.0,1.0,0.0,1.0,0.0,,,,,,,,,,,,,,,,,,,,,,,,,,,,,,,,,,,,,,,,,,,,,,,,,,,,,,,,,,,,,,,,,,,,,,
1725717276.299822,1725717276.302418,101.0,0.0,4405.384766,4271.153809,4287.436035,4370.256348,4245.0,4166.025879,4112.436035,4278.717773,4263.717773,4248.333496,4524.871582,4562.94873,4387.563965,4452.820313,0.0,0.0,11.0,,,,0.0,4.0,4.0,4.0,4.0,4.0,4.0,4.0,4.0,4.0,4.0,4.0,4.0,4.0,4.0,100.0,,,,,,,,,,,,,,,,,,,,,,,,,,,,,,,,,,,,,,,,,,,,,,,,,,,,,,,,,,,,,,,,,,,,,,,,,,,,,,,,,,,,,,,,,,,,,,,,,,,,,,,,,,,,,,,,,,,,,,,,,,,,,,,,,,,
1725717276.303726,1725717276.306322,102.0,0.0,4409.743652,4279.615234,4291.025879,4372.692383,4246.794922,4166.410156,4113.846191,4280.384766,4263.717773,4251.666504,4530.769043,4560.384766,4392.563965,4457.179688,0.0,0.0,11.0,,,,0.0,4.0,4.0,4.0,4.0,4.0,4.0,4.0,4.0,4.0,4.0,4.0,4.0,4.0,4.0,100.0,,,,,,,,,,,,,,,,,,,,,,,,,,,,,,,,,,,,,,,,,,,,,,,,,,,,,,,,,,,,,,,,,,,,,,,,,,,,,,,,,,,,,,,,,,,,,,,,,,,,,,,,,,,,,,,,,,,,,,,,,,,,,,,,,,,
1725717276.30763,1725717276.310326,103.0,0.0,4414.102539,4288.333496,4293.589844,4374.102539,4248.205078,4166.922852,4115.128418,4280.512695,4262.179688,4255.769043,4536.282227,4559.358887,4397.563965,4460.897461,0.0,0.0,11.0,,,,0.0,4.0,4.0,4.0,4.0,4.0,4.0,4.0,4.0,4.0,4.0,4.0,4.0,4.0,4.0,100.0,,,,,,,,,,,,,,,,,,,,,,,,,,,,,,,,,,,,,,,,,,,,,,,,,,,,,,,,,,,,,,,,,,,,,,,,,,,,,,,,,,,,,,,,,,,,,,,,,,,,,,,,,,,,,,,,,,,,,,,,,,,,,,,,,,,
1725717276.311535,1725717276.31423,104.0,0.0,4416.153809,4292.692383,4293.974121,4374.487305,4247.692383,4166.794922,4115.512695,4280.0,4260.512695,4258.333496,4538.846191,4561.538574,4399.615234,4461.794922,0.0,0.0,11.0,,,,0.0,4.0,4.0,4.0,4.0,4.0,4.0,4.0,4.0,4.0,4.0,4.0,4.0,4.0,4.0,100.0,,,,,,,,,,,,,,,,,,,,,,,,,,,,,,,,,,,,,,,,,,,,,,,,,,,,,,,,,,,,,,,,,,,,,,,,,,,,,,,,,,,,,,,,,,,,,,,,,,,,,,,,,,,,,,,,,,,,,,,,,,,,,,,,,,,
1725717276.315439,1725717276.318134,105.0,0.0,4415.641113,4291.153809,4293.333496,4374.615234,4245.897461,4166.153809,4114.230957,4280.0,4260.384766,4259.230957,4538.974121,4566.794922,4398.589844,4460.512695,0.0,0.0,11.0,,,,0.0,4.0,4.0,4.0,4.0,4.0,4.0,4.0,4.0,4.0,4.0,4.0,4.0,4.0,4.0,100.0,,,,,,,,,,,,,,,,,,,,,,,,,,,,,,,,,,,,,,,,,,,,,,,,,,,,,,,,,,,,,,,,,,,,,,,,,,,,,,,,,,,,,,,,,,,,,,,,,,,,,,,,,,,,,,,,,,,,,,,,,,,,,,,,,,,
1725717276.319343,1725717276.322138,106.0,0.0,4414.102539,4286.153809,4293.333496,4375.256348,4243.974121,4166.153809,4112.179688,4281.153809,4262.436035,4259.615234,4538.589844,4572.692383,4396.538574,4459.615234,0.0,0.0,11.0,,,,0.0,4.0,4.0,4.0,4.0,4.0,4.0,4.0,4.0,4.0,4.0,4.0,4.0,4.0,4.0,100.0,,,,,,,,,,,,,,,,,,,,,,,,,,,,,,,,,,,,,,,,,,,,,,,,,,,,,,,,,,,,,,,,,,,,,,,,,,,,,,,,,,,,,,,,,,,,,,,,,,,,,,,,,,,,,,,,,,,,,,,,,,,,,,,,,,,
1725717276.323247,1725717276.326042,107.0,0.0,4413.077148,4281.666504,4294.615234,4376.794922,4243.077148,4166.794922,4110.0,4282.436035,4265.897461,4260.512695,4539.358887,4576.282227,4395.256348,4460.256348,0.0,0.0,11.0,,,,0.0,4.0,4.0,4.0,4.0,4.0,4.0,4.0,4.0,4.0,4.0,4.0,4.0,4.0,4.0,100.0,,,,,,,,,,,,,,,,,,,,,,,,,,,,,,,,,,,,,,,,,,,,,,,,,,,,,,,,,,,,,,,,,,,,,,,,,,,,,,,,,,,,,,,,,,,,,,,,,,,,,,,,,,,,,,,,,,,,,,,,,,,,,,,,,,,
1725717276.327151,1725717276.329947,108.0,0.0,4412.94873,4280.0,4296.410156,4378.333496,4242.820313,4167.307617,4108.461426,4282.563965,4268.974121,4261.025879,4540.769043,4576.025879,4395.128418,4462.05127,0.0,0.0,11.0,,,,0.0,4.0,4.0,4.0,4.0,4.0,4.0,4.0,4.0,4.0,4.0,4.0,4.0,4.0,4.0,100.0,,,,,,,,,,,,,,,,,,,,,,,,,,,,,,,,,,,,,,,,,,,,,,,,,,,,,,,,0.0,0.0,1.0,0.0,1.0,0.0,,,,,,,,,,,,,,,,,,,,,,,,,,,,,,,,,,,,,,,,,,,,,,,,,,,,,,,,,,,,,,,,,,,,,,
1725717276.331055,1725717276.333851,109.0,0.0,4413.077148,4280.897461,4296.922852,4378.717773,4242.179688,4166.538574,4107.307617,4280.769043,4269.487305,4258.974121,4541.282227,4572.179688,4394.487305,4462.820313,0.0,0.0,11.0,,,,0.0,4.0,4.0,4.0,4.0,4.0,4.0,4.0,4.0,4.0,4.0,4.0,4.0,4.0,4.0,100.0,,,,,,,,,,,,,,,,,,,,,,,,,,,,,,,,,,,,,,,,,,,,,,,,,,,,,,,,,,,,,,,,,,,,,,,,,,,,,,,,,,,,,,,,,,,,,,,,,,,,,,,,,,,,,,,,,,,,,,,,,,,,,,,,,,,
1725717276.334959,1725717276.337755,110.0,0.0,4412.307617,4282.179688,4295.128418,4376.666504,4240.512695,4163.846191,4105.512695,4277.692383,4266.410156,4253.846191,4539.230957,4566.922852,4392.05127,4461.410156,0.0,0.0,11.0,,,,0.0,4.0,4.0,4.0,4.0,4.0,4.0,4.0,4.0,4.0,4.0,4.0,4.0,4.0,4.0,100.0,,,,,,,,,,,,,,,,,,,,,,,,,,,,,,,,,,,,,,,,,,,,,,,,,,,,,,,,,,,,,,,,,,,,,,,,,,,,,,,,,,,,,,,,,,,,,,,,,,,,,,,,,,,,,,,,,,,,,,,,,,,,,,,,,,,
1725717276.338863,1725717276.341559,111.0,0.0,4410.769043,4281.666504,4292.307617,4373.205078,4238.077148,4161.025879,4102.563965,4275.384766,4261.794922,4247.692383,4535.897461,4563.333496,4388.717773,4458.717773,0.0,0.0,11.0,,,,0.0,4.0,4.0,4.0,4.0,4.0,4.0,4.0,4.0,4.0,4.0,4.0,4.0,4.0,4.0,100.0,,,,,,,,,,,,,,,,,,,,,,,,,,,,,,,,,,,,,,,,,,,,,,,,,,,,,,,,,,,,,,,,,,,,,,,,,,,,,,,,,,,,,,,,,,,,,,,,,,,,,,,,,,,,,,,,,,,,,,,,,,,,,,,,,,,
1725717276.342767,1725717276.345463,112.0,0.0,4410.0,4280.0,4290.512695,4370.641113,4235.641113,4159.743652,4098.974121,4275.128418,4259.487305,4244.230957,4533.846191,4563.333496,4387.05127,4456.410156,0.0,0.0,11.0,,,,0.0,4.0,4.0,4.0,4.0,4.0,4.0,4.0,4.0,4.0,4.0,4.0,4.0,4.0,4.0,100.0,,,,,,,,,,,,,,,,,,,,,,,,,,,,,,,,,,,,,,,,,,,,,,,,,,,,,,,,,,,,,,,,,,,,,,,,,,,,,,,,,,,,,,,,,,,,,,,,,,,,,,,,,,,,,,,,,,,,,,,,,,,,,,,,,,,
1725717276.346671,1725717276.349367,113.0,0.0,4410.897461,4278.974121,4291.153809,4371.025879,4234.615234,4161.025879,4096.410156,4277.179688,4262.179688,4245.256348,4534.615234,4566.538574,4388.974121,4456.025879,0.0,0.0,11.0,,,,0.0,4.0,4.0,4.0,4.0,4.0,4.0,4.0,4.0,4.0,4.0,4.0,4.0,4.0,4.0,100.0,,,,,,,,,,,,,,,,,,,,,,,,,,,,,,,,,,,,,,,,,,,,,,,,,,,,,,,,,,,,,,,,,,,,,,,,,,,,,,,,,,,,,,,,,,,,,,,,,,,,,,,,,,,,,,,,,,,,,,,,,,,,,,,,,,,
1725717276.350576,1725717276.353371,114.0,0.0,4412.820313,4280.0,4292.94873,4373.974121,4234.871582,4163.333496,4095.384521,4280.256348,4269.230957,4249.358887,4536.922852,4570.384766,4393.589844,4457.563965,0.0,0.0,11.0,,,,0.0,4.0,4.0,4.0,4.0,4.0,4.0,4.0,4.0,4.0,4.0,4.0,4.0,4.0,4.0,100.0,,,,,,,,,,,,,,,,,,,,,,,,,,,,,,,,,,,,,,,,,,,,,,,,,,,,,,,,,,,,,,,,,,,,,,,,,,,,,,,,,,,,,,,,,,,,,,,,,,,,,,,,,,,,,,,,,,,,,,,,,,,,,,,,,,,
1725717276.35448,1725717276.357275,115.0,0.0,4412.820313,4281.794922,4293.589844,4376.410156,4235.384766,4163.589844,4094.615479,4282.563965,4276.153809,4252.820313,4537.436035,4571.410156,4398.077148,4459.615234,0.0,0.0,11.0,,,,0.0,4.0,4.0,4.0,4.0,4.0,4.0,4.0,4.0,4.0,4.0,4.0,4.0,4.0,4.0,100.0,,,,,,,,,,,,,,,,,,,,,,,,,,,,,,,,,,,,,,,,,,,,,,,,,,,,,,,,,,,,,,,,,,,,,,,,,,,,,,,,,,,,,,,,,,,,,,,,,,,,,,,,,,,,,,,,,,,,,,,,,,,,,,,,,,,
1725717276.358384,1725717276.361179,116.0,0.0,4408.717773,4282.307617,4290.897461,4375.128418,4233.974121,4160.641113,4092.564209,4282.820313,4278.333496,4252.436035,4534.102539,4567.563965,4399.102539,4460.0,0.0,0.0,11.0,,,,0.0,4.0,4.0,4.0,4.0,4.0,4.0,4.0,4.0,4.0,4.0,4.0,4.0,4.0,4.0,100.0,,,,,,,,,,,,,,,,,1.0,0.0,0.0,,,,,,,,,,,,,,,,,,,,,,,,,,,,,,,,,,,,,0.0,0.0,1.0,0.0,1.0,0.0,1.806731,1.625821,0.436436,0.159053,0.069117,3.328648,1.347479,0.878148,0.325703,0.145312,1.647617,1.61782,0.461618,0.093902,0.078292,1.706288,1.071446,0.358732,0.127223,0.128978,0.562008,0.700627,0.309373,0.099849,0.06202,0.469097,0.775847,0.490519,0.091441,0.100792,11.181417,0.904657,0.547773,0.172232,0.099562,0.450258,4.10959,1.060716,0.449273,0.175654,1.195717,1.700118,0.551157,0.203489,0.103702,1.734346,1.448141,0.562276,0.175278,0.243801,3.694667,3.102999,0.627711,0.393614,0.533378,3.048504,3.771864,1.007839,0.317227,0.338513,2.93961,2.169911,1.052086,0.279476,0.159219,2.547846,2.612019,0.701624,0.182122,0.186979
1725717276.362288,1725717276.365084,117.0,0.0,4401.410156,4280.769043,4284.615234,4369.871582,4231.025879,4155.641113,4088.589844,4280.641113,4274.102539,4248.717773,4527.820313,4559.871582,4396.410156,4458.589844,0.0,0.0,11.0,,,,0.0,4.0,4.0,4.0,4.0,4.0,4.0,4.0,4.0,4.0,4.0,4.0,4.0,4.0,4.0,100.0,,,,,,,,,,,,,,,,,,,,,,,,,,,,,,,,,,,,,,,,,,,,,,,,,,,,,,,,,,,,,,,,,,,,,,,,,,,,,,,,,,,,,,,,,,,,,,,,,,,,,,,,,,,,,,,,,,,,,,,,,,,,,,,,,,,
1725717276.366192,1725717276.368988,118.0,0.0,4394.871582,4278.461426,4278.205078,4364.358887,4228.461426,4151.922852,4084.102539,4277.563965,4266.794922,4245.641113,4522.820313,4552.820313,4392.94873,4456.538574,0.0,0.0,11.0,,,,0.0,4.0,4.0,4.0,4.0,4.0,4.0,4.0,4.0,4.0,4.0,4.0,4.0,4.0,4.0,100.0,,,,,,,,,,,,,,,,,,,,,,,,,,,,,,,,,,,,,,,,,,,,,,,,,,,,,,,,,,,,,,,,,,,,,,,,,,,,,,,,,,,,,,,,,,,,,,,,,,,,,,,,,,,,,,,,,,,,,,,,,,,,,,,,,,,
1725717276.370096,1725717276.372792,119.0,0.0,4393.461426,4277.94873,4275.641113,4363.205078,4228.846191,4152.692383,4081.025635,4276.282227,4262.436035,4247.307617,4522.94873,4551.666504,4392.307617,4455.641113,0.0,0.0,11.0,,,,0.0,4.0,4.0,4.0,4.0,4.0,4.0,4.0,4.0,4.0,4.0,4.0,4.0,4.0,4.0,100.0,,,,,,,,,,,,,,,,,,,,,,,,,,,,,,,,,,,,,,,,,,,,,,,,,,,,,,,,,,,,,,,,,,,,,,,,,,,,,,,,,,,,,,,,,,,,,,,,,,,,,,,,,,,,,,,,,,,,,,,,,,,,,,,,,,,
1725717276.374,1725717276.376696,120.0,0.0,4398.205078,4279.743652,4279.487305,4368.077148,4232.94873,4158.461426,4080.641113,4279.230957,4264.615234,4254.615234,4529.487305,4558.846191,4396.153809,4457.307617,0.0,0.0,11.0,,,,0.0,4.0,4.0,4.0,4.0,4.0,4.0,4.0,4.0,4.0,4.0,4.0,4.0,4.0,4.0,100.0,,,,,,,,,,,,,,,,,,,,,,,,,,,,,,,,,,,,,,,,,,,,,,,,,,,,,,,,,,,,,,,,,,,,,,,,,,,,,,,,,,,,,,,,,,,,,,,,,,,,,,,,,,,,,,,,,,,,,,,,,,,,,,,,,,,
1725717276.377904,1725717276.3806,121.0,0.0,4405.769043,4281.794922,4287.563965,4375.769043,4238.589844,4166.410156,4082.179443,4286.282227,4272.820313,4263.974121,4539.102539,4571.282227,4402.307617,4460.897461,0.0,0.0,11.0,,,,0.0,4.0,4.0,4.0,4.0,4.0,4.0,4.0,4.0,4.0,4.0,4.0,4.0,4.0,4.0,100.0,,,,,,,,,,,,,,,,,,,,,,,,,,,,,,,,,,,,,,,,,,,,,,,,,,,,,,,,,,,,,,,,,,,,,,,,,,,,,,,,,,,,,,,,,,,,,,,,,,,,,,,,,,,,,,,,,,,,,,,,,,,,,,,,,,,
1725717276.381808,1725717276.384504,122.0,0.0,4410.897461,4281.922852,4294.743652,4380.897461,4242.179688,4172.307617,4083.589844,4294.743652,4281.538574,4269.871582,4546.025879,4581.153809,4406.282227,4464.102539,0.0,0.0,11.0,,,,0.0,4.0,4.0,4.0,4.0,4.0,4.0,4.0,4.0,4.0,4.0,4.0,4.0,4.0,4.0,100.0,,,,,,,,,,,,,,,,,,,,,,,,,,,,,,,,,,,,,,,,,,,,,,,,,,,,,,,,,,,,,,,,,,,,,,,,,,,,,,,,,,,,,,,,,,,,,,,,,,,,,,,,,,,,,,,,,,,,,,,,,,,,,,,,,,,
1725717276.385712,1725717276.388308,123.0,0.0,4409.871582,4279.615234,4296.666504,4379.871582,4241.922852,4173.461426,4083.205078,4300.769043,4285.256348,4267.94873,4545.512695,4582.05127,4403.974121,4463.974121,0.0,0.0,11.0,,,,0.0,4.0,4.0,4.0,4.0,4.0,4.0,4.0,4.0,4.0,4.0,4.0,4.0,4.0,4.0,100.0,,,,,,,,,,,,,,,,,,,,,,,,,,,,,,,,,,,,,,,,,,,,,,,,,,,,,,,,,,,,,,,,,,,,,,,,,,,,,,,,,,,,,,,,,,,,,,,,,,,,,,,,,,,,,,,,,,,,,,,,,,,,,,,,,,,
1725717276.389616,1725717276.392212,124.0,0.0,4403.205078,4276.666504,4292.307617,4373.333496,4238.461426,4170.512695,4080.384521,4301.794922,4281.922852,4259.102539,4537.692383,4572.94873,4395.128418,4459.358887,0.0,0.0,11.0,,,,0.0,4.0,4.0,4.0,4.0,4.0,4.0,4.0,4.0,4.0,4.0,4.0,4.0,4.0,4.0,100.0,,,,,,,,,,,,,,,,,,,,,,,,,,,,,,,,,,,,,,,,,,,,,,,,,,,,,,,,0.0,0.0,1.0,0.0,1.0,0.0,,,,,,,,,,,,,,,,,,,,,,,,,,,,,,,,,,,,,,,,,,,,,,,,,,,,,,,,,,,,,,,,,,,,,,
1725717276.39352,1725717276.396117,125.0,0.0,4395.384766,4274.487305,4284.871582,4365.769043,4234.358887,4166.410156,4076.281982,4297.692383,4274.358887,4248.333496,4526.922852,4559.487305,4384.102539,4451.922852,0.0,0.0,11.0,,,,0.0,4.0,4.0,4.0,4.0,4.0,4.0,4.0,4.0,4.0,4.0,4.0,4.0,4.0,4.0,100.0,,,,,,,,,,,,,,,,,,,,,,,,,,,,,,,,,,,,,,,,,,,,,,,,,,,,,,,,,,,,,,,,,,,,,,,,,,,,,,,,,,,,,,,,,,,,,,,,,,,,,,,,,,,,,,,,,,,,,,,,,,,,,,,,,,,
1725717276.397425,1725717276.400021,126.0,0.0,4391.282227,4273.333496,4278.717773,4361.538574,4232.179688,4164.230957,4072.820557,4291.282227,4268.205078,4241.922852,4519.230957,4549.358887,4376.410156,4444.871582,0.0,0.0,11.0,,,,0.0,4.0,4.0,4.0,4.0,4.0,4.0,4.0,4.0,4.0,4.0,4.0,4.0,4.0,4.0,100.0,,,,,,,,,,,,,,,,,,,,,,,,,,,,,,,,,,,,,,,,,,,,,,,,,,,,,,,,,,,,,,,,,,,,,,,,,,,,,,,,,,,,,,,,,,,,,,,,,,,,,,,,,,,,,,,,,,,,,,,,,,,,,,,,,,,
1725717276.401329,1725717276.403825,127.0,0.0,4392.692383,4272.05127,4276.538574,4362.436035,4232.307617,4164.743652,4071.666748,4286.025879,4267.563965,4243.461426,4517.820313,4547.179688,4375.384766,4441.410156,0.0,0.0,11.0,,,,0.0,4.0,4.0,4.0,4.0,4.0,4.0,4.0,4.0,4.0,4.0,4.0,4.0,4.0,4.0,100.0,,,,,,,,,,,,,,,,,,,,,,,,,,,,,,,,,,,,,,,,,,,,,,,,,,,,,,,,,,,,,,,,,,,,,,,,,,,,,,,,,,,,,,,,,,,,,,,,,,,,,,,,,,,,,,,,,,,,,,,,,,,,,,,,,,,
1725717276.405233,1725717276.407729,128.0,0.0,4396.794922,4270.384766,4278.077148,4366.025879,4234.358887,4166.922852,4073.205078,4283.589844,4271.410156,4251.282227,4521.538574,4551.538574,4380.0,4441.922852,2692.0,0.0,11.0,,,,0.0,4.0,4.0,4.0,4.0,4.0,4.0,4.0,4.0,4.0,4.0,4.0,4.0,4.0,4.0,100.0,,,,,,,,,,,,,,,,,,,,,,,,,,,,,,,,,,,,,,,,,,,,,,,,,,,,,,,,,,,,,,,,,,,,,,,,,,,,,,,,,,,,,,,,,,,,,,,,,,,,,,,,,,,,,,,,,,,,,,,,,,,,,,,,,,,
1725717276.409137,1725717276.411633,129.0,0.0,4399.230957,4268.717773,4280.897461,4368.589844,4237.179688,4169.102539,4075.512939,4282.563965,4275.384766,4259.230957,4525.769043,4556.794922,4386.153809,4444.358887,2578.0,0.0,11.0,,,,0.0,4.0,4.0,4.0,4.0,4.0,4.0,4.0,4.0,4.0,4.0,4.0,4.0,4.0,4.0,100.0,,,,,,,,,,,,,,,,,,,,,,,,,,,,,,,,,,,,,,,,,,,,,,,,,,,,,,,,,,,,,,,,,,,,,,,,,,,,,,,,,,,,,,,,,,,,,,,,,,,,,,,,,,,,,,,,,,,,,,,,,,,,,,,,,,,
1725717276.413041,1725717276.415637,130.0,0.0,4398.589844,4268.461426,4282.820313,4368.077148,4239.615234,4170.128418,4076.281982,4280.769043,4275.128418,4261.538574,4526.025879,4557.820313,4389.871582,4445.897461,2513.0,0.0,11.0,,,,0.0,4.0,4.0,4.0,4.0,4.0,4.0,4.0,4.0,4.0,4.0,4.0,4.0,4.0,4.0,100.0,,,,,,,,,,,,,,,,,,,,,,,,,,,,,,,,,,,,,,,,,,,,,,,,,,,,,,,,,,,,,,,,,,,,,,,,,,,,,,,,,,,,,,,,,,,,,,,,,,,,,,,,,,,,,,,,,,,,,,,,,,,,,,,,,,,
1725717276.416945,1725717276.419541,131.0,0.0,4396.794922,4270.641113,4283.333496,4365.897461,4241.282227,4169.615234,4074.230713,4277.179688,4270.769043,4257.307617,4521.922852,4553.717773,4389.871582,4445.641113,2459.0,0.0,11.0,,,,0.0,4.0,4.0,4.0,4.0,4.0,4.0,4.0,4.0,4.0,4.0,4.0,4.0,4.0,4.0,100.0,,,,,,,,,,,,,,,,,,,,,,,,,,,,,,,,,,,,,,,,,,,,,,,,,,,,,,,,,,,,,,,,,,,,,,,,,,,,,,,,,,,,,,,,,,,,,,,,,,,,,,,,,,,,,,,,,,,,,,,,,,,,,,,,,,,
1725717276.420849,1725717276.423445,132.0,0.0,4397.307617,4274.871582,4283.461426,4365.128418,4242.436035,4168.205078,4070.512939,4273.717773,4265.769043,4250.512695,4517.307617,4548.461426,4388.461426,4445.641113,2443.0,0.0,11.0,,,,0.0,4.0,4.0,4.0,4.0,4.0,4.0,4.0,4.0,4.0,4.0,4.0,4.0,4.0,4.0,100.0,,,,,,,,,,,,,,,,,,,,,,,,,,,,,,,,,,,,,,,,,,,,,,,,,,,,,,,,0.0,0.0,1.0,0.0,1.0,0.0,,,,,,,,,,,,,,,,,,,,,,,,,,,,,,,,,,,,,,,,,,,,,,,,,,,,,,,,,,,,,,,,,,,,,,
1725717276.424753,1725717276.427449,133.0,0.0,4402.179688,4279.102539,4285.641113,4368.077148,4243.461426,4166.922852,4067.307617,4272.692383,4264.230957,4246.025879,4517.05127,4547.307617,4388.974121,4448.205078,2383.0,0.0,11.0,,,,0.0,4.0,4.0,4.0,4.0,4.0,4.0,4.0,4.0,4.0,4.0,4.0,4.0,4.0,4.0,100.0,,,,,,,,,,,,,,,,,,,,,,,,,,,,,,,,,,,,,,,,,,,,,,,,,,,,,,,,,,,,,,,,,,,,,,,,,,,,,,,,,,,,,,,,,,,,,,,,,,,,,,,,,,,,,,,,,,,,,,,,,,,,,,,,,,,
1725717276.428657,1725717276.431353,134.0,0.0,4409.615234,4281.282227,4290.384766,4373.717773,4244.871582,4167.179688,4065.897461,4275.384766,4267.692383,4247.307617,4522.692383,4552.436035,4393.461426,4453.846191,2446.0,0.0,11.0,,,,0.0,4.0,4.0,4.0,4.0,4.0,4.0,4.0,4.0,4.0,4.0,4.0,4.0,4.0,4.0,100.0,,,,,,,,,,,,,,,,,,,,,,,,,,,,,,,,,,,,,,,,,,,,,,,,,,,,,,,,,,,,,,,,,,,,,,,,,,,,,,,,,,,,,,,,,,,,,,,,,,,,,,,,,,,,,,,,,,,,,,,,,,,,,,,,,,,
1725717276.432562,1725717276.435257,135.0,0.0,4416.153809,4280.512695,4296.666504,4379.358887,4246.666504,4169.487305,4066.281982,4280.0,4274.358887,4253.974121,4531.538574,4561.666504,4400.769043,4460.512695,2498.0,0.0,11.0,,,,0.0,4.0,4.0,4.0,4.0,4.0,4.0,4.0,4.0,4.0,4.0,4.0,4.0,4.0,4.0,100.0,,,,,,,,,,,,,,,,,,,,,,,,,,,,,,,,,,,,,,,,,,,,,,,,,,,,,,,,,,,,,,,,,,,,,,,,,,,,,,,,,,,,,,,,,,,,,,,,,,,,,,,,,,,,,,,,,,,,,,,,,,,,,,,,,,,
1725717276.436466,1725717276.439162,136.0,0.0,4418.717773,4278.333496,4302.179688,4382.94873,4248.077148,4173.589844,4067.564209,4283.717773,4280.256348,4262.563965,4538.333496,4570.256348,4407.307617,4464.871582,2461.0,0.0,11.0,,,,0.0,4.0,4.0,4.0,4.0,4.0,4.0,4.0,4.0,4.0,4.0,4.0,4.0,4.0,4.0,100.0,,,,,,,,,,,,,,,,,,,,,,,,,,,,,,,,,,,,,,,,,,,,,,,,,,,,,,,,,,,,,,,,,,,,,,,,,,,,,,,,,,,,,,,,,,,,,,,,,,,,,,,,,,,,,,,,,,,,,,,,,,,,,,,,,,,
1725717276.44037,1725717276.443066,137.0,0.0,4417.563965,4276.794922,4304.487305,4383.717773,4249.230957,4178.333496,4068.461426,4285.384766,4282.307617,4268.077148,4538.974121,4574.102539,4409.358887,4465.0,2545.0,0.0,11.0,,,,0.0,4.0,4.0,4.0,4.0,4.0,4.0,4.0,4.0,4.0,4.0,4.0,4.0,4.0,4.0,100.0,,,,,,,,,,,,,,,,,,,,,,,,,,,,,,,,,,,,,,,,,,,,,,,,,,,,,,,,,,,,,,,,,,,,,,,,,,,,,,,,,,,,,,,,,,,,,,,,,,,,,,,,,,,,,,,,,,,,,,,,,,,,,,,,,,,
1725717276.444274,1725717276.44687,138.0,0.0,4415.128418,4276.922852,4302.94873,4382.563965,4249.871582,4182.307617,4068.461426,4285.641113,4280.256348,4267.692383,4533.077148,4572.563965,4405.897461,4462.05127,2894.0,0.0,11.0,,,,0.0,4.0,4.0,4.0,4.0,4.0,4.0,4.0,4.0,4.0,4.0,4.0,4.0,4.0,4.0,100.0,,,,,,,,,,,,,,,,,,,,,,,,,,,,,,,,,,,,,,,,,,,,,,,,,,,,,,,,,,,,,,,,,,,,,,,,,,,,,,,,,,,,,,,,,,,,,,,,,,,,,,,,,,,,,,,,,,,,,,,,,,,,,,,,,,,
1725717276.448178,1725717276.450774,139.0,0.0,4413.589844,4277.94873,4298.974121,4380.769043,4249.615234,4184.487305,4067.564209,4286.538574,4276.410156,4262.307617,4525.0,4568.333496,4399.615234,4458.846191,3114.0,0.0,11.0,,,,0.0,4.0,4.0,4.0,4.0,4.0,4.0,4.0,4.0,4.0,4.0,4.0,4.0,4.0,4.0,100.0,,,,,,,,,,,,,,,,,,,,,,,,,,,,,,,,,,,,,,,,,,,,,,,,,,,,,,,,,,,,,,,,,,,,,,,,,,,,,,,,,,,,,,,,,,,,,,,,,,,,,,,,,,,,,,,,,,,,,,,,,,,,,,,,,,,
1725717276.452082,1725717276.454678,140.0,0.0,4413.717773,4278.846191,4295.128418,4379.871582,4248.205078,4185.0,4066.923096,4288.589844,4274.230957,4255.897461,4520.384766,4565.897461,4394.871582,4457.820313,3423.0,0.0,11.0,,,,0.0,4.0,4.0,4.0,4.0,4.0,4.0,4.0,4.0,4.0,4.0,4.0,4.0,4.0,4.0,100.0,,,,,,,,,,,,,,,,,,,,,,,,,,,,,,,,,,,,,,,,,,,,,,,,,,,,,,,,0.0,0.0,1.0,0.0,1.0,0.0,,,,,,,,,,,,,,,,,,,,,,,,,,,,,,,,,,,,,,,,,,,,,,,,,,,,,,,,,,,,,,,,,,,,,,
1725717276.455986,1725717276.458682,141.0,0.0,4415.128418,4278.846191,4293.846191,4380.128418,4246.153809,4184.230957,4067.05127,4291.282227,4275.512695,4252.820313,4522.179688,4567.179688,4395.0,4459.358887,3849.0,0.0,11.0,,,,0.0,4.0,4.0,4.0,4.0,4.0,4.0,4.0,4.0,4.0,4.0,4.0,4.0,4.0,4.0,100.0,,,,,,,,,,,,,,,,,,,,,,,,,,,,,,,,,,,,,,,,,,,,,,,,,,,,,,,,,,,,,,,,,,,,,,,,,,,,,,,,,,,,,,,,,,,,,,,,,,,,,,,,,,,,,,,,,,,,,,,,,,,,,,,,,,,
1725717276.45989,1725717276.462586,142.0,0.0,4416.410156,4278.589844,4295.897461,4381.153809,4244.743652,4183.077148,4067.692383,4293.461426,4279.102539,4254.487305,4528.974121,4571.666504,4400.0,4461.794922,2894.0,0.0,11.0,,,,0.0,4.0,4.0,4.0,4.0,4.0,4.0,4.0,4.0,4.0,4.0,4.0,4.0,4.0,4.0,100.0,,,,,,,,,,,,,,,,,,,,,,,,,,,,,,,,,,,,,,,,,,,,,,,,,,,,,,,,,,,,,,,,,,,,,,,,,,,,,,,,,,,,,,,,,,,,,,,,,,,,,,,,,,,,,,,,,,,,,,,,,,,,,,,,,,,
1725717276.463794,1725717276.46649,143.0,0.0,4417.05127,4278.717773,4299.871582,4381.794922,4244.615234,4182.307617,4067.820557,4294.358887,4282.307617,4258.846191,4535.769043,4576.666504,4406.922852,4463.333496,3114.0,0.0,11.0,,,,0.0,4.0,4.0,4.0,4.0,4.0,4.0,4.0,4.0,4.0,4.0,4.0,4.0,4.0,4.0,100.0,,,,,,,,,,,,,,,,,,,,,,,,,,,,,,,,,,,,,,,,,,,,,,,,,,,,,,,,,,,,,,,,,,,,,,,,,,,,,,,,,,,,,,,,,,,,,,,,,,,,,,,,,,,,,,,,,,,,,,,,,,,,,,,,,,,
1725717276.467698,1725717276.470394,144.0,0.0,4417.05127,4279.230957,4303.846191,4381.922852,4245.769043,4182.179688,4066.794922,4293.974121,4282.692383,4263.205078,4538.974121,4580.128418,4412.179688,4463.974121,3423.0,0.0,11.0,,,,0.0,4.0,4.0,4.0,4.0,4.0,4.0,4.0,4.0,4.0,4.0,4.0,4.0,4.0,4.0,100.0,,,,,,,,,,,,,,,,,,,,,,,,,,,,,,,,,,,,,,,,,,,,,,,,,,,,,,,,,,,,,,,,,,,,,,,,,,,,,,,,,,,,,,,,,,,,,,,,,,,,,,,,,,,,,,,,,,,,,,,,,,,,,,,,,,,
1725717276.471603,1725717276.474299,145.0,0.0,4417.05127,4279.871582,4306.666504,4382.307617,4247.436035,4182.563965,4064.743652,4293.717773,4280.641113,4265.512695,4538.846191,4581.922852,4414.230957,4464.871582,3849.0,0.0,11.0,,,,0.0,4.0,4.0,4.0,4.0,4.0,4.0,4.0,4.0,4.0,4.0,4.0,4.0,4.0,4.0,100.0,,,,,,,,,,,,,,,,,,,,,,,,,,,,,,,,,,,,,,,,,,,,,,,,,,,,,,,,,,,,,,,,,,,,,,,,,,,,,,,,,,,,,,,,,,,,,,,,,,,,,,,,,,,,,,,,,,,,,,,,,,,,,,,,,,,
1725717276.475507,1725717276.478103,146.0,0.0,4417.692383,4280.128418,4308.205078,4384.102539,4249.102539,4183.205078,4063.205078,4294.615234,4277.94873,4265.897461,4537.94873,4582.820313,4414.230957,4467.436035,2894.0,0.0,11.0,,,,0.0,4.0,4.0,4.0,4.0,4.0,4.0,4.0,4.0,4.0,4.0,4.0,4.0,4.0,4.0,100.0,,,,,,,,,,,,,,,,,,,,,,,,,,,,,,,,,,,,,,,,,,,,,,,,,,,,,,,,,,,,,,,,,,,,,,,,,,,,,,,,,,,,,,,,,,,,,,,,,,,,,,,,,,,,,,,,,,,,,,,,,,,,,,,,,,,
1725717276.479411,1725717276.482007,147.0,0.0,4418.974121,4280.384766,4308.974121,4387.436035,4250.256348,4184.102539,4062.692383,4296.410156,4276.922852,4265.256348,4538.205078,4582.820313,4413.589844,4471.282227,3114.0,0.0,11.0,,,,0.0,4.0,4.0,4.0,4.0,4.0,4.0,4.0,4.0,4.0,4.0,4.0,4.0,4.0,4.0,100.0,,,,,,,,,,,,,,,,,,,,,,,,,,,,,,,,,,,,,,,,,,,,,,,,,,,,,,,,,,,,,,,,,,,,,,,,,,,,,,,,,,,,,,,,,,,,,,,,,,,,,,,,,,,,,,,,,,,,,,,,,,,,,,,,,,,
1725717276.483315,1725717276.485911,148.0,0.0,4420.256348,4280.769043,4309.743652,4390.897461,4250.769043,4185.0,4062.820557,4297.436035,4277.692383,4264.615234,4538.461426,4581.282227,4413.077148,4474.871582,3423.0,0.0,11.0,,,,0.0,4.0,4.0,4.0,4.0,4.0,4.0,4.0,4.0,4.0,4.0,4.0,4.0,4.0,4.0,100.0,,,,,,,,,,,,,,,,,1.0,0.0,0.0,,,,,,,,,,,,,,,,,,,,,,,,,,,,,,,,,,,,,0.0,0.0,1.0,0.0,1.0,0.0,2.268323,1.852301,0.584607,0.193794,0.070372,2.930222,1.131016,0.742703,0.255233,0.106136,2.086039,1.824137,0.573207,0.095558,0.083141,2.171155,1.189059,0.459279,0.147159,0.13584,0.666548,0.799676,0.327957,0.091453,0.057819,0.344252,0.777248,0.597931,0.078677,0.109352,12.558229,0.919014,0.527479,0.166374,0.100918,0.47113,3.86129,1.217044,0.477825,0.173007,1.299948,1.860759,0.630567,0.242512,0.09697,2.181916,1.793355,0.61443,0.229194,0.246892,4.490988,3.492996,0.808186,0.388247,0.528599,3.629649,4.208456,1.276354,0.365625,0.328172,3.74725,2.649145,1.450026,0.370304,0.168986,3.30642,3.083236,0.936558,0.205268,0.192065
1725717276.487219,1725717276.489815,149.0,0.0,4421.282227,4280.897461,4310.0,4393.205078,4250.384766,4185.769043,4062.179443,4296.922852,4279.102539,4264.615234,4536.282227,4577.307617,4412.94873,4476.153809,3849.0,0.0,11.0,,,,0.0,4.0,4.0,4.0,4.0,4.0,4.0,4.0,4.0,4.0,4.0,4.0,4.0,4.0,4.0,100.0,,,,,,,,,,,,,,,,,,,,,,,,,,,,,,,,,,,,,,,,,,,,,,,,,,,,,,,,,,,,,,,,,,,,,,,,,,,,,,,,,,,,,,,,,,,,,,,,,,,,,,,,,,,,,,,,,,,,,,,,,,,,,,,,,,,
1725717276.491123,1725717276.493619,150.0,0.0,4421.922852,4280.0,4309.358887,4393.333496,4249.487305,4185.897461,4059.743652,4295.256348,4279.871582,4265.128418,4531.282227,4572.179688,4412.94873,4474.615234,2894.0,0.0,11.0,,,,0.0,4.0,4.0,4.0,4.0,4.0,4.0,4.0,4.0,4.0,4.0,4.0,4.0,4.0,4.0,100.0,,,,,,,,,,,,,,,,,,,,,,,,,,,,,,,,,,,,,,,,,,,,,,,,,,,,,,,,,,,,,,,,,,,,,,,,,,,,,,,,,,,,,,,,,,,,,,,,,,,,,,,,,,,,,,,,,,,,,,,,,,,,,,,,,,,
1725717276.495027,1725717276.497523,151.0,0.0,4422.179688,4278.205078,4307.820313,4391.282227,4248.974121,4184.743652,4056.153809,4294.230957,4279.743652,4265.769043,4526.922852,4569.358887,4414.102539,4471.922852,3114.0,0.0,11.0,,,,0.0,4.0,4.0,4.0,4.0,4.0,4.0,4.0,4.0,4.0,4.0,4.0,4.0,4.0,4.0,100.0,,,,,,,,,,,,,,,,,,,,,,,,,,,,,,,,,,,,,,,,,,,,,,,,,,,,,,,,,,,,,,,,,,,,,,,,,,,,,,,,,,,,,,,,,,,,,,,,,,,,,,,,,,,,,,,,,,,,,,,,,,,,,,,,,,,
1725717276.498931,1725717276.501427,152.0,0.0,4422.692383,4276.922852,4306.410156,4388.717773,4249.230957,4183.205078,4052.820557,4294.487305,4279.615234,4266.153809,4527.179688,4571.922852,4417.05127,4470.256348,3423.0,0.0,11.0,,,,0.0,4.0,4.0,4.0,4.0,4.0,4.0,4.0,4.0,4.0,4.0,4.0,4.0,4.0,4.0,100.0,,,,,,,,,,,,,,,,,,,,,,,,,,,,,,,,,,,,,,,,,,,,,,,,,,,,,,,,,,,,,,,,,,,,,,,,,,,,,,,,,,,,,,,,,,,,,,,,,,,,,,,,,,,,,,,,,,,,,,,,,,,,,,,,,,,
1725717276.502835,1725717276.505332,153.0,0.0,4424.102539,4277.179688,4306.794922,4387.307617,4250.0,4182.563965,4051.538574,4295.641113,4280.256348,4266.410156,4532.436035,4579.743652,4421.538574,4471.153809,3849.0,0.0,11.0,,,,0.0,4.0,4.0,4.0,4.0,4.0,4.0,4.0,4.0,4.0,4.0,4.0,4.0,4.0,4.0,100.0,,,,,,,,,,,,,,,,,,,,,,,,,,,,,,,,,,,,,,,,,,,,,,,,,,,,,,,,,,,,,,,,,,,,,,,,,,,,,,,,,,,,,,,,,,,,,,,,,,,,,,,,,,,,,,,,,,,,,,,,,,,,,,,,,,,
1725717276.50674,1725717276.509136,154.0,0.0,4426.538574,4278.974121,4308.974121,4387.820313,4250.769043,4183.205078,4052.307617,4296.922852,4281.538574,4266.922852,4538.974121,4588.333496,4425.769043,4474.102539,2894.0,0.0,11.0,,,,0.0,4.0,4.0,4.0,4.0,4.0,4.0,4.0,4.0,4.0,4.0,4.0,4.0,4.0,4.0,100.0,,,,,,,,,,,,,,,,,,,,,,,,,,,,,,,,,,,,,,,,,,,,,,,,,,,,,,,,,,,,,,,,,,,,,,,,,,,,,,,,,,,,,,,,,,,,,,,,,,,,,,,,,,,,,,,,,,,,,,,,,,,,,,,,,,,
1725717276.510644,1725717276.51304,155.0,0.0,4428.589844,4280.384766,4311.538574,4389.230957,4251.025879,4184.358887,4053.589844,4297.307617,4282.563965,4267.179688,4541.410156,4591.666504,4427.05127,4476.538574,3114.0,0.0,11.0,,,,0.0,4.0,4.0,4.0,4.0,4.0,4.0,4.0,4.0,4.0,4.0,4.0,4.0,4.0,4.0,100.0,,,,,,,,,,,,,,,,,,,,,,,,,,,,,,,,,,,,,,,,,,,,,,,,,,,,,,,,,,,,,,,,,,,,,,,,,,,,,,,,,,,,,,,,,,,,,,,,,,,,,,,,,,,,,,,,,,,,,,,,,,,,,,,,,,,
1725717276.514548,1725717276.516944,156.0,0.0,4428.333496,4279.358887,4312.307617,4389.743652,4250.769043,4185.128418,4053.718018,4296.282227,4282.563965,4265.769043,4537.436035,4587.436035,4423.974121,4475.769043,3423.0,0.0,11.0,,,,0.0,4.0,4.0,4.0,4.0,4.0,4.0,4.0,4.0,4.0,4.0,4.0,4.0,4.0,4.0,100.0,,,,,,,,,,,,,,,,,,,,,,,,,,,,,,,,,,,,,,,,,,,,,,,,,,,,,,,,0.0,0.0,1.0,0.0,1.0,0.0,,,,,,,,,,,,,,,,,,,,,,,,,,,,,,,,,,,,,,,,,,,,,,,,,,,,,,,,,,,,,,,,,,,,,,
1725717276.518452,1725717276.520948,157.0,0.0,4425.128418,4275.384766,4310.384766,4388.717773,4250.256348,4184.871582,4052.05127,4294.358887,4281.153809,4262.692383,4529.230957,4577.94873,4417.820313,4471.538574,3849.0,0.0,11.0,,,,0.0,4.0,4.0,4.0,4.0,4.0,4.0,4.0,4.0,4.0,4.0,4.0,4.0,4.0,4.0,100.0,,,,,,,,,,,,,,,,,,,,,,,,,,,,,,,,,,,,,,,,,,,,,,,,,,,,,,,,,,,,,,,,,,,,,,,,,,,,,,,,,,,,,,,,,,,,,,,,,,,,,,,,,,,,,,,,,,,,,,,,,,,,,,,,,,,
1725717276.522356,1725717276.524852,158.0,0.0,4420.256348,4269.743652,4306.666504,4386.922852,4250.128418,4183.974121,4049.230713,4293.205078,4279.487305,4259.615234,4521.666504,4569.230957,4411.410156,4465.769043,2894.0,0.0,11.0,,,,0.0,4.0,4.0,4.0,4.0,4.0,4.0,4.0,4.0,4.0,4.0,4.0,4.0,4.0,4.0,100.0,,,,,,,,,,,,,,,,,,,,,,,,,,,,,,,,,,,,,,,,,,,,,,,,,,,,,,,,,,,,,,,,,,,,,,,,,,,,,,,,,,,,,,,,,,,,,,,,,,,,,,,,,,,,,,,,,,,,,,,,,,,,,,,,,,,
1725717276.52626,1725717276.528756,159.0,0.0,4416.153809,4264.615234,4303.461426,4386.282227,4250.384766,4183.333496,4046.666748,4293.205078,4278.077148,4258.846191,4518.077148,4565.769043,4407.820313,4461.153809,3114.0,0.0,11.0,,,,0.0,4.0,4.0,4.0,4.0,4.0,4.0,4.0,4.0,4.0,4.0,4.0,4.0,4.0,4.0,100.0,,,,,,,,,,,,,,,,,,,,,,,,,,,,,,,,,,,,,,,,,,,,,,,,,,,,,,,,,,,,,,,,,,,,,,,,,,,,,,,,,,,,,,,,,,,,,,,,,,,,,,,,,,,,,,,,,,,,,,,,,,,,,,,,,,,
1725717276.530164,1725717276.53276,160.0,0.0,4414.358887,4262.179688,4302.179688,4387.05127,4250.641113,4182.94873,4045.0,4293.846191,4276.794922,4260.128418,4518.717773,4567.436035,4408.077148,4459.487305,3423.0,0.0,11.0,,,,0.0,4.0,4.0,4.0,4.0,4.0,4.0,4.0,4.0,4.0,4.0,4.0,4.0,4.0,4.0,100.0,,,,,,,,,,,,,,,,,,,,,,,,,,,,,,,,,,,,,,,,,,,,,,,,,,,,,,,,,,,,,,,,,,,,,,,,,,,,,,,,,,,,,,,,,,,,,,,,,,,,,,,,,,,,,,,,,,,,,,,,,,,,,,,,,,,
1725717276.534068,1725717276.536664,161.0,0.0,4414.871582,4262.563965,4302.820313,4388.077148,4250.512695,4182.692383,4044.230713,4293.717773,4275.0,4261.410156,4521.538574,4570.641113,4410.769043,4460.769043,3849.0,0.0,11.0,,,,0.0,4.0,4.0,4.0,4.0,4.0,4.0,4.0,4.0,4.0,4.0,4.0,4.0,4.0,4.0,100.0,,,,,,,,,,,,,,,,,,,,,,,,,,,,,,,,,,,,,,,,,,,,,,,,,,,,,,,,,,,,,,,,,,,,,,,,,,,,,,,,,,,,,,,,,,,,,,,,,,,,,,,,,,,,,,,,,,,,,,,,,,,,,,,,,,,
1725717276.537972,1725717276.540568,162.0,0.0,4416.282227,4264.102539,4303.974121,4387.692383,4249.743652,4182.307617,4043.205078,4292.05127,4272.692383,4260.769043,4523.717773,4570.641113,4413.974121,4463.333496,2894.0,0.0,11.0,,,,0.0,4.0,4.0,4.0,4.0,4.0,4.0,4.0,4.0,4.0,4.0,4.0,4.0,4.0,4.0,100.0,,,,,,,,,,,,,,,,,,,,,,,,,,,,,,,,,,,,,,,,,,,,,,,,,,,,,,,,,,,,,,,,,,,,,,,,,,,,,,,,,,,,,,,,,,,,,,,,,,,,,,,,,,,,,,,,,,,,,,,,,,,,,,,,,,,
1725717276.541876,1725717276.544473,163.0,0.0,4416.666504,4264.871582,4304.102539,4385.0,4248.205078,4181.794922,4041.281982,4288.461426,4270.0,4257.436035,4524.102539,4565.512695,4415.641113,4464.871582,3114.0,0.0,11.0,,,,0.0,4.0,4.0,4.0,4.0,4.0,4.0,4.0,4.0,4.0,4.0,4.0,4.0,4.0,4.0,100.0,,,,,,,,,,,,,,,,,,,,,,,,,,,,,,,,,,,,,,,,,,,,,,,,,,,,,,,,,,,,,,,,,,,,,,,,,,,,,,,,,,,,,,,,,,,,,,,,,,,,,,,,,,,,,,,,,,,,,,,,,,,,,,,,,,,
1725717276.54578,1725717276.548377,164.0,0.0,4415.384766,4263.974121,4302.436035,4381.538574,4246.538574,4182.05127,4038.333252,4283.717773,4267.436035,4252.563965,4522.820313,4557.307617,4414.615234,4463.333496,3423.0,0.0,11.0,,,,0.0,4.0,4.0,4.0,4.0,4.0,4.0,4.0,4.0,4.0,4.0,4.0,4.0,4.0,4.0,100.0,,,,,,,,,,,,,,,,,,,,,,,,,,,,,,,,,,,,,,,,,,,,,,,,,,,,,,,,0.0,0.0,1.0,0.0,1.0,0.0,,,,,,,,,,,,,,,,,,,,,,,,,,,,,,,,,,,,,,,,,,,,,,,,,,,,,,,,,,,,,,,,,,,,,,
1725717276.549684,1725717276.552181,165.0,0.0,4412.820313,4262.692383,4299.487305,4379.230957,4245.384766,4182.820313,4035.128174,4279.102539,4265.0,4248.333496,4520.128418,4550.0,4411.025879,4458.333496,3849.0,0.0,11.0,,,,0.0,4.0,4.0,4.0,4.0,4.0,4.0,4.0,4.0,4.0,4.0,4.0,4.0,4.0,4.0,100.0,,,,,,,,,,,,,,,,,,,,,,,,,,,,,,,,,,,,,,,,,,,,,,,,,,,,,,,,,,,,,,,,,,,,,,,,,,,,,,,,,,,,,,,,,,,,,,,,,,,,,,,,,,,,,,,,,,,,,,,,,,,,,,,,,,,
1725717276.553589,1725717276.556085,166.0,0.0,4410.769043,4262.692383,4296.538574,4379.487305,4245.0,4183.717773,4032.564209,4276.410156,4263.077148,4246.922852,4515.769043,4546.794922,4405.897461,4451.538574,2894.0,0.0,11.0,,,,0.0,4.0,4.0,4.0,4.0,4.0,4.0,4.0,4.0,4.0,4.0,4.0,4.0,4.0,4.0,100.0,,,,,,,,,,,,,,,,,,,,,,,,,,,,,,,,,,,,,,,,,,,,,,,,,,,,,,,,,,,,,,,,,,,,,,,,,,,,,,,,,,,,,,,,,,,,,,,,,,,,,,,,,,,,,,,,,,,,,,,,,,,,,,,,,,,
1725717276.557493,1725717276.559989,167.0,0.0,4409.871582,4263.846191,4295.256348,4381.410156,4245.128418,4183.205078,4030.897461,4276.282227,4262.436035,4248.974121,4510.0,4547.307617,4401.025879,4445.897461,3114.0,0.0,11.0,,,,0.0,4.0,4.0,4.0,4.0,4.0,4.0,4.0,4.0,4.0,4.0,4.0,4.0,4.0,4.0,100.0,,,,,,,,,,,,,,,,,,,,,,,,,,,,,,,,,,,,,,,,,,,,,,,,,,,,,,,,,,,,,,,,,,,,,,,,,,,,,,,,,,,,,,,,,,,,,,,,,,,,,,,,,,,,,,,,,,,,,,,,,,,,,,,,,,,
1725717276.561397,1725717276.563993,168.0,0.0,4409.487305,4264.358887,4295.769043,4382.563965,4244.871582,4180.641113,4029.615479,4278.717773,4262.563965,4251.538574,4504.743652,4549.102539,4397.94873,4443.333496,3423.0,0.0,11.0,,,,0.0,4.0,4.0,4.0,4.0,4.0,4.0,4.0,4.0,4.0,4.0,4.0,4.0,4.0,4.0,100.0,,,,,,,,,,,,,,,,,,,,,,,,,,,,,,,,,,,,,,,,,,,,,,,,,,,,,,,,,,,,,,,,,,,,,,,,,,,,,,,,,,,,,,,,,,,,,,,,,,,,,,,,,,,,,,,,,,,,,,,,,,,,,,,,,,,
1725717276.565301,1725717276.567897,169.0,0.0,4407.94873,4262.436035,4296.538574,4380.769043,4243.461426,4176.410156,4028.205078,4282.692383,4263.205078,4250.641113,4502.179688,4549.102539,4397.307617,4443.974121,3849.0,0.0,11.0,,,,0.0,4.0,4.0,4.0,4.0,4.0,4.0,4.0,4.0,4.0,4.0,4.0,4.0,4.0,4.0,100.0,,,,,,,,,,,,,,,,,,,,,,,,,,,,,,,,,,,,,,,,,,,,,,,,,,,,,,,,,,,,,,,,,,,,,,,,,,,,,,,,,,,,,,,,,,,,,,,,,,,,,,,,,,,,,,,,,,,,,,,,,,,,,,,,,,,
1725717276.569205,1725717276.571801,170.0,0.0,4404.102539,4257.820313,4295.256348,4375.897461,4240.384766,4172.179688,4025.512939,4287.05127,4263.846191,4244.743652,4502.820313,4546.410156,4397.692383,4445.512695,2894.0,0.0,11.0,,,,0.0,4.0,4.0,4.0,4.0,4.0,4.0,4.0,4.0,4.0,4.0,4.0,4.0,4.0,4.0,100.0,,,,,,,,,,,,,,,,,,,,,,,,,,,,,,,,,,,,,,,,,,,,,,,,,,,,,,,,,,,,,,,,,,,,,,,,,,,,,,,,,,,,,,,,,,,,,,,,,,,,,,,,,,,,,,,,,,,,,,,,,,,,,,,,,,,
1725717276.573109,1725717276.575705,171.0,0.0,4399.358887,4252.820313,4291.410156,4369.743652,4236.666504,4169.743652,4021.794922,4290.128418,4264.487305,4236.794922,4505.128418,4542.179688,4397.436035,4445.897461,3114.0,0.0,11.0,,,,0.0,4.0,4.0,4.0,4.0,4.0,4.0,4.0,4.0,4.0,4.0,4.0,4.0,4.0,4.0,100.0,,,,,,,,,,,,,,,,,,,,,,,,,,,,,,,,,,,,,,,,,,,,,,,,,,,,,,,,,,,,,,,,,,,,,,,,,,,,,,,,,,,,,,,,,,,,,,,,,,,,,,,,,,,,,,,,,,,,,,,,,,,,,,,,,,,
1725717276.577013,1725717276.579609,172.0,0.0,4395.897461,4250.384766,4286.410156,4365.0,4233.461426,4169.487305,4017.307617,4290.769043,4264.871582,4231.538574,4506.025879,4538.077148,4394.871582,4443.846191,3423.0,0.0,11.0,,,,0.0,4.0,4.0,4.0,4.0,4.0,4.0,4.0,4.0,4.0,4.0,4.0,4.0,4.0,4.0,100.0,,,,,,,,,,,,,,,,,,,,,,,,,,,,,,,,,,,,,,,,,,,,,,,,,,,,,,,,0.0,0.0,1.0,0.0,1.0,0.0,,,,,,,,,,,,,,,,,,,,,,,,,,,,,,,,,,,,,,,,,,,,,,,,,,,,,,,,,,,,,,,,,,,,,,
1725717276.580917,1725717276.583414,173.0,0.0,4395.128418,4250.769043,4282.307617,4362.563965,4231.794922,4170.512695,4013.076904,4288.589844,4264.358887,4231.922852,4503.333496,4533.974121,4390.641113,4439.358887,3849.0,0.0,11.0,,,,0.0,4.0,4.0,4.0,4.0,4.0,4.0,4.0,4.0,4.0,4.0,4.0,4.0,4.0,4.0,100.0,,,,,,,,,,,,,,,,,,,,,,,,,,,,,,,,,,,,,,,,,,,,,,,,,,,,,,,,,,,,,,,,,,,,,,,,,,,,,,,,,,,,,,,,,,,,,,,,,,,,,,,,,,,,,,,,,,,,,,,,,,,,,,,,,,,
1725717276.584821,1725717276.587318,174.0,0.0,4396.153809,4251.794922,4280.0,4361.922852,4231.666504,4171.153809,4009.230713,4284.358887,4262.820313,4236.922852,4497.307617,4529.230957,4386.538574,4433.717773,2894.0,0.0,11.0,,,,0.0,4.0,4.0,4.0,4.0,4.0,4.0,4.0,4.0,4.0,4.0,4.0,4.0,4.0,4.0,100.0,,,,,,,,,,,,,,,,,,,,,,,,,,,,,,,,,,,,,,,,,,,,,,,,,,,,,,,,,,,,,,,,,,,,,,,,,,,,,,,,,,,,,,,,,,,,,,,,,,,,,,,,,,,,,,,,,,,,,,,,,,,,,,,,,,,
1725717276.588725,1725717276.591222,175.0,0.0,4396.922852,4251.538574,4279.358887,4361.794922,4232.179688,4170.256348,4006.153809,4280.128418,4261.282227,4242.692383,4490.641113,4524.230957,4383.717773,4428.461426,3114.0,0.0,11.0,,,,0.0,4.0,4.0,4.0,4.0,4.0,4.0,4.0,4.0,4.0,4.0,4.0,4.0,4.0,4.0,100.0,,,,,,,,,,,,,,,,,,,,,,,,,,,,,,,,,,,,,,,,,,,,,,,,,,,,,,,,,,,,,,,,,,,,,,,,,,,,,,,,,,,,,,,,,,,,,,,,,,,,,,,,,,,,,,,,,,,,,,,,,,,,,,,,,,,
1725717276.59263,1725717276.595126,176.0,0.0,4396.410156,4250.256348,4279.487305,4361.666504,4232.307617,4168.589844,4004.615479,4278.205078,4260.512695,4245.769043,4486.538574,4520.769043,4382.307617,4425.641113,3423.0,0.0,11.0,,,,0.0,4.0,4.0,4.0,4.0,4.0,4.0,4.0,4.0,4.0,4.0,4.0,4.0,4.0,4.0,100.0,,,,,,,,,,,,,,,,,,,,,,,,,,,,,,,,,,,,,,,,,,,,,,,,,,,,,,,,,,,,,,,,,,,,,,,,,,,,,,,,,,,,,,,,,,,,,,,,,,,,,,,,,,,,,,,,,,,,,,,,,,,,,,,,,,,
1725717276.596534,1725717276.59893,177.0,0.0,4395.256348,4249.487305,4280.0,4361.794922,4232.05127,4167.179688,4004.615479,4279.871582,4261.538574,4245.512695,4486.922852,4520.769043,4381.666504,4426.410156,3849.0,0.0,11.0,,,,0.0,4.0,4.0,4.0,4.0,4.0,4.0,4.0,4.0,4.0,4.0,4.0,4.0,4.0,4.0,100.0,,,,,,,,,,,,,,,,,,,,,,,,,,,,,,,,,,,,,,,,,,,,,,,,,,,,,,,,,,,,,,,,,,,,,,,,,,,,,,,,,,,,,,,,,,,,,,,,,,,,,,,,,,,,,,,,,,,,,,,,,,,,,,,,,,,
1725717276.600438,1725717276.602834,178.0,0.0,4394.615234,4250.512695,4280.512695,4362.820313,4231.922852,4166.794922,4005.128174,4284.487305,4263.717773,4243.974121,4491.538574,4524.743652,4381.666504,4430.0,2894.0,0.0,11.0,,,,0.0,4.0,4.0,4.0,4.0,4.0,4.0,4.0,4.0,4.0,4.0,4.0,4.0,4.0,4.0,100.0,,,,,,,,,,,,,,,,,,,,,,,,,,,,,,,,,,,,,,,,,,,,,,,,,,,,,,,,,,,,,,,,,,,,,,,,,,,,,,,,,,,,,,,,,,,,,,,,,,,,,,,,,,,,,,,,,,,,,,,,,,,,,,,,,,,
1725717276.604342,1725717276.606738,179.0,0.0,4394.743652,4253.205078,4280.512695,4364.615234,4232.307617,4167.436035,4004.102539,4289.230957,4265.769043,4243.461426,4497.692383,4531.153809,4382.820313,4434.487305,3114.0,0.0,11.0,,,,0.0,4.0,4.0,4.0,4.0,4.0,4.0,4.0,4.0,4.0,4.0,4.0,4.0,4.0,4.0,100.0,,,,,,,,,,,,,,,,,,,,,,,,,,,,,,,,,,,,,,,,,,,,,,,,,,,,,,,,,,,,,,,,,,,,,,,,,,,,,,,,,,,,,,,,,,,,,,,,,,,,,,,,,,,,,,,,,,,,,,,,,,,,,,,,,,,
1725717276.608246,1725717276.610642,180.0,0.0,4395.769043,4256.025879,4280.512695,4366.410156,4232.820313,4168.717773,4000.897461,4291.666504,4266.538574,4245.384766,4503.077148,4537.436035,4385.641113,4438.589844,3423.0,0.0,11.0,,,,0.0,4.0,4.0,4.0,4.0,4.0,4.0,4.0,4.0,4.0,4.0,4.0,4.0,4.0,4.0,100.0,1.0,58.333332,4.0,3.0,4.0,3.0,4.0,4.0,1.0,4.0,4.0,4.0,4.0,4.0,4.0,4.0,1.0,0.0,0.0,,,,,,,,,,,,,,,,,,,,,,,,,,,,,,,,,,,,,0.0,0.0,1.0,0.0,1.0,0.0,2.624989,1.990549,0.713233,0.222844,0.068556,2.78735,1.128558,0.707957,0.246498,0.089815,2.456599,1.930406,0.670746,0.107652,0.086554,2.662245,1.259283,0.552463,0.171465,0.134818,0.745829,0.884536,0.328941,0.085944,0.054624,0.255972,0.749415,0.654599,0.07623,0.113216,12.323439,0.966224,0.514028,0.154584,0.095562,0.509025,3.255167,1.266549,0.48293,0.170317,1.363513,1.881757,0.721862,0.289156,0.095095,2.495502,2.052354,0.70257,0.298153,0.24001,4.998346,3.67114,0.972568,0.414383,0.525843,4.056467,4.329885,1.505321,0.424217,0.303108,4.350504,3.042547,1.78507,0.461023,0.172415,3.926526,3.411731,1.176107,0.247232,0.1903
1725717276.61215,1725717276.614447,181.0,0.0,4397.692383,4256.794922,4280.897461,4367.179688,4232.820313,4169.615234,3996.281982,4291.282227,4266.153809,4248.461426,4506.538574,4541.153809,4389.487305,4441.538574,3849.0,0.0,11.0,,,,0.0,4.0,4.0,4.0,4.0,4.0,4.0,4.0,4.0,4.0,4.0,4.0,4.0,4.0,4.0,100.0,,,,,,,,,,,,,,,,,,,,,,,,,,,,,,,,,,,,,,,,,,,,,,,,,,,,,,,,,,,,,,,,,,,,,,,,,,,,,,,,,,,,,,,,,,,,,,,,,,,,,,,,,,,,,,,,,,,,,,,,,,,,,,,,,,,
1725717276.616054,1725717276.618351,182.0,0.0,4400.256348,4254.487305,4282.179688,4366.794922,4232.179688,4169.358887,3992.05127,4290.0,4266.025879,4250.128418,4508.461426,4541.282227,4392.820313,4443.461426,2894.0,0.0,11.0,,,,0.0,4.0,4.0,4.0,4.0,4.0,4.0,4.0,4.0,4.0,4.0,4.0,4.0,4.0,4.0,100.0,,,,,,,,,,,,,,,,,,,,,,,,,,,,,,,,,,,,,,,,,,,,,,,,,,,,,,,,,,,,,,,,,,,,,,,,,,,,,,,,,,,,,,,,,,,,,,,,,,,,,,,,,,,,,,,,,,,,,,,,,,,,,,,,,,,
1725717276.619958,1725717276.622255,183.0,0.0,4403.077148,4250.128418,4284.230957,4366.025879,4231.025879,4167.94873,3989.743652,4290.0,4267.307617,4249.871582,4509.615234,4538.846191,4393.846191,4444.615234,3114.0,0.0,11.0,,,,0.0,4.0,4.0,4.0,4.0,4.0,4.0,4.0,4.0,4.0,4.0,4.0,4.0,4.0,4.0,100.0,,,,,,,,,,,,,,,,,,,,,,,,,,,,,,,,,,,,,,,,,,,,,,,,,,,,,,,,,,,,,,,,,,,,,,,,,,,,,,,,,,,,,,,,,,,,,,,,,,,,,,,,,,,,,,,,,,,,,,,,,,,,,,,,,,,
1725717276.623862,1725717276.626059,184.0,0.0,4404.871582,4246.794922,4286.282227,4366.153809,4230.0,4166.410156,3989.615479,4292.563965,4270.512695,4248.974121,4510.897461,4536.794922,4392.307617,4444.871582,3423.0,0.0,11.0,,,,0.0,4.0,4.0,4.0,4.0,4.0,4.0,4.0,4.0,4.0,4.0,4.0,4.0,4.0,4.0,100.0,,,,,,,,,,,,,,,,,,,,,,,,,,,,,,,,,,,,,,,,,,,,,,,,,,,,,,,,,,,,,,,,,,,,,,,,,,,,,,,,,,,,,,,,,,,,,,,,,,,,,,,,,,,,,,,,,,,,,,,,,,,,,,,,,,,
1725717276.627766,1725717276.629963,185.0,0.0,4405.0,4247.05127,4287.692383,4367.563965,4229.871582,4166.538574,3989.871826,4297.692383,4274.102539,4249.230957,4511.666504,4537.563965,4389.358887,4444.230957,3849.0,0.0,11.0,,,,0.0,4.0,4.0,4.0,4.0,4.0,4.0,4.0,4.0,4.0,4.0,4.0,4.0,4.0,4.0,100.0,,,,,,,,,,,,,,,,,,,,,,,,,,,,,,,,,,,,,,,,,,,,,,,,,,,,,,,,,,,,,,,,,,,,,,,,,,,,,,,,,,,,,,,,,,,,,,,,,,,,,,,,,,,,,,,,,,,,,,,,,,,,,,,,,,,
1725717276.631671,1725717276.633867,186.0,0.0,4403.461426,4250.769043,4287.94873,4369.230957,4231.153809,4168.846191,3988.589844,4303.205078,4276.282227,4250.128418,4510.769043,4540.384766,4386.410156,4442.179688,2894.0,0.0,11.0,,,,0.0,4.0,4.0,4.0,4.0,4.0,4.0,4.0,4.0,4.0,4.0,4.0,4.0,4.0,4.0,100.0,,,,,,,,,,,,,,,,,,,,,,,,,,,,,,,,,,,,,,,,,,,,,,,,,,,,,,,,,,,,,,,,,,,,,,,,,,,,,,,,,,,,,,,,,,,,,,,,,,,,,,,,,,,,,,,,,,,,,,,,,,,,,,,,,,,
1725717276.635575,1725717276.637871,187.0,0.0,4400.897461,4255.512695,4287.05127,4369.743652,4233.333496,4172.05127,3985.128174,4306.538574,4275.512695,4249.487305,4506.538574,4541.922852,4384.487305,4438.846191,3114.0,0.0,11.0,,,,0.0,4.0,4.0,4.0,4.0,4.0,4.0,4.0,4.0,4.0,4.0,4.0,4.0,4.0,4.0,100.0,,,,,,,,,,,,,,,,,,,,,,,,,,,,,,,,,,,,,,,,,,,,,,,,,,,,,,,,,,,,,,,,,,,,,,,,,,,,,,,,,,,,,,,,,,,,,,,,,,,,,,,,,,,,,,,,,,,,,,,,,,,,,,,,,,,
1725717276.639479,1725717276.641775,188.0,0.0,4398.333496,4257.820313,4285.384766,4368.205078,4234.615234,4173.077148,3980.641113,4305.0,4271.794922,4245.641113,4499.230957,4539.487305,4383.589844,4434.743652,3423.0,0.0,11.0,,,,0.0,4.0,4.0,4.0,4.0,4.0,4.0,4.0,4.0,4.0,4.0,4.0,4.0,4.0,4.0,100.0,,,,,,,,,,,,,,,,,,,,,,,,,,,,,,,,,,,,,,,,,,,,,,,,,,,,,,,,0.0,0.0,1.0,0.0,1.0,0.0,,,,,,,,,,,,,,,,,,,,,,,,,,,,,,,,,,,,,,,,,,,,,,,,,,,,,,,,,,,,,,,,,,,,,,
1725717276.643383,1725717276.64568,189.0,0.0,4396.922852,4256.153809,4283.077148,4365.512695,4233.717773,4170.128418,3976.410156,4298.077148,4267.179688,4240.128418,4491.538574,4534.230957,4383.077148,4431.153809,3849.0,0.0,11.0,,,,0.0,4.0,4.0,4.0,4.0,4.0,4.0,4.0,4.0,4.0,4.0,4.0,4.0,4.0,4.0,100.0,,,,,,,,,,,,,,,,,,,,,,,,,,,,,,,,,,,,,,,,,,,,,,,,,,,,,,,,,,,,,,,,,,,,,,,,,,,,,,,,,,,,,,,,,,,,,,,,,,,,,,,,,,,,,,,,,,,,,,,,,,,,,,,,,,,
1725717276.647287,1725717276.649584,190.0,0.0,4397.05127,4251.282227,4280.897461,4363.205078,4230.897461,4164.230957,3973.076904,4288.205078,4263.717773,4236.666504,4487.436035,4528.974121,4382.179688,4428.717773,2894.0,0.0,11.0,,,,0.0,4.0,4.0,4.0,4.0,4.0,4.0,4.0,4.0,4.0,4.0,4.0,4.0,4.0,4.0,100.0,,,,,,,,,,,,,,,,,,,,,,,,,,,,,,,,,,,,,,,,,,,,,,,,,,,,,,,,,,,,,,,,,,,,,,,,,,,,,,,,,,,,,,,,,,,,,,,,,,,,,,,,,,,,,,,,,,,,,,,,,,,,,,,,,,,
1725717276.651191,1725717276.653488,191.0,0.0,4398.333496,4246.666504,4279.615234,4362.307617,4227.563965,4158.846191,3970.384521,4279.871582,4262.94873,4237.563965,4488.846191,4527.05127,4380.897461,4428.077148,3114.0,0.0,11.0,,,,0.0,4.0,4.0,4.0,4.0,4.0,4.0,4.0,4.0,4.0,4.0,4.0,4.0,4.0,4.0,100.0,,,,,,,,,,,,,,,,,,,,,,,,,,,,,,,,,,,,,,,,,,,,,,,,,,,,,,,,,,,,,,,,,,,,,,,,,,,,,,,,,,,,,,,,,,,,,,,,,,,,,,,,,,,,,,,,,,,,,,,,,,,,,,,,,,,
1725717276.655095,1725717276.657292,192.0,0.0,4399.230957,4245.512695,4280.256348,4362.820313,4224.743652,4157.307617,3967.820557,4277.820313,4264.615234,4241.538574,4493.717773,4530.128418,4379.871582,4429.230957,3423.0,0.0,11.0,,,,0.0,4.0,4.0,4.0,4.0,4.0,4.0,4.0,4.0,4.0,4.0,4.0,4.0,4.0,4.0,100.0,,,,,,,,,,,,,,,,,,,,,,,,,,,,,,,,,,,,,,,,,,,,,,,,,,,,,,,,,,,,,,,,,,,,,,,,,,,,,,,,,,,,,,,,,,,,,,,,,,,,,,,,,,,,,,,,,,,,,,,,,,,,,,,,,,,
1725717276.658999,1725717276.661196,193.0,0.0,4399.102539,4248.333496,4282.179688,4364.487305,4223.205078,4160.512695,3965.0,4283.461426,4267.307617,4245.128418,4497.307617,4537.179688,4379.871582,4431.410156,3849.0,0.0,11.0,,,,0.0,4.0,4.0,4.0,4.0,4.0,4.0,4.0,4.0,4.0,4.0,4.0,4.0,4.0,4.0,100.0,,,,,,,,,,,,,,,,,,,,,,,,,,,,,,,,,,,,,,,,,,,,,,,,,,,,,,,,,,,,,,,,,,,,,,,,,,,,,,,,,,,,,,,,,,,,,,,,,,,,,,,,,,,,,,,,,,,,,,,,,,,,,,,,,,,
1725717276.662903,1725717276.6651,194.0,0.0,4398.333496,4253.205078,4284.615234,4366.794922,4223.205078,4166.153809,3962.179443,4294.102539,4269.615234,4246.666504,4496.025879,4544.871582,4381.025879,4433.846191,2894.0,0.0,11.0,,,,0.0,4.0,4.0,4.0,4.0,4.0,4.0,4.0,4.0,4.0,4.0,4.0,4.0,4.0,4.0,100.0,,,,,,,,,,,,,,,,,,,,,,,,,,,,,,,,,,,,,,,,,,,,,,,,,,,,,,,,,,,,,,,,,,,,,,,,,,,,,,,,,,,,,,,,,,,,,,,,,,,,,,,,,,,,,,,,,,,,,,,,,,,,,,,,,,,
1725717276.666808,1725717276.669104,195.0,0.0,4398.077148,4257.179688,4286.538574,4368.589844,4224.743652,4170.641113,3960.641113,4303.589844,4270.897461,4247.179688,4490.641113,4549.102539,4382.692383,4435.512695,3114.0,0.0,11.0,,,,0.0,4.0,4.0,4.0,4.0,4.0,4.0,4.0,4.0,4.0,4.0,4.0,4.0,4.0,4.0,100.0,,,,,,,,,,,,,,,,,,,,,,,,,,,,,,,,,,,,,,,,,,,,,,,,,,,,,,,,,,,,,,,,,,,,,,,,,,,,,,,,,,,,,,,,,,,,,,,,,,,,,,,,,,,,,,,,,,,,,,,,,,,,,,,,,,,
1725717276.670712,1725717276.673008,196.0,0.0,4398.974121,4258.077148,4287.307617,4368.589844,4227.179688,4171.666504,3960.641113,4306.410156,4270.769043,4248.461426,4485.384766,4547.436035,4383.461426,4436.025879,3423.0,0.0,11.0,,,,0.0,4.0,4.0,4.0,4.0,4.0,4.0,4.0,4.0,4.0,4.0,4.0,4.0,4.0,4.0,100.0,,,,,,,,,,,,,,,,,,,,,,,,,,,,,,,,,,,,,,,,,,,,,,,,,,,,,,,,0.0,0.0,1.0,0.0,1.0,0.0,,,,,,,,,,,,,,,,,,,,,,,,,,,,,,,,,,,,,,,,,,,,,,,,,,,,,,,,,,,,,,,,,,,,,,
1725717276.674616,1725717276.676912,197.0,0.0,4400.128418,4255.897461,4286.666504,4366.025879,4229.358887,4169.743652,3960.769287,4300.769043,4269.230957,4250.769043,4483.589844,4540.384766,4382.05127,4434.487305,3849.0,0.0,11.0,,,,0.0,4.0,4.0,4.0,4.0,4.0,4.0,4.0,4.0,4.0,4.0,4.0,4.0,4.0,4.0,100.0,,,,,,,,,,,,,,,,,,,,,,,,,,,,,,,,,,,,,,,,,,,,,,,,,,,,,,,,,,,,,,,,,,,,,,,,,,,,,,,,,,,,,,,,,,,,,,,,,,,,,,,,,,,,,,,,,,,,,,,,,,,,,,,,,,,
1725717276.67852,1725717276.680816,198.0,0.0,4400.256348,4252.179688,4284.487305,4361.922852,4230.512695,4167.179688,3960.128174,4289.871582,4266.538574,4251.410156,4486.153809,4530.641113,4378.717773,4431.282227,2894.0,0.0,11.0,,,,0.0,4.0,4.0,4.0,4.0,4.0,4.0,4.0,4.0,4.0,4.0,4.0,4.0,4.0,4.0,100.0,,,,,,,,,,,,,,,,,,,,,,,,,,,,,,,,,,,,,,,,,,,,,,,,,,,,,,,,,,,,,,,,,,,,,,,,,,,,,,,,,,,,,,,,,,,,,,,,,,,,,,,,,,,,,,,,,,,,,,,,,,,,,,,,,,,
1725717276.682424,1725717276.684721,199.0,0.0,4398.974121,4249.487305,4282.05127,4358.333496,4230.512695,4165.897461,3958.974365,4279.871582,4263.846191,4248.077148,4490.769043,4522.563965,4374.743652,4428.077148,3114.0,0.0,11.0,,,,0.0,4.0,4.0,4.0,4.0,4.0,4.0,4.0,4.0,4.0,4.0,4.0,4.0,4.0,4.0,100.0,,,,,,,,,,,,,,,,,,,,,,,,,,,,,,,,,,,,,,,,,,,,,,,,,,,,,,,,,,,,,,,,,,,,,,,,,,,,,,,,,,,,,,,,,,,,,,,,,,,,,,,,,,,,,,,,,,,,,,,,,,,,,,,,,,,
1725717276.686328,1725717276.688525,200.0,0.0,4397.436035,4249.358887,4280.769043,4357.563965,4229.871582,4166.282227,3958.076904,4276.025879,4262.692383,4240.897461,4495.384766,4519.230957,4372.563965,4426.794922,3423.0,0.0,11.0,,,,0.0,4.0,4.0,4.0,4.0,4.0,4.0,4.0,4.0,4.0,4.0,4.0,4.0,4.0,4.0,100.0,,,,,,,,,,,,,,,,,,,,,,,,,,,,,,,,,,,,,,,,,,,,,,,,,,,,,,,,,,,,,,,,,,,,,,,,,,,,,,,,,,,,,,,,,,,,,,,,,,,,,,,,,,,,,,,,,,,,,,,,,,,,,,,,,,,
1725717276.690232,1725717276.692429,201.0,0.0,4397.05127,4251.282227,4281.282227,4360.0,4229.487305,4167.692383,3957.820557,4279.615234,4263.589844,4233.333496,4498.077148,4521.025879,4373.205078,4428.205078,3849.0,0.0,11.0,,,,0.0,4.0,4.0,4.0,4.0,4.0,4.0,4.0,4.0,4.0,4.0,4.0,4.0,4.0,4.0,100.0,,,,,,,,,,,,,,,,,,,,,,,,,,,,,,,,,,,,,,,,,,,,,,,,,,,,,,,,,,,,,,,,,,,,,,,,,,,,,,,,,,,,,,,,,,,,,,,,,,,,,,,,,,,,,,,,,,,,,,,,,,,,,,,,,,,
1725717276.694136,1725717276.696333,202.0,0.0,4397.820313,4253.461426,4282.436035,4363.974121,4229.871582,4169.102539,3957.94873,4287.436035,4265.769043,4229.615234,4497.692383,4525.384766,4375.128418,4430.256348,2894.0,0.0,11.0,,,,0.0,4.0,4.0,4.0,4.0,4.0,4.0,4.0,4.0,4.0,4.0,4.0,4.0,4.0,4.0,100.0,,,,,,,,,,,,,,,,,,,,,,,,,,,,,,,,,,,,,,,,,,,,,,,,,,,,,,,,,,,,,,,,,,,,,,,,,,,,,,,,,,,,,,,,,,,,,,,,,,,,,,,,,,,,,,,,,,,,,,,,,,,,,,,,,,,
1725717276.69804,1725717276.700237,203.0,0.0,4398.077148,4254.230957,4282.820313,4366.410156,4230.256348,4169.871582,3956.794922,4293.461426,4267.307617,4231.025879,4493.589844,4528.333496,4374.871582,4429.871582,3114.0,0.0,11.0,,,,0.0,4.0,4.0,4.0,4.0,4.0,4.0,4.0,4.0,4.0,4.0,4.0,4.0,4.0,4.0,100.0,,,,,,,,,,,,,,,,,,,,,,,,,,,,,,,,,,,,,,,,,,,,,,,,,,,,,,,,,,,,,,,,,,,,,,,,,,,,,,,,,,,,,,,,,,,,,,,,,,,,,,,,,,,,,,,,,,,,,,,,,,,,,,,,,,,
1725717276.701944,1725717276.704041,204.0,0.0,4395.769043,4252.820313,4281.282227,4364.358887,4229.102539,4169.615234,3953.076904,4293.589844,4265.897461,4233.461426,4486.666504,4526.282227,4369.358887,4425.512695,3423.0,0.0,11.0,,,,0.0,4.0,4.0,4.0,4.0,4.0,4.0,4.0,4.0,4.0,4.0,4.0,4.0,4.0,4.0,100.0,,,,,,,,,,,,,,,,,,,,,,,,,,,,,,,,,,,,,,,,,,,,,,,,,,,,,,,,0.0,0.0,1.0,0.0,1.0,0.0,,,,,,,,,,,,,,,,,,,,,,,,,,,,,,,,,,,,,,,,,,,,,,,,,,,,,,,,,,,,,,,,,,,,,,
1725717276.705849,1725717276.707945,205.0,0.0,4389.487305,4248.461426,4277.05127,4357.307617,4224.871582,4168.077148,3947.05127,4287.94873,4260.897461,4231.410156,4478.974121,4517.94873,4358.717773,4417.692383,3849.0,0.0,11.0,,,,0.0,4.0,4.0,4.0,4.0,4.0,4.0,4.0,4.0,4.0,4.0,4.0,4.0,4.0,4.0,100.0,,,,,,,,,,,,,,,,,,,,,,,,,,,,,,,,,,,,,,,,,,,,,,,,,,,,,,,,,,,,,,,,,,,,,,,,,,,,,,,,,,,,,,,,,,,,,,,,,,,,,,,,,,,,,,,,,,,,,,,,,,,,,,,,,,,
1725717276.709753,1725717276.711849,206.0,0.0,4380.0,4241.410156,4270.128418,4346.538574,4217.820313,4165.0,3940.0,4280.256348,4253.205078,4221.922852,4472.179688,4504.743652,4344.871582,4407.820313,2894.0,0.0,11.0,,,,0.0,4.0,4.0,4.0,4.0,4.0,4.0,4.0,4.0,4.0,4.0,4.0,4.0,4.0,4.0,100.0,,,,,,,,,,,,,,,,,,,,,,,,,,,,,,,,,,,,,,,,,,,,,,,,,,,,,,,,,,,,,,,,,,,,,,,,,,,,,,,,,,,,,,,,,,,,,,,,,,,,,,,,,,,,,,,,,,,,,,,,,,,,,,,,,,,
1725717276.713657,1725717276.715754,207.0,0.0,4369.358887,4232.307617,4261.410156,4335.769043,4208.974121,4160.256348,3933.846191,4274.358887,4245.0,4207.820313,4465.0,4490.641113,4331.153809,4397.436035,3114.0,0.0,11.0,,,,0.0,4.0,4.0,4.0,4.0,4.0,4.0,4.0,4.0,4.0,4.0,4.0,4.0,4.0,4.0,100.0,,,,,,,,,,,,,,,,,,,,,,,,,,,,,,,,,,,,,,,,,,,,,,,,,,,,,,,,,,,,,,,,,,,,,,,,,,,,,,,,,,,,,,,,,,,,,,,,,,,,,,,,,,,,,,,,,,,,,,,,,,,,,,,,,,,
1725717276.717561,1725717276.719558,208.0,0.0,4360.512695,4223.205078,4252.94873,4327.820313,4200.641113,4154.871582,3929.230713,4271.666504,4239.102539,4195.256348,4455.0,4480.641113,4319.487305,4387.436035,3423.0,0.0,11.0,,,,0.0,4.0,4.0,4.0,4.0,4.0,4.0,4.0,4.0,4.0,4.0,4.0,4.0,4.0,4.0,100.0,,,,,,,,,,,,,,,,,,,,,,,,,,,,,,,,,,,,,,,,,,,,,,,,,,,,,,,,,,,,,,,,,,,,,,,,,,,,,,,,,,,,,,,,,,,,,,,,,,,,,,,,,,,,,,,,,,,,,,,,,,,,,,,,,,,
1725717276.721465,1725717276.723462,209.0,0.0,4355.256348,4216.410156,4246.922852,4324.230957,4196.153809,4150.641113,3926.410156,4271.282227,4236.922852,4189.102539,4442.563965,4477.692383,4311.794922,4379.487305,3849.0,0.0,11.0,,,,0.0,4.0,4.0,4.0,4.0,4.0,4.0,4.0,4.0,4.0,4.0,4.0,4.0,4.0,4.0,100.0,,,,,,,,,,,,,,,,,,,,,,,,,,,,,,,,,,,,,,,,,,,,,,,,,,,,,,,,,,,,,,,,,,,,,,,,,,,,,,,,,,,,,,,,,,,,,,,,,,,,,,,,,,,,,,,,,,,,,,,,,,,,,,,,,,,
1725717276.725369,1725717276.727366,210.0,0.0,4354.102539,4213.846191,4245.128418,4324.230957,4196.666504,4148.846191,3925.384521,4272.692383,4238.974121,4191.282227,4432.94873,4481.922852,4309.230957,4375.897461,2894.0,0.0,11.0,,,,0.0,4.0,4.0,4.0,4.0,4.0,4.0,4.0,4.0,4.0,4.0,4.0,4.0,4.0,4.0,100.0,,,,,,,,,,,,,,,,,,,,,,,,,,,,,,,,,,,,,,,,,,,,,,,,,,,,,,,,,,,,,,,,,,,,,,,,,,,,,,,,,,,,,,,,,,,,,,,,,,,,,,,,,,,,,,,,,,,,,,,,,,,,,,,,,,,
1725717276.729273,1725717276.73117,211.0,0.0,4356.538574,4216.666504,4248.461426,4326.794922,4200.769043,4150.384766,3926.025635,4276.153809,4244.487305,4200.769043,4433.461426,4491.410156,4313.461426,4379.871582,3114.0,0.0,11.0,,,,0.0,4.0,4.0,4.0,4.0,4.0,4.0,4.0,4.0,4.0,4.0,4.0,4.0,4.0,4.0,100.0,,,,,,,,,,,,,,,,,,,,,,,,,,,,,,,,,,,,,,,,,,,,,,,,,,,,,,,,,,,,,,,,,,,,,,,,,,,,,,,,,,,,,,,,,,,,,,,,,,,,,,,,,,,,,,,,,,,,,,,,,,,,,,,,,,,
1725717276.733177,1725717276.735074,212.0,0.0,4362.05127,4224.487305,4255.641113,4332.179688,4205.384766,4154.871582,3928.461426,4282.436035,4252.563965,4214.487305,4447.563965,4503.846191,4325.128418,4392.307617,3423.0,0.0,11.0,,,,0.0,4.0,4.0,4.0,4.0,4.0,4.0,4.0,4.0,4.0,4.0,4.0,4.0,4.0,4.0,100.0,,,,,,,,,,,,,,,,,1.0,0.0,0.0,,,,,,,,,,,,,,,,,,,,,,,,,,,,,,,,,,,,,0.0,0.0,1.0,0.0,1.0,0.0,2.71681,1.924692,0.768291,0.235815,0.066247,2.733997,1.150074,0.698602,0.263526,0.090808,2.602659,1.84955,0.708763,0.125624,0.090611,2.910216,1.210415,0.592681,0.190118,0.128113,0.757978,0.900171,0.309867,0.085847,0.052316,0.221404,0.687593,0.638772,0.080725,0.113113,10.471101,0.959259,0.485199,0.136834,0.08462,0.520992,2.469807,1.19801,0.455467,0.163974,1.303958,1.734212,0.770204,0.318482,0.099259,2.487384,2.103431,0.765642,0.3529,0.226404,4.960568,3.494795,1.048612,0.437834,0.524066,4.129891,4.019957,1.604774,0.470631,0.275413,4.462312,3.147751,1.92652,0.515432,0.168968,4.140301,3.409261,1.334696,0.29043,0.182895
1725717276.737081,1725717276.738978,213.0,0.0,4370.769043,4235.384766,4264.743652,4341.410156,4209.102539,4161.282227,3932.820557,4291.666504,4262.307617,4228.974121,4472.436035,4517.179688,4342.820313,4410.897461,3849.0,0.0,11.0,,,,0.0,4.0,4.0,4.0,4.0,4.0,4.0,4.0,4.0,4.0,4.0,4.0,4.0,4.0,4.0,100.0,,,,,,,,,,,,,,,,,,,,,,,,,,,,,,,,,,,,,,,,,,,,,,,,,,,,,,,,,,,,,,,,,,,,,,,,,,,,,,,,,,,,,,,,,,,,,,,,,,,,,,,,,,,,,,,,,,,,,,,,,,,,,,,,,,,
1725717276.740985,1725717276.742982,214.0,0.0,4382.692383,4247.692383,4273.717773,4354.358887,4212.94873,4167.436035,3938.974365,4301.282227,4271.922852,4241.025879,4499.102539,4529.358887,4362.563965,4430.0,2894.0,0.0,11.0,,,,0.0,4.0,4.0,4.0,4.0,4.0,4.0,4.0,4.0,4.0,4.0,4.0,4.0,4.0,4.0,100.0,,,,,,,,,,,,,,,,,,,,,,,,,,,,,,,,,,,,,,,,,,,,,,,,,,,,,,,,,,,,,,,,,,,,,,,,,,,,,,,,,,,,,,,,,,,,,,,,,,,,,,,,,,,,,,,,,,,,,,,,,,,,,,,,,,,
1725717276.744889,1725717276.746887,215.0,0.0,4396.025879,4259.743652,4281.922852,4368.333496,4217.436035,4171.153809,3946.025635,4307.436035,4279.358887,4248.461426,4517.436035,4538.461426,4379.358887,4444.487305,3114.0,0.0,11.0,,,,0.0,4.0,4.0,4.0,4.0,4.0,4.0,4.0,4.0,4.0,4.0,4.0,4.0,4.0,4.0,100.0,,,,,,,,,,,,,,,,,,,,,,,,,,,,,,,,,,,,,,,,,,,,,,,,,,,,,,,,,,,,,,,,,,,,,,,,,,,,,,,,,,,,,,,,,,,,,,,,,,,,,,,,,,,,,,,,,,,,,,,,,,,,,,,,,,,
1725717276.748793,1725717276.750791,216.0,0.0,4407.563965,4270.384766,4288.974121,4379.230957,4222.436035,4171.666504,3952.05127,4307.307617,4282.307617,4251.538574,4522.05127,4543.846191,4389.615234,4451.410156,3423.0,0.0,11.0,,,,0.0,4.0,4.0,4.0,4.0,4.0,4.0,4.0,4.0,4.0,4.0,4.0,4.0,4.0,4.0,100.0,,,,,,,,,,,,,,,,,,,,,,,,,,,,,,,,,,,,,,,,,,,,,,,,,,,,,,,,,,,,,,,,,,,,,,,,,,,,,,,,,,,,,,,,,,,,,,,,,,,,,,,,,,,,,,,,,,,,,,,,,,,,,,,,,,,
1725717276.752698,1725717276.754695,217.0,0.0,4414.487305,4277.94873,4293.846191,4384.102539,4225.897461,4169.871582,3955.128174,4301.282227,4280.0,4251.922852,4515.512695,4545.641113,4392.179688,4451.666504,3849.0,0.0,11.0,,,,0.0,4.0,4.0,4.0,4.0,4.0,4.0,4.0,4.0,4.0,4.0,4.0,4.0,4.0,4.0,100.0,,,,,,,,,,,,,,,,,,,,,,,,,,,,,,,,,,,,,,,,,,,,,,,,,,,,,,,,,,,,,,,,,,,,,,,,,,,,,,,,,,,,,,,,,,,,,,,,,,,,,,,,,,,,,,,,,,,,,,,,,,,,,,,,,,,
1725717276.756602,1725717276.758599,218.0,0.0,4415.897461,4281.153809,4296.025879,4382.563965,4226.794922,4167.307617,3954.230713,4293.589844,4273.974121,4251.538574,4506.282227,4544.487305,4389.230957,4448.974121,2894.0,0.0,11.0,,,,0.0,4.0,4.0,4.0,4.0,4.0,4.0,4.0,4.0,4.0,4.0,4.0,4.0,4.0,4.0,100.0,,,,,,,,,,,,,,,,,,,,,,,,,,,,,,,,,,,,,,,,,,,,,,,,,,,,,,,,,,,,,,,,,,,,,,,,,,,,,,,,,,,,,,,,,,,,,,,,,,,,,,,,,,,,,,,,,,,,,,,,,,,,,,,,,,,
1725717276.760506,1725717276.762403,219.0,0.0,4413.205078,4280.256348,4296.153809,4377.692383,4224.743652,4165.512695,3950.256348,4288.974121,4267.692383,4251.025879,4502.563965,4542.05127,4384.615234,4446.538574,3114.0,0.0,11.0,,,,0.0,4.0,4.0,4.0,4.0,4.0,4.0,4.0,4.0,4.0,4.0,4.0,4.0,4.0,4.0,100.0,,,,,,,,,,,,,,,,,,,,,,,,,,,,,,,,,,,,,,,,,,,,,,,,,,,,,,,,,,,,,,,,,,,,,,,,,,,,,,,,,,,,,,,,,,,,,,,,,,,,,,,,,,,,,,,,,,,,,,,,,,,,,,,,,,,
1725717276.76441,1725717276.766307,220.0,0.0,4408.846191,4277.05127,4295.769043,4373.333496,4221.153809,4164.743652,3945.641113,4289.743652,4263.974121,4249.743652,4506.025879,4540.256348,4381.282227,4446.025879,3423.0,0.0,11.0,,,,0.0,4.0,4.0,4.0,4.0,4.0,4.0,4.0,4.0,4.0,4.0,4.0,4.0,4.0,4.0,100.0,,,,,,,,,,,,,,,,,,,,,,,,,,,,,,,,,,,,,,,,,,,,,,,,,,,,,,,,0.0,0.0,1.0,0.0,1.0,0.0,,,,,,,,,,,,,,,,,,,,,,,,,,,,,,,,,,,,,,,,,,,,,,,,,,,,,,,,,,,,,,,,,,,,,,
1725717276.768314,1725717276.770211,221.0,0.0,4404.871582,4273.717773,4295.769043,4372.179688,4218.077148,4164.743652,3942.692383,4293.974121,4263.846191,4246.794922,4511.538574,4540.128418,4380.641113,4446.538574,3849.0,0.0,11.0,,,,0.0,4.0,4.0,4.0,4.0,4.0,4.0,4.0,4.0,4.0,4.0,4.0,4.0,4.0,4.0,100.0,,,,,,,,,,,,,,,,,,,,,,,,,,,,,,,,,,,,,,,,,,,,,,,,,,,,,,,,,,,,,,,,,,,,,,,,,,,,,,,,,,,,,,,,,,,,,,,,,,,,,,,,,,,,,,,,,,,,,,,,,,,,,,,,,,,
1725717276.772218,1725717276.774215,222.0,0.0,4402.436035,4271.666504,4295.641113,4374.102539,4217.179688,4163.974121,3942.820557,4297.692383,4265.641113,4242.563965,4512.820313,4541.410156,4381.410156,4447.05127,2894.0,0.0,11.0,,,,0.0,4.0,4.0,4.0,4.0,4.0,4.0,4.0,4.0,4.0,4.0,4.0,4.0,4.0,4.0,100.0,,,,,,,,,,,,,,,,,,,,,,,,,,,,,,,,,,,,,,,,,,,,,,,,,,,,,,,,,,,,,,,,,,,,,,,,,,,,,,,,,,,,,,,,,,,,,,,,,,,,,,,,,,,,,,,,,,,,,,,,,,,,,,,,,,,
1725717276.776122,1725717276.778119,223.0,0.0,4401.282227,4270.641113,4294.358887,4376.922852,4218.077148,4161.538574,3944.230713,4297.692383,4266.794922,4237.94873,4507.94873,4542.307617,4381.922852,4446.794922,3114.0,0.0,11.0,,,,0.0,4.0,4.0,4.0,4.0,4.0,4.0,4.0,4.0,4.0,4.0,4.0,4.0,4.0,4.0,100.0,,,,,,,,,,,,,,,,,,,,,,,,,,,,,,,,,,,,,,,,,,,,,,,,,,,,,,,,,,,,,,,,,,,,,,,,,,,,,,,,,,,,,,,,,,,,,,,,,,,,,,,,,,,,,,,,,,,,,,,,,,,,,,,,,,,
1725717276.780026,1725717276.782023,224.0,0.0,4400.512695,4269.743652,4291.025879,4377.563965,4219.102539,4158.333496,3943.974365,4294.358887,4265.641113,4234.230957,4499.743652,4540.897461,4381.282227,4446.153809,3423.0,0.0,11.0,,,,0.0,4.0,4.0,4.0,4.0,4.0,4.0,4.0,4.0,4.0,4.0,4.0,4.0,4.0,4.0,100.0,,,,,,,,,,,,,,,,,,,,,,,,,,,,,,,,,,,,,,,,,,,,,,,,,,,,,,,,,,,,,,,,,,,,,,,,,,,,,,,,,,,,,,,,,,,,,,,,,,,,,,,,,,,,,,,,,,,,,,,,,,,,,,,,,,,
1725717276.78393,1725717276.785928,225.0,0.0,4399.487305,4268.461426,4286.025879,4374.230957,4218.589844,4155.641113,3939.743652,4290.512695,4262.563965,4231.922852,4493.333496,4536.282227,4379.230957,4444.743652,3849.0,0.0,11.0,,,,0.0,4.0,4.0,4.0,4.0,4.0,4.0,4.0,4.0,4.0,4.0,4.0,4.0,4.0,4.0,100.0,,,,,,,,,,,,,,,,,,,,,,,,,,,,,,,,,,,,,,,,,,,,,,,,,,,,,,,,,,,,,,,,,,,,,,,,,,,,,,,,,,,,,,,,,,,,,,,,,,,,,,,,,,,,,,,,,,,,,,,,,,,,,,,,,,,
1725717276.787835,1725717276.789832,226.0,0.0,4397.94873,4266.922852,4280.897461,4368.333496,4216.538574,4154.487305,3932.692383,4288.974121,4259.871582,4231.410156,4491.025879,4530.0,4376.025879,4442.436035,2894.0,0.0,11.0,,,,0.0,4.0,4.0,4.0,4.0,4.0,4.0,4.0,4.0,4.0,4.0,4.0,4.0,4.0,4.0,100.0,,,,,,,,,,,,,,,,,,,,,,,,,,,,,,,,,,,,,,,,,,,,,,,,,,,,,,,,,,,,,,,,,,,,,,,,,,,,,,,,,,,,,,,,,,,,,,,,,,,,,,,,,,,,,,,,,,,,,,,,,,,,,,,,,,,
1725717276.791739,1725717276.793636,227.0,0.0,4395.769043,4265.769043,4278.205078,4363.077148,4214.102539,4154.358887,3926.153809,4290.384766,4259.358887,4232.307617,4491.538574,4524.871582,4372.05127,4438.974121,3114.0,0.0,11.0,,,,0.0,4.0,4.0,4.0,4.0,4.0,4.0,4.0,4.0,4.0,4.0,4.0,4.0,4.0,4.0,100.0,,,,,,,,,,,,,,,,,,,,,,,,,,,,,,,,,,,,,,,,,,,,,,,,,,,,,,,,,,,,,,,,,,,,,,,,,,,,,,,,,,,,,,,,,,,,,,,,,,,,,,,,,,,,,,,,,,,,,,,,,,,,,,,,,,,
1725717276.795643,1725717276.79754,228.0,0.0,4393.205078,4264.615234,4278.461426,4361.282227,4212.692383,4154.358887,3923.718018,4292.436035,4261.282227,4234.487305,4492.179688,4522.692383,4367.692383,4434.615234,3423.0,0.0,11.0,,,,0.0,4.0,4.0,4.0,4.0,4.0,4.0,4.0,4.0,4.0,4.0,4.0,4.0,4.0,4.0,100.0,,,,,,,,,,,,,,,,,,,,,,,,,,,,,,,,,,,,,,,,,,,,,,,,,,,,,,,,0.0,0.0,1.0,0.0,1.0,0.0,,,,,,,,,,,,,,,,,,,,,,,,,,,,,,,,,,,,,,,,,,,,,,,,,,,,,,,,,,,,,,,,,,,,,,
1725717276.799547,1725717276.801444,229.0,0.0,4390.512695,4262.563965,4280.897461,4363.077148,4212.94873,4153.717773,3925.769287,4292.436035,4263.589844,4237.563965,4491.538574,4522.820313,4363.205078,4430.384766,3849.0,0.0,11.0,,,,0.0,4.0,4.0,4.0,4.0,4.0,4.0,4.0,4.0,4.0,4.0,4.0,4.0,4.0,4.0,100.0,,,,,,,,,,,,,,,,,,,,,,,,,,,,,,,,,,,,,,,,,,,,,,,,,,,,,,,,,,,,,,,,,,,,,,,,,,,,,,,,,,,,,,,,,,,,,,,,,,,,,,,,,,,,,,,,,,,,,,,,,,,,,,,,,,,
1725717276.803451,1725717276.805348,230.0,0.0,4388.077148,4259.358887,4282.563965,4365.769043,4213.846191,4152.563965,3929.487061,4289.358887,4264.230957,4241.153809,4490.0,4522.436035,4359.615234,4427.692383,2894.0,0.0,11.0,,,,0.0,4.0,4.0,4.0,4.0,4.0,4.0,4.0,4.0,4.0,4.0,4.0,4.0,4.0,4.0,100.0,,,,,,,,,,,,,,,,,,,,,,,,,,,,,,,,,,,,,,,,,,,,,,,,,,,,,,,,,,,,,,,,,,,,,,,,,,,,,,,,,,,,,,,,,,,,,,,,,,,,,,,,,,,,,,,,,,,,,,,,,,,,,,,,,,,
1725717276.807355,1725717276.809152,231.0,0.0,4386.153809,4255.897461,4281.922852,4366.282227,4214.102539,4151.025879,3931.281982,4284.487305,4262.692383,4243.461426,4488.333496,4519.358887,4358.077148,4427.179688,3114.0,0.0,11.0,,,,0.0,4.0,4.0,4.0,4.0,4.0,4.0,4.0,4.0,4.0,4.0,4.0,4.0,4.0,4.0,100.0,,,,,,,,,,,,,,,,,,,,,,,,,,,,,,,,,,,,,,,,,,,,,,,,,,,,,,,,,,,,,,,,,,,,,,,,,,,,,,,,,,,,,,,,,,,,,,,,,,,,,,,,,,,,,,,,,,,,,,,,,,,,,,,,,,,
1725717276.811259,1725717276.813057,232.0,0.0,4385.384766,4253.717773,4279.102539,4363.717773,4213.333496,4149.871582,3930.512939,4280.128418,4260.256348,4242.692383,4486.794922,4514.102539,4359.487305,4427.94873,3423.0,0.0,11.0,,,,0.0,4.0,4.0,4.0,4.0,4.0,4.0,4.0,4.0,4.0,4.0,4.0,4.0,4.0,4.0,100.0,,,,,,,,,,,,,,,,,,,,,,,,,,,,,,,,,,,,,,,,,,,,,,,,,,,,,,,,,,,,,,,,,,,,,,,,,,,,,,,,,,,,,,,,,,,,,,,,,,,,,,,,,,,,,,,,,,,,,,,,,,,,,,,,,,,
1725717276.815163,1725717276.816961,233.0,0.0,4385.512695,4254.102539,4276.025879,4360.128418,4212.563965,4149.487305,3929.230713,4277.820313,4258.461426,4238.589844,4485.384766,4509.102539,4362.820313,4428.333496,3849.0,0.0,11.0,,,,0.0,4.0,4.0,4.0,4.0,4.0,4.0,4.0,4.0,4.0,4.0,4.0,4.0,4.0,4.0,100.0,,,,,,,,,,,,,,,,,,,,,,,,,,,,,,,,,,,,,,,,,,,,,,,,,,,,,,,,,,,,,,,,,,,,,,,,,,,,,,,,,,,,,,,,,,,,,,,,,,,,,,,,,,,,,,,,,,,,,,,,,,,,,,,,,,,
1725717276.819067,1725717276.820865,234.0,0.0,4386.410156,4257.05127,4274.743652,4358.333496,4212.94873,4150.0,3930.0,4277.307617,4258.077148,4233.589844,4485.256348,4507.436035,4366.153809,4427.94873,2894.0,0.0,11.0,,,,0.0,4.0,4.0,4.0,4.0,4.0,4.0,4.0,4.0,4.0,4.0,4.0,4.0,4.0,4.0,100.0,,,,,,,,,,,,,,,,,,,,,,,,,,,,,,,,,,,,,,,,,,,,,,,,,,,,,,,,,,,,,,,,,,,,,,,,,,,,,,,,,,,,,,,,,,,,,,,,,,,,,,,,,,,,,,,,,,,,,,,,,,,,,,,,,,,
1725717276.822971,1725717276.824769,235.0,0.0,4387.692383,4261.282227,4276.025879,4359.871582,4214.102539,4151.153809,3933.846191,4277.820313,4259.230957,4231.410156,4487.563965,4510.256348,4368.205078,4427.94873,3114.0,0.0,11.0,,,,0.0,4.0,4.0,4.0,4.0,4.0,4.0,4.0,4.0,4.0,4.0,4.0,4.0,4.0,4.0,100.0,,,,,,,,,,,,,,,,,,,,,,,,,,,,,,,,,,,,,,,,,,,,,,,,,,,,,,,,,,,,,,,,,,,,,,,,,,,,,,,,,,,,,,,,,,,,,,,,,,,,,,,,,,,,,,,,,,,,,,,,,,,,,,,,,,,
1725717276.826876,1725717276.828673,236.0,0.0,4389.358887,4264.743652,4279.102539,4363.461426,4214.615234,4152.692383,3938.974365,4278.974121,4261.538574,4234.358887,4492.563965,4516.282227,4369.230957,4430.128418,3423.0,0.0,11.0,,,,0.0,4.0,4.0,4.0,4.0,4.0,4.0,4.0,4.0,4.0,4.0,4.0,4.0,4.0,4.0,100.0,,,,,,,,,,,,,,,,,,,,,,,,,,,,,,,,,,,,,,,,,,,,,,,,,,,,,,,,0.0,0.0,1.0,0.0,1.0,0.0,,,,,,,,,,,,,,,,,,,,,,,,,,,,,,,,,,,,,,,,,,,,,,,,,,,,,,,,,,,,,,,,,,,,,,
1725717276.83078,1725717276.832577,237.0,0.0,4391.153809,4265.769043,4282.179688,4366.666504,4214.230957,4154.230957,3942.564209,4281.410156,4264.230957,4241.153809,4498.717773,4522.692383,4370.641113,4434.615234,3849.0,0.0,11.0,,,,0.0,4.0,4.0,4.0,4.0,4.0,4.0,4.0,4.0,4.0,4.0,4.0,4.0,4.0,4.0,100.0,,,,,,,,,,,,,,,,,,,,,,,,,,,,,,,,,,,,,,,,,,,,,,,,,,,,,,,,,,,,,,,,,,,,,,,,,,,,,,,,,,,,,,,,,,,,,,,,,,,,,,,,,,,,,,,,,,,,,,,,,,,,,,,,,,,
1725717276.834684,1725717276.836381,238.0,0.0,4392.307617,4264.358887,4283.846191,4366.794922,4213.333496,4155.128418,3943.333252,4284.743652,4266.282227,4247.820313,4503.333496,4526.666504,4373.077148,4439.358887,2894.0,0.0,11.0,,,,0.0,4.0,4.0,4.0,4.0,4.0,4.0,4.0,4.0,4.0,4.0,4.0,4.0,4.0,4.0,100.0,,,,,,,,,,,,,,,,,,,,,,,,,,,,,,,,,,,,,,,,,,,,,,,,,,,,,,,,,,,,,,,,,,,,,,,,,,,,,,,,,,,,,,,,,,,,,,,,,,,,,,,,,,,,,,,,,,,,,,,,,,,,,,,,,,,
1725717276.838588,1725717276.840285,239.0,0.0,4392.179688,4262.307617,4283.589844,4363.589844,4212.820313,4155.384766,3941.923096,4287.563965,4266.794922,4250.641113,4504.615234,4527.307617,4375.769043,4441.666504,3114.0,0.0,11.0,,,,0.0,4.0,4.0,4.0,4.0,4.0,4.0,4.0,4.0,4.0,4.0,4.0,4.0,4.0,4.0,100.0,,,,,,,,,,,,,,,,,,,,,,,,,,,,,,,,,,,,,,,,,,,,,,,,,,,,,,,,,,,,,,,,,,,,,,,,,,,,,,,,,,,,,,,,,,,,,,,,,,,,,,,,,,,,,,,,,,,,,,,,,,,,,,,,,,,
1725717276.842492,1725717276.844189,240.0,0.0,4390.512695,4261.410156,4282.05127,4359.358887,4213.205078,4155.256348,3940.641113,4287.692383,4265.769043,4249.102539,4502.307617,4525.512695,4377.563965,4440.0,3423.0,0.0,11.0,,,,0.0,4.0,4.0,4.0,4.0,4.0,4.0,4.0,4.0,4.0,4.0,4.0,4.0,4.0,4.0,100.0,,,,,,,,,,,,,,,,,,,,,,,,,,,,,,,,,,,,,,,,,,,,,,,,,,,,,,,,,,,,,,,,,,,,,,,,,,,,,,,,,,,,,,,,,,,,,,,,,,,,,,,,,,,,,,,,,,,,,,,,,,,,,,,,,,,
1725717276.846396,1725717276.848193,241.0,0.0,4388.333496,4261.794922,4279.871582,4356.282227,4214.102539,4154.615234,3940.897461,4285.384766,4264.358887,4245.897461,4499.358887,4523.077148,4377.179688,4435.256348,3849.0,0.0,11.0,,,,0.0,4.0,4.0,4.0,4.0,4.0,4.0,4.0,4.0,4.0,4.0,4.0,4.0,4.0,4.0,100.0,,,,,,,,,,,,,,,,,,,,,,,,,,,,,,,,,,,,,,,,,,,,,,,,,,,,,,,,,,,,,,,,,,,,,,,,,,,,,,,,,,,,,,,,,,,,,,,,,,,,,,,,,,,,,,,,,,,,,,,,,,,,,,,,,,,
1725717276.8503,1725717276.852098,242.0,0.0,4386.794922,4262.436035,4278.205078,4355.512695,4214.102539,4153.717773,3941.794922,4283.205078,4264.102539,4244.871582,4498.717773,4521.922852,4375.256348,4430.384766,2894.0,0.0,11.0,,,,0.0,4.0,4.0,4.0,4.0,4.0,4.0,4.0,4.0,4.0,4.0,4.0,4.0,4.0,4.0,100.0,,,,,,,,,,,,,,,,,,,,,,,,,,,,,,,,,,,,,,,,,,,,,,,,,,,,,,,,,,,,,,,,,,,,,,,,,,,,,,,,,,,,,,,,,,,,,,,,,,,,,,,,,,,,,,,,,,,,,,,,,,,,,,,,,,,
1725717276.854204,1725717276.856002,243.0,0.0,4386.153809,4262.05127,4277.563965,4356.282227,4212.563965,4152.820313,3941.794922,4283.461426,4265.769043,4246.538574,4501.282227,4522.436035,4373.461426,4428.077148,3114.0,0.0,11.0,,,,0.0,4.0,4.0,4.0,4.0,4.0,4.0,4.0,4.0,4.0,4.0,4.0,4.0,4.0,4.0,100.0,,,,,,,,,,,,,,,,,,,,,,,,,,,,,,,,,,,,,,,,,,,,,,,,,,,,,,,,,,,,,,,,,,,,,,,,,,,,,,,,,,,,,,,,,,,,,,,,,,,,,,,,,,,,,,,,,,,,,,,,,,,,,,,,,,,
1725717276.858108,1725717276.859906,244.0,0.0,4386.410156,4260.897461,4277.692383,4356.794922,4210.0,4152.05127,3939.871826,4286.794922,4267.692383,4248.846191,4504.358887,4523.974121,4372.563965,4428.846191,3423.0,0.0,11.0,,,,0.0,4.0,4.0,4.0,4.0,4.0,4.0,4.0,4.0,4.0,4.0,4.0,4.0,4.0,4.0,100.0,,,,,,,,,,,,,,,,,1.0,0.0,0.0,,,,,,,,,,,,,,,,,,,,,,,,,,,,,,,,,,,,,0.0,0.0,1.0,0.0,1.0,0.0,2.59905,1.663435,0.728567,0.232499,0.067294,2.678289,1.099934,0.65275,0.275496,0.100231,2.532669,1.60252,0.665656,0.147735,0.097641,2.959388,1.049803,0.565279,0.200027,0.119873,0.719186,0.830555,0.273167,0.092422,0.050791,0.239393,0.596395,0.558212,0.088707,0.111336,8.213257,0.863152,0.424963,0.117436,0.071213,0.578061,1.709716,1.038607,0.403879,0.154033,1.203561,1.447368,0.742113,0.317565,0.109322,2.244949,1.92926,0.764071,0.379754,0.213656,4.488419,2.99404,1.017118,0.446119,0.520263,3.999077,3.35736,1.526784,0.496604,0.260174,4.147703,2.926811,1.84446,0.524484,0.163373,3.995373,3.060723,1.365797,0.327181,0.172528
1725717276.862013,1725717276.86381,245.0,0.0,4386.922852,4259.871582,4278.461426,4356.025879,4208.205078,4151.794922,3937.307617,4290.769043,4267.94873,4249.358887,4504.358887,4524.871582,4372.307617,4430.769043,3849.0,0.0,11.0,,,,0.0,4.0,4.0,4.0,4.0,4.0,4.0,4.0,4.0,4.0,4.0,4.0,4.0,4.0,4.0,100.0,,,,,,,,,,,,,,,,,,,,,,,,,,,,,,,,,,,,,,,,,,,,,,,,,,,,,,,,,,,,,,,,,,,,,,,,,,,,,,,,,,,,,,,,,,,,,,,,,,,,,,,,,,,,,,,,,,,,,,,,,,,,,,,,,,,
1725717276.865917,1725717276.867614,246.0,0.0,4387.94873,4259.487305,4279.743652,4354.358887,4208.846191,4152.179688,3936.281982,4292.563965,4265.128418,4246.922852,4500.512695,4524.487305,4371.153809,4432.05127,2894.0,0.0,11.0,,,,0.0,4.0,4.0,4.0,4.0,4.0,4.0,4.0,4.0,4.0,4.0,4.0,4.0,4.0,4.0,100.0,,,,,,,,,,,,,,,,,,,,,,,,,,,,,,,,,,,,,,,,,,,,,,,,,,,,,,,,,,,,,,,,,,,,,,,,,,,,,,,,,,,,,,,,,,,,,,,,,,,,,,,,,,,,,,,,,,,,,,,,,,,,,,,,,,,
1725717276.869821,1725717276.871518,247.0,0.0,4389.358887,4259.743652,4281.282227,4353.333496,4212.179688,4153.205078,3938.076904,4290.641113,4260.128418,4242.05127,4494.743652,4522.94873,4368.589844,4431.794922,3114.0,0.0,11.0,,,,0.0,4.0,4.0,4.0,4.0,4.0,4.0,4.0,4.0,4.0,4.0,4.0,4.0,4.0,4.0,100.0,,,,,,,,,,,,,,,,,,,,,,,,,,,,,,,,,,,,,,,,,,,,,,,,,,,,,,,,,,,,,,,,,,,,,,,,,,,,,,,,,,,,,,,,,,,,,,,,,,,,,,,,,,,,,,,,,,,,,,,,,,,,,,,,,,,
1725717276.873725,1725717276.875422,248.0,0.0,4390.897461,4260.384766,4282.179688,4353.589844,4216.538574,4154.230957,3941.794922,4286.025879,4254.615234,4236.153809,4490.641113,4520.512695,4365.256348,4431.153809,3423.0,0.0,11.0,,,,0.0,4.0,4.0,4.0,4.0,4.0,4.0,4.0,4.0,4.0,4.0,4.0,4.0,4.0,4.0,100.0,,,,,,,,,,,,,,,,,,,,,,,,,,,,,,,,,,,,,,,,,,,,,,,,,,,,,,,,,,,,,,,,,,,,,,,,,,,,,,,,,,,,,,,,,,,,,,,,,,,,,,,,,,,,,,,,,,,,,,,,,,,,,,,,,,,
1725717276.877629,1725717276.879426,249.0,0.0,4391.794922,4261.794922,4281.025879,4354.102539,4219.871582,4154.230957,3945.256348,4281.153809,4250.256348,4230.769043,4489.743652,4516.794922,4361.794922,4430.384766,3849.0,0.0,11.0,,,,0.0,4.0,4.0,4.0,4.0,4.0,4.0,4.0,4.0,4.0,4.0,4.0,4.0,4.0,4.0,100.0,,,,,,,,,,,,,,,,,,,,,,,,,,,,,,,,,,,,,,,,,,,,,,,,,,,,,,,,,,,,,,,,,,,,,,,,,,,,,,,,,,,,,,,,,,,,,,,,,,,,,,,,,,,,,,,,,,,,,,,,,,,,,,,,,,,
1725717276.881533,1725717276.88333,250.0,0.0,4390.769043,4263.846191,4277.179688,4353.333496,4220.769043,4152.307617,3946.794922,4277.820313,4247.307617,4226.794922,4490.512695,4511.538574,4358.205078,4428.589844,2894.0,0.0,11.0,,,,0.0,4.0,4.0,4.0,4.0,4.0,4.0,4.0,4.0,4.0,4.0,4.0,4.0,4.0,4.0,100.0,,,,,,,,,,,,,,,,,,,,,,,,,,,,,,,,,,,,,,,,,,,,,,,,,,,,,,,,,,,,,,,,,,,,,,,,,,,,,,,,,,,,,,,,,,,,,,,,,,,,,,,,,,,,,,,,,,,,,,,,,,,,,,,,,,,
1725717276.885437,1725717276.887234,251.0,0.0,4387.436035,4265.128418,4271.538574,4350.384766,4219.871582,4149.102539,3946.410156,4275.0,4244.487305,4223.846191,4489.102539,4504.743652,4354.102539,4423.717773,3114.0,0.0,11.0,,,,0.0,4.0,4.0,4.0,4.0,4.0,4.0,4.0,4.0,4.0,4.0,4.0,4.0,4.0,4.0,100.0,,,,,,,,,,,,,,,,,,,,,,,,,,,,,,,,,,,,,,,,,,,,,,,,,,,,,,,,,,,,,,,,,,,,,,,,,,,,,,,,,,,,,,,,,,,,,,,,,,,,,,,,,,,,,,,,,,,,,,,,,,,,,,,,,,,
1725717276.889341,1725717276.891139,252.0,0.0,4382.563965,4264.358887,4266.282227,4346.282227,4218.717773,4145.256348,3945.641113,4271.410156,4240.256348,4220.512695,4483.205078,4496.794922,4348.589844,4415.384766,3423.0,0.0,11.0,,,,0.0,4.0,4.0,4.0,4.0,4.0,4.0,4.0,4.0,4.0,4.0,4.0,4.0,4.0,4.0,100.0,,,,,,,,,,,,,,,,,,,,,,,,,,,,,,,,,,,,,,,,,,,,,,,,,,,,,,,,0.0,0.0,1.0,0.0,1.0,0.0,,,,,,,,,,,,,,,,,,,,,,,,,,,,,,,,,,,,,,,,,,,,,,,,,,,,,,,,,,,,,,,,,,,,,,
1725717276.893245,1725717276.895043,253.0,0.0,4377.563965,4261.153809,4263.461426,4342.692383,4218.717773,4141.794922,3945.256348,4266.153809,4234.358887,4216.538574,4474.871582,4489.230957,4342.436035,4406.666504,3849.0,0.0,11.0,,,,0.0,4.0,4.0,4.0,4.0,4.0,4.0,4.0,4.0,4.0,4.0,4.0,4.0,4.0,4.0,100.0,,,,,,,,,,,,,,,,,,,,,,,,,,,,,,,,,,,,,,,,,,,,,,,,,,,,,,,,,,,,,,,,,,,,,,,,,,,,,,,,,,,,,,,,,,,,,,,,,,,,,,,,,,,,,,,,,,,,,,,,,,,,,,,,,,,
1725717276.897149,1725717276.898847,254.0,0.0,4373.846191,4256.410156,4263.077148,4340.897461,4219.743652,4138.589844,3945.512939,4260.897461,4229.358887,4213.333496,4468.461426,4484.358887,4337.94873,4401.538574,2894.0,0.0,11.0,,,,0.0,4.0,4.0,4.0,4.0,4.0,4.0,4.0,4.0,4.0,4.0,4.0,4.0,4.0,4.0,100.0,,,,,,,,,,,,,,,,,,,,,,,,,,,,,,,,,,,,,,,,,,,,,,,,,,,,,,,,,,,,,,,,,,,,,,,,,,,,,,,,,,,,,,,,,,,,,,,,,,,,,,,,,,,,,,,,,,,,,,,,,,,,,,,,,,,
1725717276.901053,1725717276.902751,255.0,0.0,4372.436035,4252.05127,4263.589844,4340.769043,4220.256348,4135.128418,3945.769287,4258.846191,4228.461426,4213.205078,4467.563965,4483.974121,4337.94873,4402.436035,11.0,0.0,11.0,,,,0.0,4.0,4.0,4.0,4.0,4.0,4.0,4.0,4.0,4.0,4.0,4.0,4.0,4.0,4.0,100.0,,,,,,,,,,,,,,,,,,,,,,,,,,,,,,,,,,,,,,,,,,,,,,,,,,,,,,,,,,,,,,,,,,,,,,,,,,,,,,,,,,,,,,,,,,,,,,,,,,,,,,,,,,,,,,,,,,,,,,,,,,,,,,,,,,,
1725717276.904957,1725717276.906655,0.0,0.0,4373.333496,4249.487305,4263.205078,4341.282227,4219.102539,4130.769043,3945.769287,4261.794922,4233.333496,4216.794922,4472.05127,4488.333496,4342.820313,4407.563965,2698.0,0.0,11.0,,,,0.0,4.0,4.0,4.0,4.0,4.0,4.0,4.0,4.0,4.0,4.0,4.0,4.0,4.0,4.0,100.0,,,,,,,,,,,,,,,,,,,,,,,,,,,,,,,,,,,,,,,,,,,,,,,,,,,,,,,,,,,,,,,,,,,,,,,,,,,,,,,,,,,,,,,,,,,,,,,,,,,,,,,,,,,,,,,,,,,,,,,,,,,,,,,,,,,
1725717276.908862,1725717276.910559,1.0,0.0,4375.512695,4248.846191,4262.05127,4340.769043,4216.666504,4125.128418,3945.512939,4268.461426,4241.794922,4222.436035,4478.846191,4494.102539,4349.743652,4412.94873,2580.0,0.0,11.0,,,,0.0,4.0,4.0,4.0,4.0,4.0,4.0,4.0,4.0,4.0,4.0,4.0,4.0,4.0,4.0,100.0,,,,,,,,,,,,,,,,,,,,,,,,,,,,,,,,,,,,,,,,,,,,,,,,,,,,,,,,,,,,,,,,,,,,,,,,,,,,,,,,,,,,,,,,,,,,,,,,,,,,,,,,,,,,,,,,,,,,,,,,,,,,,,,,,,,
1725717276.912766,1725717276.914363,2.0,0.0,4376.538574,4249.358887,4261.025879,4338.717773,4214.615234,4118.589844,3946.281982,4274.871582,4249.230957,4226.794922,4482.94873,4496.922852,4354.358887,4414.871582,2515.0,0.0,11.0,,,,0.0,4.0,4.0,4.0,4.0,4.0,4.0,4.0,4.0,4.0,4.0,4.0,4.0,4.0,4.0,100.0,,,,,,,,,,,,,,,,,,,,,,,,,,,,,,,,,,,,,,,,,,,,,,,,,,,,,,,,,,,,,,,,,,,,,,,,,,,,,,,,,,,,,,,,,,,,,,,,,,,,,,,,,,,,,,,,,,,,,,,,,,,,,,,,,,,
1725717276.91667,1725717276.918268,3.0,0.0,4374.615234,4250.0,4260.641113,4335.897461,4213.974121,4112.307617,3948.461426,4277.820313,4251.025879,4227.307617,4480.769043,4494.358887,4353.589844,4412.05127,2459.0,0.0,11.0,,,,0.0,4.0,4.0,4.0,4.0,4.0,4.0,4.0,4.0,4.0,4.0,4.0,4.0,4.0,4.0,100.0,,,,,,,,,,,,,,,,,,,,,,,,,,,,,,,,,,,,,,,,,,,,,,,,,,,,,,,,,,,,,,,,,,,,,,,,,,,,,,,,,,,,,,,,,,,,,,,,,,,,,,,,,,,,,,,,,,,,,,,,,,,,,,,,,,,
1725717276.920574,1725717276.922172,4.0,0.0,4370.769043,4249.871582,4259.871582,4333.974121,4214.358887,4107.692383,3951.666748,4276.538574,4246.666504,4223.846191,4472.820313,4487.436035,4348.333496,4406.025879,2443.0,0.0,11.0,,,,0.0,4.0,4.0,4.0,4.0,4.0,4.0,4.0,4.0,4.0,4.0,4.0,4.0,4.0,4.0,100.0,,,,,,,,,,,,,,,,,,,,,,,,,,,,,,,,,,,,,,,,,,,,,,,,,,,,,,,,0.0,0.0,1.0,0.0,1.0,0.0,,,,,,,,,,,,,,,,,,,,,,,,,,,,,,,,,,,,,,,,,,,,,,,,,,,,,,,,,,,,,,,,,,,,,,
1725717276.924478,1725717276.925976,5.0,0.0,4367.307617,4249.358887,4257.820313,4334.871582,4214.743652,4104.871582,3955.0,4272.820313,4239.102539,4218.974121,4463.974121,4480.0,4342.436035,4400.128418,2383.0,0.0,11.0,,,,0.0,4.0,4.0,4.0,4.0,4.0,4.0,4.0,4.0,4.0,4.0,4.0,4.0,4.0,4.0,100.0,,,,,,,,,,,,,,,,,,,,,,,,,,,,,,,,,,,,,,,,,,,,,,,,,,,,,,,,,,,,,,,,,,,,,,,,,,,,,,,,,,,,,,,,,,,,,,,,,,,,,,,,,,,,,,,,,,,,,,,,,,,,,,,,,,,
1725717276.928382,1725717276.92988,6.0,0.0,4366.666504,4249.102539,4254.871582,4338.589844,4214.615234,4103.589844,3957.564209,4268.846191,4232.94873,4215.128418,4460.641113,4476.025879,4339.102539,4397.179688,2446.0,0.0,11.0,,,,0.0,4.0,4.0,4.0,4.0,4.0,4.0,4.0,4.0,4.0,4.0,4.0,4.0,4.0,4.0,100.0,,,,,,,,,,,,,,,,,,,,,,,,,,,,,,,,,,,,,,,,,,,,,,,,,,,,,,,,,,,,,,,,,,,,,,,,,,,,,,,,,,,,,,,,,,,,,,,,,,,,,,,,,,,,,,,,,,,,,,,,,,,,,,,,,,,
1725717276.932286,1725717276.933784,7.0,0.0,4368.717773,4249.487305,4252.436035,4343.461426,4214.487305,4102.563965,3959.102539,4265.897461,4231.025879,4213.205078,4464.230957,4477.94873,4338.461426,4397.692383,2523.0,0.0,11.0,,,,0.0,4.0,4.0,4.0,4.0,4.0,4.0,4.0,4.0,4.0,4.0,4.0,4.0,4.0,4.0,100.0,,,,,,,,,,,,,,,,,,,,,,,,,,,,,,,,,,,,,,,,,,,,,,,,,,,,,,,,,,,,,,,,,,,,,,,,,,,,,,,,,,,,,,,,,,,,,,,,,,,,,,,,,,,,,,,,,,,,,,,,,,,,,,,,,,,
1725717276.93619,1725717276.937688,8.0,0.0,4371.410156,4250.641113,4251.922852,4346.410156,4215.128418,4100.769043,3960.0,4264.358887,4232.692383,4213.717773,4470.0,4484.230957,4338.205078,4399.743652,2476.0,0.0,11.0,,,,0.0,4.0,4.0,4.0,4.0,4.0,4.0,4.0,4.0,4.0,4.0,4.0,4.0,4.0,4.0,100.0,,,,,,,,,,,,,,,,,,,,,,,,,,,,,,,,,,,,,,,,,,,,,,,,,,,,,,,,,,,,,,,,,,,,,,,,,,,,,,,,,,,,,,,,,,,,,,,,,,,,,,,,,,,,,,,,,,,,,,,,,,,,,,,,,,,
1725717276.940094,1725717276.941492,9.0,0.0,4372.563965,4251.538574,4253.589844,4346.025879,4216.025879,4097.94873,3960.641113,4264.102539,4235.641113,4216.410156,4471.025879,4491.282227,4336.025879,4401.153809,2560.0,0.0,11.0,,,,0.0,4.0,4.0,4.0,4.0,4.0,4.0,4.0,4.0,4.0,4.0,4.0,4.0,4.0,4.0,100.0,,,,,,,,,,,,,,,,,,,,,,,,,,,,,,,,,,,,,,,,,,,,,,,,,,,,,,,,,,,,,,,,,,,,,,,,,,,,,,,,,,,,,,,,,,,,,,,,,,,,,,,,,,,,,,,,,,,,,,,,,,,,,,,,,,,
1725717276.943998,1725717276.945396,10.0,0.0,4370.769043,4250.897461,4255.512695,4342.307617,4215.512695,4094.743652,3960.897461,4264.871582,4237.179688,4219.615234,4463.974121,4495.384766,4332.179688,4400.641113,2890.0,0.0,11.0,,,,0.0,4.0,4.0,4.0,4.0,4.0,4.0,4.0,4.0,4.0,4.0,4.0,4.0,4.0,4.0,100.0,,,,,,,,,,,,,,,,,,,,,,,,,,,,,,,,,,,,,,,,,,,,,,,,,,,,,,,,,,,,,,,,,,,,,,,,,,,,,,,,,,,,,,,,,,,,,,,,,,,,,,,,,,,,,,,,,,,,,,,,,,,,,,,,,,,
1725717276.947903,1725717276.949301,11.0,0.0,4366.794922,4248.461426,4255.641113,4337.563965,4212.563965,4092.307617,3960.512939,4266.025879,4236.282227,4220.512695,4452.563965,4493.974121,4328.974121,4398.589844,3126.0,0.0,11.0,,,,0.0,4.0,4.0,4.0,4.0,4.0,4.0,4.0,4.0,4.0,4.0,4.0,4.0,4.0,4.0,100.0,,,,,,,,,,,,,,,,,,,,,,,,,,,,,,,,,,,,,,,,,,,,,,,,,,,,,,,,,,,,,,,,,,,,,,,,,,,,,,,,,,,,,,,,,,,,,,,,,,,,,,,,,,,,,,,,,,,,,,,,,,,,,,,,,,,
1725717276.951807,1725717276.953305,12.0,0.0,4362.94873,4245.128418,4253.333496,4333.846191,4207.436035,4091.281982,3959.487061,4266.794922,4234.102539,4217.307617,4444.102539,4487.436035,4329.102539,4396.410156,3418.0,0.0,11.0,,,,0.0,4.0,4.0,4.0,4.0,4.0,4.0,4.0,4.0,4.0,4.0,4.0,4.0,4.0,4.0,100.0,,,,,,,,,,,,,,,,,,,,,,,,,,,,,,,,,,,,,,,,,,,,,,,,,,,,,,,,0.0,0.0,1.0,0.0,1.0,0.0,,,,,,,,,,,,,,,,,,,,,,,,,,,,,,,,,,,,,,,,,,,,,,,,,,,,,,,,,,,,,,,,,,,,,,
1725717276.955711,1725717276.957209,13.0,0.0,4361.538574,4242.692383,4250.128418,4332.563965,4202.94873,4091.666748,3958.718018,4266.538574,4231.922852,4210.641113,4443.717773,4478.974121,4332.94873,4395.128418,3877.0,0.0,11.0,,,,0.0,4.0,4.0,4.0,4.0,4.0,4.0,4.0,4.0,4.0,4.0,4.0,4.0,4.0,4.0,100.0,,,,,,,,,,,,,,,,,,,,,,,,,,,,,,,,,,,,,,,,,,,,,,,,,,,,,,,,,,,,,,,,,,,,,,,,,,,,,,,,,,,,,,,,,,,,,,,,,,,,,,,,,,,,,,,,,,,,,,,,,,,,,,,,,,,
1725717276.959615,1725717276.961113,14.0,0.0,4363.717773,4242.94873,4248.077148,4333.333496,4202.05127,4093.076904,3960.0,4264.871582,4231.025879,4204.102539,4450.769043,4472.820313,4338.717773,4395.256348,2890.0,0.0,11.0,,,,0.0,4.0,4.0,4.0,4.0,4.0,4.0,4.0,4.0,4.0,4.0,4.0,4.0,4.0,4.0,100.0,,,,,,,,,,,,,,,,,,,,,,,,,,,,,,,,,,,,,,,,,,,,,,,,,,,,,,,,,,,,,,,,,,,,,,,,,,,,,,,,,,,,,,,,,,,,,,,,,,,,,,,,,,,,,,,,,,,,,,,,,,,,,,,,,,,
1725717276.963519,1725717276.965117,15.0,0.0,4368.205078,4245.769043,4248.077148,4335.256348,4205.897461,4094.358887,3963.846191,4262.436035,4230.897461,4201.153809,4460.0,4472.05127,4342.94873,4397.436035,3126.0,0.0,11.0,,,,0.0,4.0,4.0,4.0,4.0,4.0,4.0,4.0,4.0,4.0,4.0,4.0,4.0,4.0,4.0,100.0,,,,,,,,,,,,,,,,,,,,,,,,,,,,,,,,,,,,,,,,,,,,,,,,,,,,,,,,,,,,,,,,,,,,,,,,,,,,,,,,,,,,,,,,,,,,,,,,,,,,,,,,,,,,,,,,,,,,,,,,,,,,,,,,,,,
1725717276.967423,1725717276.969021,16.0,0.0,4372.179688,4249.487305,4249.743652,4337.436035,4212.307617,4094.615479,3969.230713,4260.769043,4231.025879,4202.94873,4466.025879,4476.410156,4343.846191,4401.282227,3418.0,0.0,11.0,,,,0.0,4.0,4.0,4.0,4.0,4.0,4.0,4.0,4.0,4.0,4.0,4.0,4.0,4.0,4.0,100.0,,,,,,,,,,,,,,,,,,,,,,,,,,,,,,,,,,,,,,,,,,,,,,,,,,,,,,,,,,,,,,,,,,,,,,,,,,,,,,,,,,,,,,,,,,,,,,,,,,,,,,,,,,,,,,,,,,,,,,,,,,,,,,,,,,,
1725717276.971327,1725717276.972925,17.0,0.0,4373.461426,4251.666504,4251.666504,4338.974121,4217.307617,4093.846191,3973.718018,4261.922852,4231.538574,4208.846191,4467.820313,4483.333496,4342.05127,4405.641113,3877.0,0.0,11.0,,,,0.0,4.0,4.0,4.0,4.0,4.0,4.0,4.0,4.0,4.0,4.0,4.0,4.0,4.0,4.0,100.0,,,,,,,,,,,,,,,,,,,,,,,,,,,,,,,,,,,,,,,,,,,,,,,,,,,,,,,,,,,,,,,,,,,,,,,,,,,,,,,,,,,,,,,,,,,,,,,,,,,,,,,,,,,,,,,,,,,,,,,,,,,,,,,,,,,
1725717276.975231,1725717276.976829,18.0,0.0,4371.922852,4251.025879,4253.461426,4340.0,4217.94873,4092.692383,3975.384521,4266.153809,4233.461426,4215.769043,4468.077148,4489.230957,4340.641113,4408.205078,2890.0,0.0,11.0,,,,0.0,4.0,4.0,4.0,4.0,4.0,4.0,4.0,4.0,4.0,4.0,4.0,4.0,4.0,4.0,100.0,,,,,,,,,,,,,,,,,,,,,,,,,,,,,,,,,,,,,,,,,,,,,,,,,,,,,,,,,,,,,,,,,,,,,,,,,,,,,,,,,,,,,,,,,,,,,,,,,,,,,,,,,,,,,,,,,,,,,,,,,,,,,,,,,,,
1725717276.979135,1725717276.980733,19.0,0.0,4369.615234,4248.974121,4255.256348,4341.282227,4214.230957,4092.05127,3974.230713,4271.794922,4237.05127,4220.641113,4470.128418,4492.05127,4342.307617,4408.589844,3126.0,0.0,11.0,,,,0.0,4.0,4.0,4.0,4.0,4.0,4.0,4.0,4.0,4.0,4.0,4.0,4.0,4.0,4.0,100.0,,,,,,,,,,,,,,,,,,,,,,,,,,,,,,,,,,,,,,,,,,,,,,,,,,,,,,,,,,,,,,,,,,,,,,,,,,,,,,,,,,,,,,,,,,,,,,,,,,,,,,,,,,,,,,,,,,,,,,,,,,,,,,,,,,,
1725717276.98304,1725717276.984737,20.0,0.0,4369.102539,4249.358887,4257.563965,4343.846191,4208.589844,4092.179443,3972.820557,4276.666504,4241.282227,4221.794922,4474.487305,4492.307617,4347.307617,4408.461426,3418.0,0.0,11.0,,,,0.0,4.0,4.0,4.0,4.0,4.0,4.0,4.0,4.0,4.0,4.0,4.0,4.0,4.0,4.0,100.0,,,,,,,,,,,,,,,,,1.0,0.0,0.0,,,,,,,,,,,,,,,,,,,,,,,,,,,,,,,,,,,,,0.0,0.0,1.0,0.0,1.0,0.0,2.354065,1.307935,0.645064,0.224899,0.074174,2.432762,0.979638,0.586132,0.274947,0.113021,2.324527,1.278324,0.578682,0.175035,0.10882,2.735193,0.836062,0.504957,0.207287,0.114699,0.674636,0.696762,0.239585,0.106269,0.050044,0.308538,0.489461,0.449288,0.097645,0.110637,5.437772,0.70191,0.360359,0.104106,0.059219,0.636904,1.129905,0.851294,0.347998,0.147923,1.039104,1.089233,0.652693,0.290701,0.124013,1.835763,1.590935,0.725201,0.382962,0.210959,3.724444,2.300835,0.959694,0.451417,0.512989,3.778634,2.537323,1.333326,0.50969,0.269371,3.536755,2.484168,1.650163,0.505129,0.162805,3.615841,2.483166,1.327286,0.36207,0.163434
1725717276.986944,1725717276.988641,21.0,0.0,4371.410156,4255.128418,4260.769043,4347.94873,4204.871582,4092.94873,3973.718018,4278.974121,4245.0,4220.256348,4478.589844,4491.666504,4353.846191,4410.897461,3877.0,0.0,11.0,,,,0.0,4.0,4.0,4.0,4.0,4.0,4.0,4.0,4.0,4.0,4.0,4.0,4.0,4.0,4.0,100.0,,,,,,,,,,,,,,,,,,,,,,,,,,,,,,,,,,,,,,,,,,,,,,,,,,,,,,,,,,,,,,,,,,,,,,,,,,,,,,,,,,,,,,,,,,,,,,,,,,,,,,,,,,,,,,,,,,,,,,,,,,,,,,,,,,,
1725717276.990848,1725717276.992545,22.0,0.0,4375.769043,4265.0,4263.974121,4352.563965,4205.384766,4093.718018,3978.076904,4278.846191,4247.05127,4218.461426,4479.230957,4491.666504,4359.102539,4416.666504,2890.0,0.0,11.0,,,,0.0,4.0,4.0,4.0,4.0,4.0,4.0,4.0,4.0,4.0,4.0,4.0,4.0,4.0,4.0,100.0,,,,,,,,,,,,,,,,,,,,,,,,,,,,,,,,,,,,,,,,,,,,,,,,,,,,,,,,,,,,,,,,,,,,,,,,,,,,,,,,,,,,,,,,,,,,,,,,,,,,,,,,,,,,,,,,,,,,,,,,,,,,,,,,,,,
1725717276.994752,1725717276.99645,23.0,0.0,4380.0,4273.846191,4266.025879,4356.410156,4208.846191,4093.846191,3984.358887,4277.563965,4247.820313,4217.94873,4476.794922,4492.692383,4361.282227,4422.820313,3126.0,0.0,11.0,,,,0.0,4.0,4.0,4.0,4.0,4.0,4.0,4.0,4.0,4.0,4.0,4.0,4.0,4.0,4.0,100.0,,,,,,,,,,,,,,,,,,,,,,,,,,,,,,,,,,,,,,,,,,,,,,,,,,,,,,,,,,,,,,,,,,,,,,,,,,,,,,,,,,,,,,,,,,,,,,,,,,,,,,,,,,,,,,,,,,,,,,,,,,,,,,,,,,,
1725717276.998656,1725717277.000454,24.0,0.0,4382.436035,4276.538574,4266.282227,4358.846191,4211.410156,4093.205078,3989.871826,4276.282227,4248.077148,4218.717773,4474.615234,4493.205078,4360.641113,4425.897461,3418.0,0.0,11.0,,,,0.0,4.0,4.0,4.0,4.0,4.0,4.0,4.0,4.0,4.0,4.0,4.0,4.0,4.0,4.0,100.0,,,,,,,,,,,,,,,,,,,,,,,,,,,,,,,,,,,,,,,,,,,,,,,,,,,,,,,,,,,,,,,,,,,,,,,,,,,,,,,,,,,,,,,,,,,,,,,,,,,,,,,,,,,,,,,,,,,,,,,,,,,,,,,,,,,
1725717277.00256,1725717277.004358,25.0,0.0,4382.563965,4272.307617,4265.641113,4360.128418,4210.128418,4091.666748,3992.05127,4276.025879,4248.589844,4219.743652,4476.282227,4492.307617,4358.846191,4424.358887,3877.0,0.0,11.0,,,,0.0,4.0,4.0,4.0,4.0,4.0,4.0,4.0,4.0,4.0,4.0,4.0,4.0,4.0,4.0,100.0,,,,,,,,,,,,,,,,,,,,,,,,,,,,,,,,,,,,,,,,,,,,,,,,,,,,,,,,,,,,,,,,,,,,,,,,,,,,,,,,,,,,,,,,,,,,,,,,,,,,,,,,,,,,,,,,,,,,,,,,,,,,,,,,,,,
1725717277.006464,1725717277.008262,26.0,0.0,4381.025879,4265.897461,4264.743652,4359.871582,4206.025879,4089.358887,3990.897461,4276.410156,4249.358887,4220.641113,4480.0,4490.897461,4357.820313,4420.512695,2890.0,0.0,11.0,,,,0.0,4.0,4.0,4.0,4.0,4.0,4.0,4.0,4.0,4.0,4.0,4.0,4.0,4.0,4.0,100.0,,,,,,,,,,,,,,,,,,,,,,,,,,,,,,,,,,,,,,,,,,,,,,,,,,,,,,,,,,,,,,,,,,,,,,,,,,,,,,,,,,,,,,,,,,,,,,,,,,,,,,,,,,,,,,,,,,,,,,,,,,,,,,,,,,,
1725717277.010368,1725717277.012166,27.0,0.0,4379.615234,4262.94873,4264.487305,4358.205078,4202.820313,4086.538574,3988.461426,4277.307617,4250.128418,4222.05127,4480.897461,4490.641113,4358.333496,4417.94873,3126.0,0.0,11.0,,,,0.0,4.0,4.0,4.0,4.0,4.0,4.0,4.0,4.0,4.0,4.0,4.0,4.0,4.0,4.0,100.0,,,,,,,,,,,,,,,,,,,,,,,,,,,,,,,,,,,,,,,,,,,,,,,,,,,,,,,,,,,,,,,,,,,,,,,,,,,,,,,,,,,,,,,,,,,,,,,,,,,,,,,,,,,,,,,,,,,,,,,,,,,,,,,,,,,
1725717277.014272,1725717277.01607,28.0,0.0,4379.615234,4266.153809,4264.358887,4355.769043,4203.589844,4083.974365,3987.564209,4278.461426,4250.256348,4224.487305,4476.153809,4492.436035,4360.0,4418.589844,3418.0,0.0,11.0,,,,0.0,4.0,4.0,4.0,4.0,4.0,4.0,4.0,4.0,4.0,4.0,4.0,4.0,4.0,4.0,100.0,,,,,,,,,,,,,,,,,,,,,,,,,,,,,,,,,,,,,,,,,,,,,,,,,,,,,,,,0.0,0.0,1.0,0.0,1.0,0.0,,,,,,,,,,,,,,,,,,,,,,,,,,,,,,,,,,,,,,,,,,,,,,,,,,,,,,,,,,,,,,,,,,,,,,
1725717277.018176,1725717277.019874,29.0,0.0,4381.410156,4272.436035,4264.487305,4354.487305,4208.077148,4082.307617,3989.615479,4279.615234,4250.0,4227.820313,4469.102539,4495.128418,4362.436035,4422.05127,3877.0,0.0,11.0,,,,0.0,4.0,4.0,4.0,4.0,4.0,4.0,4.0,4.0,4.0,4.0,4.0,4.0,4.0,4.0,100.0,,,,,,,,,,,,,,,,,,,,,,,,,,,,,,,,,,,,,,,,,,,,,,,,,,,,,,,,,,,,,,,,,,,,,,,,,,,,,,,,,,,,,,,,,,,,,,,,,,,,,,,,,,,,,,,,,,,,,,,,,,,,,,,,,,,
1725717277.022081,1725717277.023778,30.0,0.0,4383.589844,4276.538574,4264.871582,4356.025879,4212.94873,4082.05127,3993.718018,4280.0,4249.358887,4230.769043,4466.153809,4496.410156,4364.871582,4426.410156,2890.0,0.0,11.0,,,,0.0,4.0,4.0,4.0,4.0,4.0,4.0,4.0,4.0,4.0,4.0,4.0,4.0,4.0,4.0,100.0,,,,,,,,,,,,,,,,,,,,,,,,,,,,,,,,,,,,,,,,,,,,,,,,,,,,,,,,,,,,,,,,,,,,,,,,,,,,,,,,,,,,,,,,,,,,,,,,,,,,,,,,,,,,,,,,,,,,,,,,,,,,,,,,,,,
1725717277.025985,1725717277.027682,31.0,0.0,4383.974121,4274.871582,4265.256348,4359.871582,4214.615234,4082.564209,3997.564209,4278.974121,4248.717773,4232.436035,4471.282227,4495.384766,4366.794922,4429.358887,3126.0,0.0,11.0,,,,0.0,4.0,4.0,4.0,4.0,4.0,4.0,4.0,4.0,4.0,4.0,4.0,4.0,4.0,4.0,100.0,,,,,,,,,,,,,,,,,,,,,,,,,,,,,,,,,,,,,,,,,,,,,,,,,,,,,,,,,,,,,,,,,,,,,,,,,,,,,,,,,,,,,,,,,,,,,,,,,,,,,,,,,,,,,,,,,,,,,,,,,,,,,,,,,,,
1725717277.029889,1725717277.031487,32.0,0.0,4381.794922,4268.461426,4265.128418,4363.589844,4211.538574,4082.820557,3999.230713,4276.538574,4248.461426,4233.589844,4482.179688,4492.563965,4367.307617,4429.230957,0.0,0.0,11.0,,,,0.0,4.0,4.0,4.0,4.0,4.0,4.0,4.0,4.0,4.0,4.0,4.0,4.0,4.0,4.0,100.0,,,,,,,,,,,,,,,,,,,,,,,,,,,,,,,,,,,,,,,,,,,,,,,,,,,,,,,,,,,,,,,,,,,,,,,,,,,,,,,,,,,,,,,,,,,,,,,,,,,,,,,,,,,,,,,,,,,,,,,,,,,,,,,,,,,
1725717277.033793,1725717277.035391,33.0,0.0,4378.205078,4262.05127,4263.974121,4365.128418,4205.769043,4082.179443,3998.718018,4273.717773,4248.461426,4234.358887,4492.692383,4490.0,4366.410156,4426.794922,0.0,0.0,11.0,,,,0.0,4.0,4.0,4.0,4.0,4.0,4.0,4.0,4.0,4.0,4.0,4.0,4.0,4.0,4.0,100.0,,,,,,,,,,,,,,,,,,,,,,,,,,,,,,,,,,,,,,,,,,,,,,,,,,,,,,,,,,,,,,,,,,,,,,,,,,,,,,,,,,,,,,,,,,,,,,,,,,,,,,,,,,,,,,,,,,,,,,,,,,,,,,,,,,,
1725717277.037697,1725717277.039295,34.0,0.0,4375.128418,4260.0,4261.794922,4363.974121,4201.282227,4081.025635,3998.076904,4272.179688,4248.589844,4234.358887,4497.692383,4489.358887,4364.358887,4423.846191,0.0,0.0,11.0,,,,0.0,4.0,4.0,4.0,4.0,4.0,4.0,4.0,4.0,4.0,4.0,4.0,4.0,4.0,4.0,100.0,,,,,,,,,,,,,,,,,,,,,,,,,,,,,,,,,,,,,,,,,,,,,,,,,,,,,,,,,,,,,,,,,,,,,,,,,,,,,,,,,,,,,,,,,,,,,,,,,,,,,,,,,,,,,,,,,,,,,,,,,,,,,,,,,,,
1725717277.041601,1725717277.043199,35.0,0.0,4373.717773,4263.077148,4259.230957,4361.666504,4200.128418,4080.641113,3998.333252,4273.077148,4248.589844,4232.179688,4495.128418,4490.769043,4361.922852,4421.666504,0.0,0.0,11.0,,,,0.0,4.0,4.0,4.0,4.0,4.0,4.0,4.0,4.0,4.0,4.0,4.0,4.0,4.0,4.0,100.0,,,,,,,,,,,,,,,,,,,,,,,,,,,,,,,,,,,,,,,,,,,,,,,,,,,,,,,,,,,,,,,,,,,,,,,,,,,,,,,,,,,,,,,,,,,,,,,,,,,,,,,,,,,,,,,,,,,,,,,,,,,,,,,,,,,
1725717277.045505,1725717277.047003,36.0,0.0,4373.461426,4267.94873,4257.436035,4360.256348,4201.666504,4081.923096,3999.615479,4276.025879,4248.333496,4227.563965,4486.794922,4492.436035,4358.974121,4419.615234,0.0,0.0,11.0,,,,0.0,4.0,4.0,4.0,4.0,4.0,4.0,4.0,4.0,4.0,4.0,4.0,4.0,4.0,4.0,100.0,,,,,,,,,,,,,,,,,,,,,,,,,,,,,,,,,,,,,,,,,,,,,,,,,,,,,,,,0.0,0.0,1.0,0.0,1.0,0.0,,,,,,,,,,,,,,,,,,,,,,,,,,,,,,,,,,,,,,,,,,,,,,,,,,,,,,,,,,,,,,,,,,,,,,
1725717277.049409,1725717277.050907,37.0,0.0,4372.94873,4270.384766,4256.666504,4360.769043,4203.717773,4084.358887,4000.769287,4278.717773,4247.94873,4222.692383,4477.563965,4492.307617,4355.897461,4416.282227,0.0,0.0,11.0,,,,0.0,4.0,4.0,4.0,4.0,4.0,4.0,4.0,4.0,4.0,4.0,4.0,4.0,4.0,4.0,100.0,,,,,,,,,,,,,,,,,,,,,,,,,,,,,,,,,,,,,,,,,,,,,,,,,,,,,,,,,,,,,,,,,,,,,,,,,,,,,,,,,,,,,,,,,,,,,,,,,,,,,,,,,,,,,,,,,,,,,,,,,,,,,,,,,,,
1725717277.053313,1725717277.054811,38.0,0.0,4371.025879,4268.589844,4256.538574,4362.307617,4204.487305,4087.05127,4001.153809,4278.974121,4247.563965,4220.128418,4471.666504,4489.871582,4353.974121,4412.307617,0.0,0.0,11.0,,,,0.0,4.0,4.0,4.0,4.0,4.0,4.0,4.0,4.0,4.0,4.0,4.0,4.0,4.0,4.0,100.0,,,,,,,,,,,,,,,,,,,,,,,,,,,,,,,,,,,,,,,,,,,,,,,,,,,,,,,,,,,,,,,,,,,,,,,,,,,,,,,,,,,,,,,,,,,,,,,,,,,,,,,,,,,,,,,,,,,,,,,,,,,,,,,,,,,
1725717277.057217,1725717277.058815,39.0,0.0,4369.102539,4264.615234,4256.410156,4363.589844,4204.487305,4088.461426,4001.025635,4276.794922,4247.692383,4221.538574,4471.794922,4487.307617,4353.974121,4409.615234,0.0,0.0,11.0,,,,0.0,4.0,4.0,4.0,4.0,4.0,4.0,4.0,4.0,4.0,4.0,4.0,4.0,4.0,4.0,100.0,,,,,,,,,,,,,,,,,,,,,,,,,,,,,,,,,,,,,,,,,,,,,,,,,,,,,,,,,,,,,,,,,,,,,,,,,,,,,,,,,,,,,,,,,,,,,,,,,,,,,,,,,,,,,,,,,,,,,,,,,,,,,,,,,,,
1725717277.061121,1725717277.062719,40.0,0.0,4369.230957,4263.077148,4256.666504,4364.487305,4205.897461,4088.589844,4001.794922,4274.487305,4248.846191,4225.897461,4476.922852,4487.436035,4355.897461,4410.897461,0.0,0.0,11.0,,,,0.0,4.0,4.0,4.0,4.0,4.0,4.0,4.0,4.0,4.0,4.0,4.0,4.0,4.0,4.0,100.0,,,,,,,,,,,,,,,,,,,,,,,,,,,,,,,,,,,,,,,,,,,,,,,,,,,,,,,,,,,,,,,,,,,,,,,,,,,,,,,,,,,,,,,,,,,,,,,,,,,,,,,,,,,,,,,,,,,,,,,,,,,,,,,,,,,
1725717277.065025,1725717277.066623,41.0,0.0,4372.94873,4267.692383,4258.333496,4366.666504,4210.128418,4088.718018,4004.743652,4274.230957,4250.769043,4230.384766,4483.974121,4491.922852,4358.333496,4416.153809,0.0,0.0,11.0,,,,0.0,4.0,4.0,4.0,4.0,4.0,4.0,4.0,4.0,4.0,4.0,4.0,4.0,4.0,4.0,100.0,,,,,,,,,,,,,,,,,,,,,,,,,,,,,,,,,,,,,,,,,,,,,,,,,,,,,,,,,,,,,,,,,,,,,,,,,,,,,,,,,,,,,,,,,,,,,,,,,,,,,,,,,,,,,,,,,,,,,,,,,,,,,,,,,,,
1725717277.06893,1725717277.070627,42.0,0.0,4379.358887,4278.333496,4262.307617,4371.794922,4216.153809,4089.871826,4010.128174,4276.666504,4252.307617,4232.820313,4490.0,4499.230957,4360.256348,4423.077148,0.0,0.0,11.0,,,,0.0,4.0,4.0,4.0,4.0,4.0,4.0,4.0,4.0,4.0,4.0,4.0,4.0,4.0,4.0,100.0,,,,,,,,,,,,,,,,,,,,,,,,,,,,,,,,,,,,,,,,,,,,,,,,,,,,,,,,,,,,,,,,,,,,,,,,,,,,,,,,,,,,,,,,,,,,,,,,,,,,,,,,,,,,,,,,,,,,,,,,,,,,,,,,,,,
1725717277.072834,1725717277.074532,43.0,0.0,4385.512695,4291.153809,4267.563965,4379.487305,4220.641113,4091.794922,4016.025635,4280.0,4252.563965,4233.077148,4493.589844,4506.282227,4361.282227,4428.717773,0.0,0.0,11.0,,,,0.0,4.0,4.0,4.0,4.0,4.0,4.0,4.0,4.0,4.0,4.0,4.0,4.0,4.0,4.0,100.0,,,,,,,,,,,,,,,,,,,,,,,,,,,,,,,,,,,,,,,,,,,,,,,,,,,,,,,,,,,,,,,,,,,,,,,,,,,,,,,,,,,,,,,,,,,,,,,,,,,,,,,,,,,,,,,,,,,,,,,,,,,,,,,,,,,
1725717277.076738,1725717277.078436,44.0,0.0,4388.333496,4300.384766,4271.794922,4386.025879,4221.282227,4093.333252,4020.128174,4282.179688,4251.538574,4232.307617,4494.615234,4510.0,4361.410156,4431.666504,0.0,0.0,11.0,,,,0.0,4.0,4.0,4.0,4.0,4.0,4.0,4.0,4.0,4.0,4.0,4.0,4.0,4.0,4.0,100.0,,,,,,,,,,,,,,,,,,,,,,,,,,,,,,,,,,,,,,,,,,,,,,,,,,,,,,,,0.0,0.0,1.0,0.0,1.0,0.0,,,,,,,,,,,,,,,,,,,,,,,,,,,,,,,,,,,,,,,,,,,,,,,,,,,,,,,,,,,,,,,,,,,,,,
1725717277.080642,1725717277.08234,45.0,0.0,4386.794922,4301.922852,4273.205078,4387.820313,4218.717773,4093.076904,4020.641113,4281.666504,4250.256348,4232.179688,4493.717773,4509.743652,4360.512695,4431.922852,0.0,0.0,11.0,,,,0.0,4.0,4.0,4.0,4.0,4.0,4.0,4.0,4.0,4.0,4.0,4.0,4.0,4.0,4.0,100.0,,,,,,,,,,,,,,,,,,,,,,,,,,,,,,,,,,,,,,,,,,,,,,,,,,,,,,,,,,,,,,,,,,,,,,,,,,,,,,,,,,,,,,,,,,,,,,,,,,,,,,,,,,,,,,,,,,,,,,,,,,,,,,,,,,,
1725717277.084546,1725717277.086244,46.0,0.0,4382.692383,4295.897461,4271.922852,4383.717773,4215.384766,4091.153809,4018.846191,4278.717773,4249.487305,4232.820313,4491.666504,4507.179688,4357.820313,4430.256348,0.0,0.0,11.0,,,,0.0,4.0,4.0,4.0,4.0,4.0,4.0,4.0,4.0,4.0,4.0,4.0,4.0,4.0,4.0,100.0,,,,,,,,,,,,,,,,,,,,,,,,,,,,,,,,,,,,,,,,,,,,,,,,,,,,,,,,,,,,,,,,,,,,,,,,,,,,,,,,,,,,,,,,,,,,,,,,,,,,,,,,,,,,,,,,,,,,,,,,,,,,,,,,,,,
1725717277.08845,1725717277.090248,47.0,0.0,4379.230957,4286.153809,4269.615234,4377.307617,4213.846191,4089.102539,4017.307617,4275.897461,4249.615234,4232.563965,4489.230957,4505.0,4353.333496,4427.307617,0.0,0.0,11.0,,,,0.0,4.0,4.0,4.0,4.0,4.0,4.0,4.0,4.0,4.0,4.0,4.0,4.0,4.0,4.0,100.0,,,,,,,,,,,,,,,,,,,,,,,,,,,,,,,,,,,,,,,,,,,,,,,,,,,,,,,,,,,,,,,,,,,,,,,,,,,,,,,,,,,,,,,,,,,,,,,,,,,,,,,,,,,,,,,,,,,,,,,,,,,,,,,,,,,
1725717277.092354,1725717277.094152,48.0,0.0,4378.717773,4278.461426,4268.205078,4373.333496,4214.358887,4088.589844,4018.205078,4275.256348,4250.256348,4229.615234,4487.563965,4504.871582,4348.846191,4424.230957,0.0,0.0,11.0,,,,0.0,4.0,4.0,4.0,4.0,4.0,4.0,4.0,4.0,4.0,4.0,4.0,4.0,4.0,4.0,100.0,,,,,,,,,,,,,,,,,,,,,,,,,,,,,,,,,,,,,,,,,,,,,,,,,,,,,,,,,,,,,,,,,,,,,,,,,,,,,,,,,,,,,,,,,,,,,,,,,,,,,,,,,,,,,,,,,,,,,,,,,,,,,,,,,,,
1725717277.096258,1725717277.098056,49.0,0.0,4381.282227,4276.153809,4268.846191,4374.871582,4215.769043,4089.871826,4021.410156,4277.179688,4250.641113,4224.230957,4487.179688,4507.05127,4346.153809,4422.692383,0.0,0.0,11.0,,,,0.0,4.0,4.0,4.0,4.0,4.0,4.0,4.0,4.0,4.0,4.0,4.0,4.0,4.0,4.0,100.0,,,,,,,,,,,,,,,,,,,,,,,,,,,,,,,,,,,,,,,,,,,,,,,,,,,,,,,,,,,,,,,,,,,,,,,,,,,,,,,,,,,,,,,,,,,,,,,,,,,,,,,,,,,,,,,,,,,,,,,,,,,,,,,,,,,
1725717277.100162,1725717277.10196,50.0,0.0,4384.102539,4278.846191,4271.410156,4380.128418,4216.922852,4091.666748,4025.641113,4279.230957,4249.871582,4218.077148,4488.205078,4509.358887,4346.025879,4423.717773,0.0,0.0,11.0,,,,0.0,4.0,4.0,4.0,4.0,4.0,4.0,4.0,4.0,4.0,4.0,4.0,4.0,4.0,4.0,100.0,,,,,,,,,,,,,,,,,,,,,,,,,,,,,,,,,,,,,,,,,,,,,,,,,,,,,,,,,,,,,,,,,,,,,,,,,,,,,,,,,,,,,,,,,,,,,,,,,,,,,,,,,,,,,,,,,,,,,,,,,,,,,,,,,,,
1725717277.104066,1725717277.105764,51.0,0.0,4385.128418,4282.820313,4274.487305,4385.128418,4217.307617,4092.435791,4029.358887,4278.589844,4247.820313,4214.358887,4490.512695,4509.871582,4348.077148,4426.153809,0.0,0.0,11.0,,,,0.0,4.0,4.0,4.0,4.0,4.0,4.0,4.0,4.0,4.0,4.0,4.0,4.0,4.0,4.0,100.0,,,,,,,,,,,,,,,,,,,,,,,,,,,,,,,,,,,,,,,,,,,,,,,,,,,,,,,,,,,,,,,,,,,,,,,,,,,,,,,,,,,,,,,,,,,,,,,,,,,,,,,,,,,,,,,,,,,,,,,,,,,,,,,,,,,
1725717277.107971,1725717277.109669,52.0,0.0,4384.487305,4284.487305,4276.538574,4386.666504,4217.05127,4091.794922,4031.794922,4274.615234,4245.769043,4214.871582,4493.589844,4508.205078,4350.769043,4427.94873,0.0,0.0,11.0,,,,0.0,4.0,4.0,4.0,4.0,4.0,4.0,4.0,4.0,4.0,4.0,4.0,4.0,4.0,4.0,100.0,1.0,66.666664,4.0,4.0,4.0,3.0,4.0,4.0,1.0,4.0,4.0,4.0,4.0,4.0,4.0,4.0,1.0,0.0,0.0,,,,,,,,,,,,,,,,,,,,,,,,,,,,,,,,,,,,,0.0,0.0,1.0,0.0,1.0,0.0,2.121099,1.02001,0.610803,0.233696,0.086111,2.202651,0.883221,0.576611,0.277319,0.126891,2.096184,1.008718,0.516819,0.211147,0.122914,2.444917,0.672873,0.481386,0.226108,0.115808,0.659569,0.548881,0.238184,0.127336,0.050165,0.400399,0.390883,0.358083,0.107575,0.112563,3.69463,0.524297,0.335077,0.103243,0.051794,0.739291,0.791809,0.682271,0.312408,0.155669,0.918148,0.760829,0.542513,0.261515,0.141196,1.486925,1.239892,0.725208,0.385136,0.223758,2.99109,1.640805,1.0042,0.489932,0.506024,3.661066,1.854407,1.129028,0.530388,0.305659,2.959781,2.057834,1.525946,0.498694,0.172343,3.262677,1.897313,1.323002,0.413464,0.159489
1725717277.111875,1725717277.113573,53.0,0.0,4384.102539,4282.94873,4277.05127,4384.743652,4216.922852,4090.128174,4032.94873,4269.358887,4245.897461,4220.0,4495.897461,4506.666504,4352.94873,4427.94873,0.0,0.0,11.0,,,,0.0,4.0,4.0,4.0,4.0,4.0,4.0,4.0,4.0,4.0,4.0,4.0,4.0,4.0,4.0,100.0,,,,,,,,,,,,,,,,,,,,,,,,,,,,,,,,,,,,,,,,,,,,,,,,,,,,,,,,,,,,,,,,,,,,,,,,,,,,,,,,,,,,,,,,,,,,,,,,,,,,,,,,,,,,,,,,,,,,,,,,,,,,,,,,,,,
1725717277.115779,1725717277.117477,54.0,0.0,4386.538574,4280.0,4276.410156,4381.922852,4217.307617,4088.846191,4033.461426,4266.282227,4249.487305,4227.692383,4495.512695,4507.820313,4353.589844,4427.05127,0.0,0.0,11.0,,,,0.0,4.0,4.0,4.0,4.0,4.0,4.0,4.0,4.0,4.0,4.0,4.0,4.0,4.0,4.0,100.0,,,,,,,,,,,,,,,,,,,,,,,,,,,,,,,,,,,,,,,,,,,,,,,,,,,,,,,,,,,,,,,,,,,,,,,,,,,,,,,,,,,,,,,,,,,,,,,,,,,,,,,,,,,,,,,,,,,,,,,,,,,,,,,,,,,
1725717277.119683,1725717277.121381,55.0,0.0,4391.538574,4278.205078,4276.153809,4380.512695,4217.820313,4088.589844,4033.974365,4267.436035,4254.743652,4234.871582,4491.282227,4512.94873,4352.307617,4427.436035,0.0,0.0,11.0,,,,0.0,4.0,4.0,4.0,4.0,4.0,4.0,4.0,4.0,4.0,4.0,4.0,4.0,4.0,4.0,100.0,,,,,,,,,,,,,,,,,,,,,,,,,,,,,,,,,,,,,,,,,,,,,,,,,,,,,,,,,,,,,,,,,,,,,,,,,,,,,,,,,,,,,,,,,,,,,,,,,,,,,,,,,,,,,,,,,,,,,,,,,,,,,,,,,,,
1725717277.123587,1725717277.125185,56.0,0.0,4396.282227,4279.102539,4277.05127,4381.410156,4217.94873,4089.358887,4035.256348,4272.179688,4258.717773,4238.333496,4484.615234,4520.256348,4349.871582,4430.512695,0.0,0.0,11.0,,,,0.0,4.0,4.0,4.0,4.0,4.0,4.0,4.0,4.0,4.0,4.0,4.0,4.0,4.0,4.0,100.0,,,,,,,,,,,,,,,,,,,,,,,,,,,,,,,,,,,,,,,,,,,,,,,,,,,,,,,,,,,,,,,,,,,,,,,,,,,,,,,,,,,,,,,,,,,,,,,,,,,,,,,,,,,,,,,,,,,,,,,,,,,,,,,,,,,
1725717277.127491,1725717277.129089,57.0,0.0,4398.461426,4282.692383,4278.974121,4384.358887,4217.820313,4091.025635,4037.94873,4277.692383,4259.102539,4236.666504,4479.615234,4526.153809,4348.717773,4436.153809,0.0,0.0,11.0,,,,0.0,4.0,4.0,4.0,4.0,4.0,4.0,4.0,4.0,4.0,4.0,4.0,4.0,4.0,4.0,100.0,,,,,,,,,,,,,,,,,,,,,,,,,,,,,,,,,,,,,,,,,,,,,,,,,,,,,,,,,,,,,,,,,,,,,,,,,,,,,,,,,,,,,,,,,,,,,,,,,,,,,,,,,,,,,,,,,,,,,,,,,,,,,,,,,,,
1725717277.131395,1725717277.132993,58.0,0.0,4398.077148,4287.307617,4281.666504,4388.589844,4217.94873,4092.692383,4041.923096,4280.897461,4255.897461,4231.922852,4480.384766,4528.333496,4350.384766,4441.922852,0.0,0.0,11.0,,,,0.0,4.0,4.0,4.0,4.0,4.0,4.0,4.0,4.0,4.0,4.0,4.0,4.0,4.0,4.0,100.0,,,,,,,,,,,,,,,,,,,,,,,,,,,,,,,,,,,,,,,,,,,,,,,,,,,,,,,,,,,,,,,,,,,,,,,,,,,,,,,,,,,,,,,,,,,,,,,,,,,,,,,,,,,,,,,,,,,,,,,,,,,,,,,,,,,
1725717277.135299,1725717277.136797,59.0,0.0,4396.410156,4291.282227,4285.0,4393.077148,4218.589844,4094.230713,4046.025635,4281.153809,4251.410156,4227.692383,4487.820313,4526.922852,4354.230957,4444.743652,0.0,0.0,11.0,,,,0.0,4.0,4.0,4.0,4.0,4.0,4.0,4.0,4.0,4.0,4.0,4.0,4.0,4.0,4.0,100.0,,,,,,,,,,,,,,,,,,,,,,,,,,,,,,,,,,,,,,,,,,,,,,,,,,,,,,,,,,,,,,,,,,,,,,,,,,,,,,,,,,,,,,,,,,,,,,,,,,,,,,,,,,,,,,,,,,,,,,,,,,,,,,,,,,,
1725717277.139203,1725717277.140702,60.0,0.0,4395.256348,4293.846191,4288.333496,4396.794922,4220.256348,4095.0,4048.974365,4279.743652,4248.461426,4226.922852,4498.589844,4523.974121,4357.307617,4442.692383,0.0,0.0,11.0,,,,0.0,4.0,4.0,4.0,4.0,4.0,4.0,4.0,4.0,4.0,4.0,4.0,4.0,4.0,4.0,100.0,,,,,,,,,,,,,,,,,,,,,,,,,,,,,,,,,,,,,,,,,,,,,,,,,,,,,,,,0.0,0.0,1.0,0.0,1.0,0.0,,,,,,,,,,,,,,,,,,,,,,,,,,,,,,,,,,,,,,,,,,,,,,,,,,,,,,,,,,,,,,,,,,,,,,
1725717277.143108,1725717277.144606,61.0,0.0,4395.0,4295.256348,4290.512695,4398.974121,4223.205078,4094.615479,4050.512939,4278.974121,4248.589844,4229.102539,4507.692383,4522.05127,4357.563965,4437.94873,0.0,0.0,11.0,,,,0.0,4.0,4.0,4.0,4.0,4.0,4.0,4.0,4.0,4.0,4.0,4.0,4.0,4.0,4.0,100.0,,,,,,,,,,,,,,,,,,,,,,,,,,,,,,,,,,,,,,,,,,,,,,,,,,,,,,,,,,,,,,,,,,,,,,,,,,,,,,,,,,,,,,,,,,,,,,,,,,,,,,,,,,,,,,,,,,,,,,,,,,,,,,,,,,,
1725717277.147012,1725717277.14851,62.0,0.0,4394.871582,4295.641113,4290.0,4398.846191,4227.307617,4093.333252,4051.666748,4279.871582,4250.512695,4231.025879,4511.282227,4522.563965,4355.128418,4434.102539,0.0,0.0,11.0,,,,0.0,4.0,4.0,4.0,4.0,4.0,4.0,4.0,4.0,4.0,4.0,4.0,4.0,4.0,4.0,100.0,,,,,,,,,,,,,,,,,,,,,,,,,,,,,,,,,,,,,,,,,,,,,,,,,,,,,,,,,,,,,,,,,,,,,,,,,,,,,,,,,,,,,,,,,,,,,,,,,,,,,,,,,,,,,,,,,,,,,,,,,,,,,,,,,,,
1725717277.150916,1725717277.152314,63.0,0.0,4394.487305,4295.0,4286.410156,4396.025879,4230.769043,4091.538574,4052.94873,4281.538574,4252.179688,4229.487305,4508.846191,4525.0,4352.179688,4434.487305,0.0,0.0,11.0,,,,0.0,4.0,4.0,4.0,4.0,4.0,4.0,4.0,4.0,4.0,4.0,4.0,4.0,4.0,4.0,100.0,,,,,,,,,,,,,,,,,,,,,,,,,,,,,,,,,,,,,,,,,,,,,,,,,,,,,,,,,,,,,,,,,,,,,,,,,,,,,,,,,,,,,,,,,,,,,,,,,,,,,,,,,,,,,,,,,,,,,,,,,,,,,,,,,,,
1725717277.15482,1725717277.156218,64.0,0.0,4393.461426,4293.461426,4281.666504,4391.025879,4231.410156,4090.0,4054.615479,4282.820313,4252.05127,4224.615234,4503.717773,4527.436035,4350.512695,4438.589844,0.0,0.0,11.0,,,,0.0,4.0,4.0,4.0,4.0,4.0,4.0,4.0,4.0,4.0,4.0,4.0,4.0,4.0,4.0,100.0,,,,,,,,,,,,,,,,,,,,,,,,,,,,,,,,,,,,,,,,,,,,,,,,,,,,,,,,,,,,,,,,,,,,,,,,,,,,,,,,,,,,,,,,,,,,,,,,,,,,,,,,,,,,,,,,,,,,,,,,,,,,,,,,,,,
1725717277.158724,1725717277.160122,65.0,0.0,4392.563965,4291.538574,4279.230957,4386.153809,4228.461426,4089.358887,4056.538574,4283.205078,4250.384766,4220.384766,4500.769043,4528.205078,4351.025879,4443.589844,0.0,0.0,11.0,,,,0.0,4.0,4.0,4.0,4.0,4.0,4.0,4.0,4.0,4.0,4.0,4.0,4.0,4.0,4.0,100.0,,,,,,,,,,,,,,,,,,,,,,,,,,,,,,,,,,,,,,,,,,,,,,,,,,,,,,,,,,,,,,,,,,,,,,,,,,,,,,,,,,,,,,,,,,,,,,,,,,,,,,,,,,,,,,,,,,,,,,,,,,,,,,,,,,,
1725717277.162628,1725717277.164126,66.0,0.0,4393.077148,4290.512695,4281.794922,4384.102539,4223.461426,4090.0,4058.589844,4283.205078,4248.974121,4220.384766,4502.436035,4527.563965,4353.205078,4446.153809,0.0,0.0,11.0,,,,0.0,4.0,4.0,4.0,4.0,4.0,4.0,4.0,4.0,4.0,4.0,4.0,4.0,4.0,4.0,100.0,,,,,,,,,,,,,,,,,,,,,,,,,,,,,,,,,,,,,,,,,,,,,,,,,,,,,,,,,,,,,,,,,,,,,,,,,,,,,,,,,,,,,,,,,,,,,,,,,,,,,,,,,,,,,,,,,,,,,,,,,,,,,,,,,,,
1725717277.166532,1725717277.16803,67.0,0.0,4395.256348,4291.410156,4288.333496,4386.153809,4219.871582,4091.410156,4060.769287,4282.94873,4248.974121,4224.871582,4506.794922,4526.666504,4355.384766,4444.871582,0.0,0.0,11.0,,,,0.0,4.0,4.0,4.0,4.0,4.0,4.0,4.0,4.0,4.0,4.0,4.0,4.0,4.0,4.0,100.0,,,,,,,,,,,,,,,,,,,,,,,,,,,,,,,,,,,,,,,,,,,,,,,,,,,,,,,,,,,,,,,,,,,,,,,,,,,,,,,,,,,,,,,,,,,,,,,,,,,,,,,,,,,,,,,,,,,,,,,,,,,,,,,,,,,
1725717277.170436,1725717277.171934,68.0,0.0,4398.461426,4293.717773,4295.256348,4391.153809,4220.0,4092.692383,4062.94873,4282.179688,4250.384766,4230.384766,4510.128418,4526.153809,4356.282227,4440.641113,0.0,0.0,11.0,,,,0.0,4.0,4.0,4.0,4.0,4.0,4.0,4.0,4.0,4.0,4.0,4.0,4.0,4.0,4.0,100.0,,,,,,,,,,,,,,,,,,,,,,,,,,,,,,,,,,,,,,,,,,,,,,,,,,,,,,,,0.0,0.0,1.0,0.0,1.0,0.0,,,,,,,,,,,,,,,,,,,,,,,,,,,,,,,,,,,,,,,,,,,,,,,,,,,,,,,,,,,,,,,,,,,,,,
