Timestamp,OriginalTimestamp,EEG.Counter,EEG.Interpolated,EEG.AF3,EEG.F7,EEG.F3,EEG.FC5,EEG.T7,EEG.P7,EEG.O1,EEG.O2,EEG.P8,EEG.T8,EEG.FC6,EEG.F4,EEG.F8,EEG.AF4,EEG.RawCq,EEG.Battery,EEG.BatteryPercent,MarkerIndex,MarkerType,MarkerValueInt,EEG.MarkerHardware,CQ.AF3,CQ.F7,CQ.F3,CQ.FC5,CQ.T7,CQ.P7,CQ.O1,CQ.O2,CQ.P8,CQ.T8,CQ.FC6,CQ.F4,CQ.F8,CQ.AF4,CQ.Overall,EQ.SampleRateQuality,EQ.OVERALL,EQ.AF3,EQ.F7,EQ.F3,EQ.FC5,EQ.T7,EQ.P7,EQ.O1,EQ.O2,EQ.P8,EQ.T8,EQ.FC6,EQ.F4,EQ.F8,EQ.AF4,MC.Action,MC.ActionPower,MC.IsActive,PM.Attention.IsActive,PM.Attention.Scaled,PM.Attention.Raw,PM.Attention.Min,PM.Attention.Max,PM.Engagement.IsActive,PM.Engagement.Scaled,PM.Engagement.Raw,PM.Engagement.Min,PM.Engagement.Max,PM.Excitement.IsActive,PM.Excitement.Scaled,PM.Excitement.Raw,PM.Excitement.Min,PM.Excitement.Max,PM.LongTermExcitement,PM.Stress.IsActive,PM.Stress.Scaled,PM.Stress.Raw,PM.Stress.Min,PM.Stress.Max,PM.Relaxation.IsActive,PM.Relaxation.Scaled,PM.Relaxation.Raw,PM.Relaxation.Min,PM.Relaxation.Max,PM.Interest.IsActive,PM.Interest.Scaled,PM.Interest.Raw,PM.Interest.Min,PM.Interest.Max,PM.Focus.IsActive,PM.Focus.Scaled,PM.Focus.Raw,PM.Focus.Min,PM.Focus.Max,FE.BlinkWink,FE.HorizontalEyesDirection,FE.UpperFaceAction,FE.UpperFaceActionPower,FE.LowerFaceAction,FE.LowerFaceActionPower,POW.AF3.Theta,POW.AF3.Alpha,POW.AF3.BetaL,POW.AF3.BetaH,POW.AF3.Gamma,POW.F7.Theta,POW.F7.Alpha,POW.F7.BetaL,POW.F7.BetaH,POW.F7.Gamma,POW.F3.Theta,POW.F3.Alpha,POW.F3.BetaL,POW.F3.BetaH,POW.F3.Gamma,POW.FC5.Theta,POW.FC5.Alpha,POW.FC5.BetaL,POW.FC5.BetaH,POW.FC5.Gamma,POW.T7.Theta,POW.T7.Alpha,POW.T7.BetaL,POW.T7.BetaH,POW.T7.Gamma,POW.P7.Theta,POW.P7.Alpha,POW.P7.BetaL,POW.P7.BetaH,POW.P7.Gamma,POW.O1.Theta,POW.O1.Alpha,POW.O1.BetaL,POW.O1.BetaH,POW.O1.Gamma,POW.O2.Theta,POW.O2.Alpha,POW.O2.BetaL,POW.O2.BetaH,POW.O2.Gamma,POW.P8.Theta,POW.P8.Alpha,POW.P8.BetaL,POW.P8.BetaH,POW.P8.Gamma,POW.T8.Theta,POW.T8.Alpha,POW.T8.BetaL,POW.T8.BetaH,POW.T8.Gamma,POW.FC6.Theta,POW.FC6.Alpha,POW.FC6.BetaL,POW.FC6.BetaH,POW.FC6.Gamma,POW.F4.Theta,POW.F4.Alpha,POW.F4.BetaL,POW.F4.BetaH,POW.F4.Gamma,POW.F8.Theta,POW.F8.Alpha,POW.F8.BetaL,POW.F8.BetaH,POW.F8.Gamma,POW.AF4.Theta,POW.AF4.Alpha,POW.AF4.BetaL,POW.AF4.BetaH,POW.AF4.Gamma
1725716010.290419,1725716010.292399,176.0,0.0,4470.128418,4297.692383,4306.794922,4283.205078,4248.461426,4281.410156,4052.820557,4266.538574,4253.077148,4249.487305,4456.538574,4522.436035,4357.307617,4417.94873,3396.0,1.0,15.0,11.0,1.0,1.0,0.0,4.0,4.0,4.0,4.0,4.0,4.0,4.0,4.0,4.0,4.0,4.0,4.0,4.0,4.0,100.0,,,,,,,,,,,,,,,,,,,,,,,,,,,,,,,,,,,,,,,,,,,,,,,,,,,,,,,,,,,,,,,,,,,,,,,,,,,,,,,,,,,,,,,,,,,,,,,,,,,,,,,,,,,,,,,,,,,,,,,,,,,,,,,,,,,
1725716010.294323,1725716010.296303,177.0,0.0,4462.692383,4297.563965,4305.897461,4283.846191,4247.820313,4279.615234,4051.025635,4264.871582,4249.230957,4247.307617,4456.794922,4520.897461,4356.282227,4416.282227,3814.0,1.0,15.0,,,,0.0,4.0,4.0,4.0,4.0,4.0,4.0,4.0,4.0,4.0,4.0,4.0,4.0,4.0,4.0,100.0,,,,,,,,,,,,,,,,,,,,,,,,,,,,,,,,,,,,,,,,,,,,,,,,,,,,,,,,,,,,,,,,,,,,,,,,,,,,,,,,,,,,,,,,,,,,,,,,,,,,,,,,,,,,,,,,,,,,,,,,,,,,,,,,,,,
1725716010.298227,1725716010.300207,178.0,0.0,4457.05127,4295.256348,4304.615234,4282.94873,4247.820313,4278.974121,4048.333252,4263.974121,4247.692383,4246.410156,4457.563965,4519.871582,4356.922852,4416.922852,2877.0,1.0,15.0,,,,0.0,4.0,4.0,4.0,4.0,4.0,4.0,4.0,4.0,4.0,4.0,4.0,4.0,4.0,4.0,100.0,,,,,,,,,,,,,,,,,,,,,,,,,,,,,,,,,,,,,,,,,,,,,,,,,,,,,,,,,,,,,,,,,,,,,,,,,,,,,,,,,,,,,,,,,,,,,,,,,,,,,,,,,,,,,,,,,,,,,,,,,,,,,,,,,,,
1725716010.302131,1725716010.304112,179.0,0.0,4455.897461,4292.05127,4302.563965,4280.128418,4248.205078,4280.0,4045.512939,4263.717773,4248.333496,4247.436035,4457.692383,4519.743652,4357.94873,4417.94873,3109.0,1.0,15.0,,,,0.0,4.0,4.0,4.0,4.0,4.0,4.0,4.0,4.0,4.0,4.0,4.0,4.0,4.0,4.0,100.0,,,,,,,,,,,,,,,,,,,,,,,,,,,,,,,,,,,,,,,,,,,,,,,,,,,,,,,,,,,,,,,,,,,,,,,,,,,,,,,,,,,,,,,,,,,,,,,,,,,,,,,,,,,,,,,,,,,,,,,,,,,,,,,,,,,
1725716010.306035,1725716010.308016,180.0,0.0,4458.461426,4290.384766,4300.128418,4277.05127,4248.974121,4281.538574,4044.230713,4262.94873,4249.102539,4249.615234,4457.179688,4520.128418,4358.205078,4417.692383,3396.0,1.0,15.0,,,,0.0,4.0,4.0,4.0,4.0,4.0,4.0,4.0,4.0,4.0,4.0,4.0,4.0,4.0,4.0,100.0,1.0,33.333332,1.0,4.0,4.0,4.0,4.0,3.0,0.0,4.0,4.0,4.0,4.0,4.0,4.0,4.0,1.0,0.0,0.0,,,,,,,,,,,,,,,,,,,,,,,,,,,,,,,,,,,,,0.0,0.0,1.0,0.0,1.0,0.0,5.074375,4.177247,2.133871,0.474059,0.117603,1.326882,0.811515,0.624488,0.10873,0.084623,2.576299,1.121738,0.401446,0.149759,0.07383,2.234766,0.958506,0.397965,0.077454,0.072838,0.846915,0.808171,0.366833,0.086453,0.085107,0.192699,0.177117,0.120991,0.047086,0.079606,1.821943,1.550254,0.251976,0.06442,0.057308,1.458161,4.169142,0.544985,0.164528,0.091046,1.344757,2.218404,1.039789,0.15709,0.112422,2.101097,1.198897,0.978518,0.294868,0.054031,4.506833,3.453396,1.399682,0.460172,0.121139,4.755438,3.120898,1.22885,0.392753,0.093866,4.360497,2.496893,1.328604,0.362475,0.116025,3.025266,1.98125,1.354914,0.293868,0.100873
1725716010.309939,1725716010.31192,181.0,0.0,4461.282227,4291.153809,4297.436035,4275.641113,4249.487305,4282.307617,4044.230713,4260.769043,4248.077148,4251.282227,4456.922852,4519.487305,4357.563965,4415.641113,3814.0,1.0,15.0,,,,0.0,4.0,4.0,4.0,4.0,4.0,4.0,4.0,4.0,4.0,4.0,4.0,4.0,4.0,4.0,100.0,,,,,,,,,,,,,,,,,,,,,,,,,,,,,,,,,,,,,,,,,,,,,,,,,,,,,,,,,,,,,,,,,,,,,,,,,,,,,,,,,,,,,,,,,,,,,,,,,,,,,,,,,,,,,,,,,,,,,,,,,,,,,,,,,,,
1725716010.313843,1725716010.315724,182.0,0.0,4460.897461,4293.589844,4295.128418,4276.666504,4249.358887,4281.282227,4044.615479,4257.179688,4244.743652,4251.025879,4457.692383,4516.410156,4356.666504,4412.820313,2877.0,1.0,15.0,,,,0.0,4.0,4.0,4.0,4.0,4.0,4.0,4.0,4.0,4.0,4.0,4.0,4.0,4.0,4.0,100.0,,,,,,,,,,,,,,,,,,,,,,,,,,,,,,,,,,,,,,,,,,,,,,,,,,,,,,,,,,,,,,,,,,,,,,,,,,,,,,,,,,,,,,,,,,,,,,,,,,,,,,,,,,,,,,,,,,,,,,,,,,,,,,,,,,,
1725716010.317747,1725716010.319628,183.0,0.0,4456.666504,4296.282227,4294.102539,4279.102539,4248.974121,4278.589844,4043.718018,4252.820313,4240.0,4249.358887,4458.846191,4511.025879,4356.025879,4410.384766,3109.0,1.0,15.0,,,,0.0,4.0,4.0,4.0,4.0,4.0,4.0,4.0,4.0,4.0,4.0,4.0,4.0,4.0,4.0,100.0,,,,,,,,,,,,,,,,,,,,,,,,,,,,,,,,,,,,,,,,,,,,,,,,,,,,,,,,,,,,,,,,,,,,,,,,,,,,,,,,,,,,,,,,,,,,,,,,,,,,,,,,,,,,,,,,,,,,,,,,,,,,,,,,,,,
1725716010.321651,1725716010.323632,184.0,0.0,4451.025879,4297.563965,4294.615234,4281.153809,4248.717773,4275.769043,4041.281982,4249.102539,4235.769043,4247.94873,4458.974121,4506.025879,4356.025879,4409.358887,3396.0,1.0,15.0,,,,0.0,4.0,4.0,4.0,4.0,4.0,4.0,4.0,4.0,4.0,4.0,4.0,4.0,4.0,4.0,100.0,,,,,,,,,,,,,,,,,,,,,,,,,,,,,,,,,,,,,,,,,,,,,,,,,,,,,,,,,,,,,,,,,,,,,,,,,,,,,,,,,,,,,,,,,,,,,,,,,,,,,,,,,,,,,,,,,,,,,,,,,,,,,,,,,,,
1725716010.325555,1725716010.327536,185.0,0.0,4446.666504,4296.538574,4296.410156,4281.282227,4248.846191,4274.743652,4037.94873,4247.05127,4233.333496,4248.077148,4457.94873,4504.487305,4356.538574,4410.384766,3814.0,1.0,15.0,,,,0.0,4.0,4.0,4.0,4.0,4.0,4.0,4.0,4.0,4.0,4.0,4.0,4.0,4.0,4.0,100.0,,,,,,,,,,,,,,,,,,,,,,,,,,,,,,,,,,,,,,,,,,,,,,,,,,,,,,,,,,,,,,,,,,,,,,,,,,,,,,,,,,,,,,,,,,,,,,,,,,,,,,,,,,,,,,,,,,,,,,,,,,,,,,,,,,,
1725716010.32946,1725716010.33144,186.0,0.0,4444.743652,4293.846191,4298.333496,4279.871582,4249.358887,4276.025879,4034.743652,4247.563965,4232.692383,4249.615234,4457.307617,4508.205078,4357.307617,4413.589844,2877.0,1.0,15.0,,,,0.0,4.0,4.0,4.0,4.0,4.0,4.0,4.0,4.0,4.0,4.0,4.0,4.0,4.0,4.0,100.0,,,,,,,,,,,,,,,,,,,,,,,,,,,,,,,,,,,,,,,,,,,,,,,,,,,,,,,,,,,,,,,,,,,,,,,,,,,,,,,,,,,,,,,,,,,,,,,,,,,,,,,,,,,,,,,,,,,,,,,,,,,,,,,,,,,
1725716010.333364,1725716010.335344,187.0,0.0,4444.487305,4290.641113,4299.743652,4278.589844,4250.0,4278.846191,4033.076904,4250.256348,4233.717773,4250.641113,4458.846191,4515.384766,4358.717773,4418.205078,3109.0,1.0,15.0,,,,0.0,4.0,4.0,4.0,4.0,4.0,4.0,4.0,4.0,4.0,4.0,4.0,4.0,4.0,4.0,100.0,,,,,,,,,,,,,,,,,,,,,,,,,,,,,,,,,,,,,,,,,,,,,,,,,,,,,,,,,,,,,,,,,,,,,,,,,,,,,,,,,,,,,,,,,,,,,,,,,,,,,,,,,,,,,,,,,,,,,,,,,,,,,,,,,,,
1725716010.337268,1725716010.339348,188.0,0.0,4444.743652,4288.077148,4300.641113,4278.589844,4250.256348,4281.025879,4033.076904,4253.974121,4236.153809,4250.0,4463.333496,4521.794922,4361.153809,4422.94873,3396.0,1.0,15.0,,,,0.0,4.0,4.0,4.0,4.0,4.0,4.0,4.0,4.0,4.0,4.0,4.0,4.0,4.0,4.0,100.0,,,,,,,,,,,,,,,,,,,,,,,,,,,,,,,,,,,,,,,,,,,,,,,,,,,,,,,,0.0,0.0,1.0,0.0,1.0,0.0,,,,,,,,,,,,,,,,,,,,,,,,,,,,,,,,,,,,,,,,,,,,,,,,,,,,,,,,,,,,,,,,,,,,,,
1725716010.341172,1725716010.343252,189.0,0.0,4445.128418,4287.05127,4301.666504,4279.871582,4250.384766,4281.153809,4034.487061,4257.820313,4240.0,4248.974121,4469.358887,4524.743652,4364.487305,4426.410156,3814.0,1.0,15.0,,,,0.0,4.0,4.0,4.0,4.0,4.0,4.0,4.0,4.0,4.0,4.0,4.0,4.0,4.0,4.0,100.0,,,,,,,,,,,,,,,,,,,,,,,,,,,,,,,,,,,,,,,,,,,,,,,,,,,,,,,,,,,,,,,,,,,,,,,,,,,,,,,,,,,,,,,,,,,,,,,,,,,,,,,,,,,,,,,,,,,,,,,,,,,,,,,,,,,
1725716010.345076,1725716010.347157,190.0,0.0,4445.897461,4287.94873,4303.333496,4281.282227,4250.384766,4279.230957,4035.769287,4261.666504,4244.487305,4249.615234,4474.487305,4524.615234,4367.820313,4428.077148,2877.0,1.0,15.0,,,,0.0,4.0,4.0,4.0,4.0,4.0,4.0,4.0,4.0,4.0,4.0,4.0,4.0,4.0,4.0,100.0,,,,,,,,,,,,,,,,,,,,,,,,,,,,,,,,,,,,,,,,,,,,,,,,,,,,,,,,,,,,,,,,,,,,,,,,,,,,,,,,,,,,,,,,,,,,,,,,,,,,,,,,,,,,,,,,,,,,,,,,,,,,,,,,,,,
1725716010.34898,1725716010.351061,191.0,0.0,4446.794922,4290.128418,4305.384766,4281.666504,4250.769043,4276.666504,4035.769287,4265.897461,4248.461426,4253.077148,4477.692383,4524.358887,4369.615234,4428.717773,3109.0,1.0,15.0,,,,0.0,4.0,4.0,4.0,4.0,4.0,4.0,4.0,4.0,4.0,4.0,4.0,4.0,4.0,4.0,100.0,,,,,,,,,,,,,,,,,,,,,,,,,,,,,,,,,,,,,,,,,,,,,,,,,,,,,,,,,,,,,,,,,,,,,,,,,,,,,,,,,,,,,,,,,,,,,,,,,,,,,,,,,,,,,,,,,,,,,,,,,,,,,,,,,,,
1725716010.352884,1725716010.355065,192.0,0.0,4447.179688,4292.179688,4307.436035,4280.641113,4251.666504,4275.0,4034.871826,4270.128418,4250.769043,4257.692383,4479.230957,4526.794922,4368.717773,4429.102539,3396.0,1.0,15.0,,,,0.0,4.0,4.0,4.0,4.0,4.0,4.0,4.0,4.0,4.0,4.0,4.0,4.0,4.0,4.0,100.0,,,,,,,,,,,,,,,,,,,,,,,,,,,,,,,,,,,,,,,,,,,,,,,,,,,,,,,,,,,,,,,,,,,,,,,,,,,,,,,,,,,,,,,,,,,,,,,,,,,,,,,,,,,,,,,,,,,,,,,,,,,,,,,,,,,
1725716010.356788,1725716010.358969,193.0,0.0,4446.282227,4292.563965,4309.230957,4278.717773,4252.692383,4274.871582,4034.615479,4273.846191,4251.153809,4260.384766,4479.743652,4531.794922,4365.769043,4429.743652,3814.0,1.0,15.0,,,,0.0,4.0,4.0,4.0,4.0,4.0,4.0,4.0,4.0,4.0,4.0,4.0,4.0,4.0,4.0,100.0,,,,,,,,,,,,,,,,,,,,,,,,,,,,,,,,,,,,,,,,,,,,,,,,,,,,,,,,,,,,,,,,,,,,,,,,,,,,,,,,,,,,,,,,,,,,,,,,,,,,,,,,,,,,,,,,,,,,,,,,,,,,,,,,,,,
1725716010.360692,1725716010.362873,194.0,0.0,4443.717773,4290.641113,4310.256348,4276.794922,4253.077148,4275.256348,4036.281982,4276.538574,4250.512695,4259.230957,4479.487305,4536.410156,4362.179688,4430.256348,2877.0,1.0,15.0,,,,0.0,4.0,4.0,4.0,4.0,4.0,4.0,4.0,4.0,4.0,4.0,4.0,4.0,4.0,4.0,100.0,,,,,,,,,,,,,,,,,,,,,,,,,,,,,,,,,,,,,,,,,,,,,,,,,,,,,,,,,,,,,,,,,,,,,,,,,,,,,,,,,,,,,,,,,,,,,,,,,,,,,,,,,,,,,,,,,,,,,,,,,,,,,,,,,,,
1725716010.364596,1725716010.366777,195.0,0.0,4439.358887,4286.538574,4310.0,4275.641113,4252.307617,4275.384766,4039.487061,4278.461426,4249.871582,4254.615234,4478.205078,4536.794922,4359.615234,4429.615234,3109.0,1.0,15.0,,,,0.0,4.0,4.0,4.0,4.0,4.0,4.0,4.0,4.0,4.0,4.0,4.0,4.0,4.0,4.0,100.0,,,,,,,,,,,,,,,,,,,,,,,,,,,,,,,,,,,,,,,,,,,,,,,,,,,,,,,,,,,,,,,,,,,,,,,,,,,,,,,,,,,,,,,,,,,,,,,,,,,,,,,,,,,,,,,,,,,,,,,,,,,,,,,,,,,
1725716010.368501,1725716010.370681,196.0,0.0,4433.589844,4281.794922,4308.717773,4275.128418,4250.897461,4275.256348,4042.692383,4280.0,4249.743652,4249.615234,4476.410156,4532.563965,4358.205078,4426.922852,3396.0,1.0,15.0,,,,0.0,4.0,4.0,4.0,4.0,4.0,4.0,4.0,4.0,4.0,4.0,4.0,4.0,4.0,4.0,100.0,,,,,,,,,,,,,,,,,,,,,,,,,,,,,,,,,,,,,,,,,,,,,,,,,,,,,,,,0.0,0.0,1.0,0.0,1.0,0.0,,,,,,,,,,,,,,,,,,,,,,,,,,,,,,,,,,,,,,,,,,,,,,,,,,,,,,,,,,,,,,,,,,,,,,
1725716010.372405,1725716010.374485,197.0,0.0,4427.820313,4278.461426,4307.436035,4275.0,4250.0,4275.128418,4044.871826,4281.538574,4250.256348,4246.922852,4475.0,4526.922852,4357.307617,4422.820313,3814.0,1.0,15.0,,,,0.0,4.0,4.0,4.0,4.0,4.0,4.0,4.0,4.0,4.0,4.0,4.0,4.0,4.0,4.0,100.0,,,,,,,,,,,,,,,,,,,,,,,,,,,,,,,,,,,,,,,,,,,,,,,,,,,,,,,,,,,,,,,,,,,,,,,,,,,,,,,,,,,,,,,,,,,,,,,,,,,,,,,,,,,,,,,,,,,,,,,,,,,,,,,,,,,
1725716010.376309,1725716010.378389,198.0,0.0,4423.077148,4277.563965,4307.436035,4275.0,4251.025879,4275.0,4045.769287,4281.794922,4251.025879,4247.307617,4474.743652,4523.717773,4355.641113,4418.974121,2877.0,1.0,15.0,,,,0.0,4.0,4.0,4.0,4.0,4.0,4.0,4.0,4.0,4.0,4.0,4.0,4.0,4.0,4.0,100.0,,,,,,,,,,,,,,,,,,,,,,,,,,,,,,,,,,,,,,,,,,,,,,,,,,,,,,,,,,,,,,,,,,,,,,,,,,,,,,,,,,,,,,,,,,,,,,,,,,,,,,,,,,,,,,,,,,,,,,,,,,,,,,,,,,,
1725716010.380213,1725716010.382294,199.0,0.0,4419.743652,4278.589844,4308.333496,4275.0,4254.230957,4274.871582,4045.897461,4279.615234,4251.794922,4249.487305,4474.871582,4524.230957,4353.077148,4416.666504,3109.0,1.0,15.0,,,,0.0,4.0,4.0,4.0,4.0,4.0,4.0,4.0,4.0,4.0,4.0,4.0,4.0,4.0,4.0,100.0,,,,,,,,,,,,,,,,,,,,,,,,,,,,,,,,,,,,,,,,,,,,,,,,,,,,,,,,,,,,,,,,,,,,,,,,,,,,,,,,,,,,,,,,,,,,,,,,,,,,,,,,,,,,,,,,,,,,,,,,,,,,,,,,,,,
1725716010.384117,1725716010.386098,200.0,0.0,4416.794922,4279.615234,4309.102539,4274.358887,4258.205078,4274.871582,4046.025635,4274.743652,4252.436035,4250.897461,4474.230957,4526.025879,4350.256348,4415.512695,3396.0,1.0,15.0,,,,0.0,4.0,4.0,4.0,4.0,4.0,4.0,4.0,4.0,4.0,4.0,4.0,4.0,4.0,4.0,100.0,,,,,,,,,,,,,,,,,,,,,,,,,,,,,,,,,,,,,,,,,,,,,,,,,,,,,,,,,,,,,,,,,,,,,,,,,,,,,,,,,,,,,,,,,,,,,,,,,,,,,,,,,,,,,,,,,,,,,,,,,,,,,,,,,,,
1725716010.388021,1725716010.390002,201.0,0.0,4413.589844,4279.358887,4308.461426,4272.94873,4260.769043,4275.256348,4047.179443,4269.487305,4252.307617,4249.615234,4471.538574,4525.641113,4348.461426,4414.743652,3814.0,1.0,15.0,,,,0.0,4.0,4.0,4.0,4.0,4.0,4.0,4.0,4.0,4.0,4.0,4.0,4.0,4.0,4.0,100.0,,,,,,,,,,,,,,,,,,,,,,,,,,,,,,,,,,,,,,,,,,,,,,,,,,,,,,,,,,,,,,,,,,,,,,,,,,,,,,,,,,,,,,,,,,,,,,,,,,,,,,,,,,,,,,,,,,,,,,,,,,,,,,,,,,,
1725716010.391925,1725716010.393906,202.0,0.0,4410.128418,4278.077148,4306.538574,4271.410156,4260.641113,4275.512695,4049.230713,4265.769043,4250.384766,4246.666504,4466.666504,4521.025879,4348.205078,4413.461426,2877.0,1.0,15.0,,,,0.0,4.0,4.0,4.0,4.0,4.0,4.0,4.0,4.0,4.0,4.0,4.0,4.0,4.0,4.0,100.0,,,,,,,,,,,,,,,,,,,,,,,,,,,,,,,,,,,,,,,,,,,,,,,,,,,,,,,,,,,,,,,,,,,,,,,,,,,,,,,,,,,,,,,,,,,,,,,,,,,,,,,,,,,,,,,,,,,,,,,,,,,,,,,,,,,
1725716010.395829,1725716010.39791,203.0,0.0,4407.05127,4276.922852,4304.743652,4270.897461,4258.077148,4275.512695,4052.05127,4264.358887,4246.538574,4244.230957,4461.153809,4513.589844,4349.102539,4411.794922,3109.0,1.0,15.0,,,,0.0,4.0,4.0,4.0,4.0,4.0,4.0,4.0,4.0,4.0,4.0,4.0,4.0,4.0,4.0,100.0,,,,,,,,,,,,,,,,,,,,,,,,,,,,,,,,,,,,,,,,,,,,,,,,,,,,,,,,,,,,,,,,,,,,,,,,,,,,,,,,,,,,,,,,,,,,,,,,,,,,,,,,,,,,,,,,,,,,,,,,,,,,,,,,,,,
1725716010.399733,1725716010.401814,204.0,0.0,4404.487305,4276.922852,4304.102539,4271.794922,4254.358887,4274.487305,4054.871826,4263.846191,4241.410156,4244.487305,4457.692383,4506.666504,4349.743652,4410.641113,3396.0,1.0,15.0,,,,0.0,4.0,4.0,4.0,4.0,4.0,4.0,4.0,4.0,4.0,4.0,4.0,4.0,4.0,4.0,100.0,,,,,,,,,,,,,,,,,,,,,,,,,,,,,,,,,,,,,,,,,,,,,,,,,,,,,,,,0.0,0.0,1.0,0.0,1.0,0.0,,,,,,,,,,,,,,,,,,,,,,,,,,,,,,,,,,,,,,,,,,,,,,,,,,,,,,,,,,,,,,,,,,,,,,
1725716010.403638,1725716010.405718,205.0,0.0,4400.769043,4277.692383,4304.487305,4273.333496,4251.410156,4272.436035,4057.307617,4262.563965,4236.922852,4247.05127,4457.692383,4503.846191,4348.846191,4410.512695,3814.0,1.0,15.0,,,,0.0,4.0,4.0,4.0,4.0,4.0,4.0,4.0,4.0,4.0,4.0,4.0,4.0,4.0,4.0,100.0,,,,,,,,,,,,,,,,,,,,,,,,,,,,,,,,,,,,,,,,,,,,,,,,,,,,,,,,,,,,,,,,,,,,,,,,,,,,,,,,,,,,,,,,,,,,,,,,,,,,,,,,,,,,,,,,,,,,,,,,,,,,,,,,,,,
1725716010.407542,1725716010.409622,206.0,0.0,4394.743652,4278.589844,4304.487305,4273.974121,4250.256348,4269.615234,4059.487061,4259.358887,4234.615234,4248.717773,4460.512695,4505.641113,4345.897461,4410.384766,2877.0,1.0,15.0,,,,0.0,4.0,4.0,4.0,4.0,4.0,4.0,4.0,4.0,4.0,4.0,4.0,4.0,4.0,4.0,100.0,,,,,,,,,,,,,,,,,,,,,,,,,,,,,,,,,,,,,,,,,,,,,,,,,,,,,,,,,,,,,,,,,,,,,,,,,,,,,,,,,,,,,,,,,,,,,,,,,,,,,,,,,,,,,,,,,,,,,,,,,,,,,,,,,,,
1725716010.411446,1725716010.413526,207.0,0.0,4385.897461,4278.589844,4303.077148,4272.820313,4250.769043,4267.05127,4061.923096,4254.743652,4234.615234,4247.179688,4463.077148,4509.102539,4342.307617,4408.974121,3109.0,1.0,15.0,,,,0.0,4.0,4.0,4.0,4.0,4.0,4.0,4.0,4.0,4.0,4.0,4.0,4.0,4.0,4.0,100.0,,,,,,,,,,,,,,,,,,,,,,,,,,,,,,,,,,,,,,,,,,,,,,,,,,,,,,,,,,,,,,,,,,,,,,,,,,,,,,,,,,,,,,,,,,,,,,,,,,,,,,,,,,,,,,,,,,,,,,,,,,,,,,,,,,,
1725716010.41535,1725716010.417331,208.0,0.0,4375.641113,4277.692383,4300.512695,4270.0,4251.666504,4265.641113,4064.743652,4250.384766,4235.512695,4242.307617,4462.436035,4510.384766,4339.871582,4406.153809,3396.0,1.0,15.0,,,,0.0,4.0,4.0,4.0,4.0,4.0,4.0,4.0,4.0,4.0,4.0,4.0,4.0,4.0,4.0,100.0,,,,,,,,,,,,,,,,,,,,,,,,,,,,,,,,,,,,,,,,,,,,,,,,,,,,,,,,,,,,,,,,,,,,,,,,,,,,,,,,,,,,,,,,,,,,,,,,,,,,,,,,,,,,,,,,,,,,,,,,,,,,,,,,,,,
1725716010.419254,1725716010.421235,209.0,0.0,4366.666504,4276.410156,4297.307617,4266.538574,4251.922852,4265.256348,4067.564209,4248.461426,4235.769043,4236.410156,4458.461426,4507.307617,4339.871582,4402.563965,3814.0,1.0,15.0,,,,0.0,4.0,4.0,4.0,4.0,4.0,4.0,4.0,4.0,4.0,4.0,4.0,4.0,4.0,4.0,100.0,,,,,,,,,,,,,,,,,,,,,,,,,,,,,,,,,,,,,,,,,,,,,,,,,,,,,,,,,,,,,,,,,,,,,,,,,,,,,,,,,,,,,,,,,,,,,,,,,,,,,,,,,,,,,,,,,,,,,,,,,,,,,,,,,,,
1725716010.423158,1725716010.425139,210.0,0.0,4361.538574,4275.641113,4294.487305,4264.102539,4251.282227,4265.641113,4070.0,4249.102539,4234.358887,4232.05127,4452.820313,4500.512695,4341.410156,4399.487305,2877.0,1.0,15.0,,,,0.0,4.0,4.0,4.0,4.0,4.0,4.0,4.0,4.0,4.0,4.0,4.0,4.0,4.0,4.0,100.0,,,,,,,,,,,,,,,,,,,,,,,,,,,,,,,,,,,,,,,,,,,,,,,,,,,,,,,,,,,,,,,,,,,,,,,,,,,,,,,,,,,,,,,,,,,,,,,,,,,,,,,,,,,,,,,,,,,,,,,,,,,,,,,,,,,
1725716010.427062,1725716010.429043,211.0,0.0,4360.641113,4275.769043,4292.436035,4263.717773,4250.384766,4265.769043,4071.666748,4250.769043,4232.307617,4230.512695,4448.717773,4493.717773,4342.692383,4397.436035,3109.0,1.0,15.0,,,,0.0,4.0,4.0,4.0,4.0,4.0,4.0,4.0,4.0,4.0,4.0,4.0,4.0,4.0,4.0,100.0,,,,,,,,,,,,,,,,,,,,,,,,,,,,,,,,,,,,,,,,,,,,,,,,,,,,,,,,,,,,,,,,,,,,,,,,,,,,,,,,,,,,,,,,,,,,,,,,,,,,,,,,,,,,,,,,,,,,,,,,,,,,,,,,,,,
1725716010.430966,1725716010.432947,212.0,0.0,4362.563965,4276.794922,4291.538574,4265.512695,4250.128418,4265.256348,4073.333252,4251.282227,4230.769043,4231.153809,4448.205078,4490.384766,4342.692383,4396.282227,3396.0,1.0,15.0,,,,0.0,4.0,4.0,4.0,4.0,4.0,4.0,4.0,4.0,4.0,4.0,4.0,4.0,4.0,4.0,100.0,,,,,,,,,,,,,,,,,1.0,0.0,0.0,,,,,,,,,,,,,,,,,,,,,,,,,,,,,,,,,,,,,0.0,0.0,1.0,0.0,1.0,0.0,5.071337,4.084791,2.382421,0.476982,0.122698,1.171069,0.744725,0.62188,0.117806,0.08101,2.182132,1.066669,0.341669,0.146525,0.071703,1.85811,0.78977,0.341529,0.076943,0.068881,0.751817,0.695442,0.335147,0.083184,0.083406,0.18794,0.144506,0.101678,0.03605,0.067311,1.43061,1.287971,0.27236,0.065517,0.052984,1.500831,3.729929,0.520844,0.187271,0.09643,1.212762,1.846964,0.941757,0.155301,0.103174,1.840629,1.106329,0.917731,0.269235,0.05934,4.300192,3.30517,1.287107,0.460267,0.115945,4.37305,2.768021,1.117582,0.398815,0.094131,3.864998,2.313463,1.164692,0.354646,0.116151,2.683012,1.809713,1.206333,0.28247,0.106074
1725716010.43487,1725716010.436751,213.0,0.0,4364.615234,4278.333496,4291.794922,4268.846191,4250.769043,4264.487305,4075.641113,4250.0,4231.153809,4232.820313,4451.153809,4492.436035,4341.794922,4396.666504,3814.0,1.0,15.0,,,,0.0,4.0,4.0,4.0,4.0,4.0,4.0,4.0,4.0,4.0,4.0,4.0,4.0,4.0,4.0,100.0,,,,,,,,,,,,,,,,,,,,,,,,,,,,,,,,,,,,,,,,,,,,,,,,,,,,,,,,,,,,,,,,,,,,,,,,,,,,,,,,,,,,,,,,,,,,,,,,,,,,,,,,,,,,,,,,,,,,,,,,,,,,,,,,,,,
1725716010.438774,1725716010.440655,214.0,0.0,4364.871582,4279.743652,4293.077148,4273.077148,4252.05127,4264.615234,4079.487061,4248.589844,4232.94873,4234.230957,4455.641113,4498.717773,4341.538574,4399.230957,2877.0,1.0,15.0,,,,0.0,4.0,4.0,4.0,4.0,4.0,4.0,4.0,4.0,4.0,4.0,4.0,4.0,4.0,4.0,100.0,,,,,,,,,,,,,,,,,,,,,,,,,,,,,,,,,,,,,,,,,,,,,,,,,,,,,,,,,,,,,,,,,,,,,,,,,,,,,,,,,,,,,,,,,,,,,,,,,,,,,,,,,,,,,,,,,,,,,,,,,,,,,,,,,,,
1725716010.442679,1725716010.444659,215.0,0.0,4362.94873,4280.641113,4295.128418,4276.794922,4252.94873,4265.897461,4084.615479,4248.333496,4235.0,4235.128418,4460.0,4505.897461,4343.077148,4403.589844,3109.0,1.0,15.0,,,,0.0,4.0,4.0,4.0,4.0,4.0,4.0,4.0,4.0,4.0,4.0,4.0,4.0,4.0,4.0,100.0,,,,,,,,,,,,,,,,,,,,,,,,,,,,,,,,,,,,,,,,,,,,,,,,,,,,,,,,,,,,,,,,,,,,,,,,,,,,,,,,,,,,,,,,,,,,,,,,,,,,,,,,,,,,,,,,,,,,,,,,,,,,,,,,,,,
1725716010.446583,1725716010.448563,216.0,0.0,4360.0,4280.769043,4297.94873,4279.102539,4252.692383,4267.307617,4089.871826,4249.230957,4236.025879,4236.153809,4462.820313,4510.128418,4346.025879,4408.077148,3396.0,1.0,15.0,,,,0.0,4.0,4.0,4.0,4.0,4.0,4.0,4.0,4.0,4.0,4.0,4.0,4.0,4.0,4.0,100.0,,,,,,,,,,,,,,,,,,,,,,,,,,,,,,,,,,,,,,,,,,,,,,,,,,,,,,,,,,,,,,,,,,,,,,,,,,,,,,,,,,,,,,,,,,,,,,,,,,,,,,,,,,,,,,,,,,,,,,,,,,,,,,,,,,,
1725716010.450487,1725716010.452467,217.0,0.0,4357.692383,4281.025879,4301.410156,4279.743652,4251.410156,4267.563965,4093.718018,4249.871582,4235.641113,4238.205078,4464.615234,4509.871582,4349.487305,4411.025879,3814.0,1.0,15.0,,,,0.0,4.0,4.0,4.0,4.0,4.0,4.0,4.0,4.0,4.0,4.0,4.0,4.0,4.0,4.0,100.0,,,,,,,,,,,,,,,,,,,,,,,,,,,,,,,,,,,,,,,,,,,,,,,,,,,,,,,,,,,,,,,,,,,,,,,,,,,,,,,,,,,,,,,,,,,,,,,,,,,,,,,,,,,,,,,,,,,,,,,,,,,,,,,,,,,
1725716010.454391,1725716010.456372,218.0,0.0,4356.794922,4282.179688,4304.871582,4279.615234,4249.871582,4266.410156,4095.256348,4249.615234,4234.358887,4241.282227,4466.025879,4507.05127,4352.436035,4412.05127,2877.0,1.0,15.0,,,,0.0,4.0,4.0,4.0,4.0,4.0,4.0,4.0,4.0,4.0,4.0,4.0,4.0,4.0,4.0,100.0,,,,,,,,,,,,,,,,,,,,,,,,,,,,,,,,,,,,,,,,,,,,,,,,,,,,,,,,,,,,,,,,,,,,,,,,,,,,,,,,,,,,,,,,,,,,,,,,,,,,,,,,,,,,,,,,,,,,,,,,,,,,,,,,,,,
1725716010.458295,1725716010.460376,219.0,0.0,4357.436035,4284.871582,4307.94873,4280.128418,4249.102539,4265.256348,4094.871826,4248.974121,4233.589844,4244.615234,4468.333496,4505.384766,4354.743652,4412.820313,3109.0,1.0,15.0,,,,0.0,4.0,4.0,4.0,4.0,4.0,4.0,4.0,4.0,4.0,4.0,4.0,4.0,4.0,4.0,100.0,,,,,,,,,,,,,,,,,,,,,,,,,,,,,,,,,,,,,,,,,,,,,,,,,,,,,,,,,,,,,,,,,,,,,,,,,,,,,,,,,,,,,,,,,,,,,,,,,,,,,,,,,,,,,,,,,,,,,,,,,,,,,,,,,,,
1725716010.462199,1725716010.46428,220.0,0.0,4358.461426,4288.461426,4310.384766,4281.538574,4249.615234,4266.025879,4094.358887,4249.743652,4233.717773,4247.179688,4471.538574,4508.077148,4357.05127,4415.128418,3396.0,1.0,15.0,,,,0.0,4.0,4.0,4.0,4.0,4.0,4.0,4.0,4.0,4.0,4.0,4.0,4.0,4.0,4.0,100.0,,,,,,,,,,,,,,,,,,,,,,,,,,,,,,,,,,,,,,,,,,,,,,,,,,,,,,,,0.0,0.0,1.0,0.0,1.0,0.0,,,,,,,,,,,,,,,,,,,,,,,,,,,,,,,,,,,,,,,,,,,,,,,,,,,,,,,,,,,,,,,,,,,,,,
1725716010.466103,1725716010.468184,221.0,0.0,4359.230957,4292.179688,4312.436035,4283.717773,4250.769043,4268.589844,4095.384521,4253.077148,4234.615234,4248.461426,4474.743652,4514.487305,4359.358887,4419.615234,3814.0,1.0,15.0,,,,0.0,4.0,4.0,4.0,4.0,4.0,4.0,4.0,4.0,4.0,4.0,4.0,4.0,4.0,4.0,100.0,,,,,,,,,,,,,,,,,,,,,,,,,,,,,,,,,,,,,,,,,,,,,,,,,,,,,,,,,,,,,,,,,,,,,,,,,,,,,,,,,,,,,,,,,,,,,,,,,,,,,,,,,,,,,,,,,,,,,,,,,,,,,,,,,,,
1725716010.470007,1725716010.472088,222.0,0.0,4359.102539,4294.615234,4313.974121,4285.0,4251.282227,4271.153809,4098.333496,4258.461426,4235.512695,4248.974121,4477.05127,4521.538574,4361.794922,4424.615234,2877.0,1.0,15.0,,,,0.0,4.0,4.0,4.0,4.0,4.0,4.0,4.0,4.0,4.0,4.0,4.0,4.0,4.0,4.0,100.0,,,,,,,,,,,,,,,,,,,,,,,,,,,,,,,,,,,,,,,,,,,,,,,,,,,,,,,,,,,,,,,,,,,,,,,,,,,,,,,,,,,,,,,,,,,,,,,,,,,,,,,,,,,,,,,,,,,,,,,,,,,,,,,,,,,
1725716010.473911,1725716010.475992,223.0,0.0,4358.461426,4295.512695,4314.615234,4284.487305,4250.512695,4271.666504,4102.307617,4263.461426,4236.410156,4249.230957,4477.692383,4525.769043,4363.846191,4427.692383,3109.0,1.0,15.0,,,,0.0,4.0,4.0,4.0,4.0,4.0,4.0,4.0,4.0,4.0,4.0,4.0,4.0,4.0,4.0,100.0,,,,,,,,,,,,,,,,,,,,,,,,,,,,,,,,,,,,,,,,,,,,,,,,,,,,,,,,,,,,,,,,,,,,,,,,,,,,,,,,,,,,,,,,,,,,,,,,,,,,,,,,,,,,,,,,,,,,,,,,,,,,,,,,,,,
1725716010.477816,1725716010.479796,224.0,0.0,4358.333496,4295.0,4314.615234,4282.436035,4248.717773,4269.743652,4105.897461,4266.025879,4236.922852,4249.487305,4476.666504,4526.025879,4365.256348,4427.307617,3396.0,1.0,15.0,,,,0.0,4.0,4.0,4.0,4.0,4.0,4.0,4.0,4.0,4.0,4.0,4.0,4.0,4.0,4.0,100.0,,,,,,,,,,,,,,,,,,,,,,,,,,,,,,,,,,,,,,,,,,,,,,,,,,,,,,,,,,,,,,,,,,,,,,,,,,,,,,,,,,,,,,,,,,,,,,,,,,,,,,,,,,,,,,,,,,,,,,,,,,,,,,,,,,,
1725716010.48172,1725716010.4837,225.0,0.0,4358.974121,4293.974121,4314.487305,4280.384766,4246.922852,4266.282227,4107.820313,4265.128418,4236.410156,4249.358887,4474.743652,4523.974121,4365.512695,4423.974121,3814.0,1.0,15.0,,,,0.0,4.0,4.0,4.0,4.0,4.0,4.0,4.0,4.0,4.0,4.0,4.0,4.0,4.0,4.0,100.0,,,,,,,,,,,,,,,,,,,,,,,,,,,,,,,,,,,,,,,,,,,,,,,,,,,,,,,,,,,,,,,,,,,,,,,,,,,,,,,,,,,,,,,,,,,,,,,,,,,,,,,,,,,,,,,,,,,,,,,,,,,,,,,,,,,
1725716010.485624,1725716010.487604,226.0,0.0,4359.615234,4293.077148,4314.743652,4279.743652,4246.282227,4263.589844,4108.333496,4262.179688,4235.0,4248.846191,4473.461426,4521.410156,4364.871582,4419.871582,2877.0,1.0,15.0,,,,0.0,4.0,4.0,4.0,4.0,4.0,4.0,4.0,4.0,4.0,4.0,4.0,4.0,4.0,4.0,100.0,,,,,,,,,,,,,,,,,,,,,,,,,,,,,,,,,,,,,,,,,,,,,,,,,,,,,,,,,,,,,,,,,,,,,,,,,,,,,,,,,,,,,,,,,,,,,,,,,,,,,,,,,,,,,,,,,,,,,,,,,,,,,,,,,,,
1725716010.489528,1725716010.491409,227.0,0.0,4359.102539,4292.05127,4314.871582,4280.384766,4246.794922,4262.94873,4109.102539,4259.615234,4233.589844,4248.077148,4473.717773,4518.717773,4363.717773,4416.922852,3109.0,1.0,15.0,,,,0.0,4.0,4.0,4.0,4.0,4.0,4.0,4.0,4.0,4.0,4.0,4.0,4.0,4.0,4.0,100.0,,,,,,,,,,,,,,,,,,,,,,,,,,,,,,,,,,,,,,,,,,,,,,,,,,,,,,,,,,,,,,,,,,,,,,,,,,,,,,,,,,,,,,,,,,,,,,,,,,,,,,,,,,,,,,,,,,,,,,,,,,,,,,,,,,,
1725716010.493432,1725716010.495313,228.0,0.0,4356.410156,4290.512695,4314.487305,4281.025879,4247.94873,4264.230957,4111.794922,4259.358887,4233.589844,4247.563965,4474.615234,4515.512695,4362.179688,4415.769043,3396.0,1.0,15.0,,,,0.0,4.0,4.0,4.0,4.0,4.0,4.0,4.0,4.0,4.0,4.0,4.0,4.0,4.0,4.0,100.0,,,,,,,,,,,,,,,,,,,,,,,,,,,,,,,,,,,,,,,,,,,,,,,,,,,,,,,,0.0,0.0,1.0,0.0,1.0,0.0,,,,,,,,,,,,,,,,,,,,,,,,,,,,,,,,,,,,,,,,,,,,,,,,,,,,,,,,,,,,,,,,,,,,,,
1725716010.497336,1725716010.499217,229.0,0.0,4352.05127,4287.94873,4313.333496,4280.769043,4248.717773,4265.769043,4116.282227,4261.538574,4235.641113,4247.436035,4474.743652,4511.922852,4360.256348,4415.641113,3814.0,1.0,15.0,,,,0.0,4.0,4.0,4.0,4.0,4.0,4.0,4.0,4.0,4.0,4.0,4.0,4.0,4.0,4.0,100.0,,,,,,,,,,,,,,,,,,,,,,,,,,,,,,,,,,,,,,,,,,,,,,,,,,,,,,,,,,,,,,,,,,,,,,,,,,,,,,,,,,,,,,,,,,,,,,,,,,,,,,,,,,,,,,,,,,,,,,,,,,,,,,,,,,,
1725716010.50124,1725716010.503121,230.0,0.0,4347.820313,4285.0,4311.282227,4279.871582,4248.717773,4266.025879,4120.384766,4265.0,4238.846191,4247.05127,4473.333496,4508.717773,4358.205078,4414.743652,2877.0,1.0,15.0,,,,0.0,4.0,4.0,4.0,4.0,4.0,4.0,4.0,4.0,4.0,4.0,4.0,4.0,4.0,4.0,100.0,,,,,,,,,,,,,,,,,,,,,,,,,,,,,,,,,,,,,,,,,,,,,,,,,,,,,,,,,,,,,,,,,,,,,,,,,,,,,,,,,,,,,,,,,,,,,,,,,,,,,,,,,,,,,,,,,,,,,,,,,,,,,,,,,,,
1725716010.505144,1725716010.507125,231.0,0.0,4345.256348,4282.307617,4308.077148,4279.102539,4247.94873,4264.743652,4122.436035,4267.436035,4241.666504,4246.153809,4470.769043,4507.05127,4356.410156,4412.692383,3109.0,1.0,15.0,,,,0.0,4.0,4.0,4.0,4.0,4.0,4.0,4.0,4.0,4.0,4.0,4.0,4.0,4.0,4.0,100.0,,,,,,,,,,,,,,,,,,,,,,,,,,,,,,,,,,,,,,,,,,,,,,,,,,,,,,,,,,,,,,,,,,,,,,,,,,,,,,,,,,,,,,,,,,,,,,,,,,,,,,,,,,,,,,,,,,,,,,,,,,,,,,,,,,,
1725716010.509048,1725716010.511029,232.0,0.0,4344.615234,4280.897461,4304.230957,4279.230957,4247.05127,4263.205078,4122.692383,4267.820313,4242.820313,4245.641113,4468.717773,4506.794922,4355.384766,4410.512695,3396.0,1.0,15.0,,,,0.0,4.0,4.0,4.0,4.0,4.0,4.0,4.0,4.0,4.0,4.0,4.0,4.0,4.0,4.0,100.0,,,,,,,,,,,,,,,,,,,,,,,,,,,,,,,,,,,,,,,,,,,,,,,,,,,,,,,,,,,,,,,,,,,,,,,,,,,,,,,,,,,,,,,,,,,,,,,,,,,,,,,,,,,,,,,,,,,,,,,,,,,,,,,,,,,
1725716010.512952,1725716010.514933,233.0,0.0,4345.128418,4280.769043,4300.384766,4280.0,4246.282227,4262.179688,4122.94873,4266.025879,4242.436035,4246.794922,4468.461426,4507.436035,4355.384766,4409.230957,3814.0,1.0,15.0,,,,0.0,4.0,4.0,4.0,4.0,4.0,4.0,4.0,4.0,4.0,4.0,4.0,4.0,4.0,4.0,100.0,,,,,,,,,,,,,,,,,,,,,,,,,,,,,,,,,,,,,,,,,,,,,,,,,,,,,,,,,,,,,,,,,,,,,,,,,,,,,,,,,,,,,,,,,,,,,,,,,,,,,,,,,,,,,,,,,,,,,,,,,,,,,,,,,,,
1725716010.516857,1725716010.518837,234.0,0.0,4345.256348,4281.410156,4297.563965,4280.641113,4246.025879,4261.922852,4125.0,4263.974121,4241.666504,4250.0,4470.128418,4507.94873,4355.897461,4409.358887,2877.0,1.0,15.0,,,,0.0,4.0,4.0,4.0,4.0,4.0,4.0,4.0,4.0,4.0,4.0,4.0,4.0,4.0,4.0,100.0,,,,,,,,,,,,,,,,,,,,,,,,,,,,,,,,,,,,,,,,,,,,,,,,,,,,,,,,,,,,,,,,,,,,,,,,,,,,,,,,,,,,,,,,,,,,,,,,,,,,,,,,,,,,,,,,,,,,,,,,,,,,,,,,,,,
1725716010.520761,1725716010.522641,235.0,0.0,4344.230957,4281.666504,4296.666504,4280.256348,4246.025879,4261.922852,4128.589844,4262.563965,4241.794922,4253.846191,4472.436035,4507.563965,4356.410156,4410.128418,3109.0,1.0,15.0,,,,0.0,4.0,4.0,4.0,4.0,4.0,4.0,4.0,4.0,4.0,4.0,4.0,4.0,4.0,4.0,100.0,,,,,,,,,,,,,,,,,,,,,,,,,,,,,,,,,,,,,,,,,,,,,,,,,,,,,,,,,,,,,,,,,,,,,,,,,,,,,,,,,,,,,,,,,,,,,,,,,,,,,,,,,,,,,,,,,,,,,,,,,,,,,,,,,,,
1725716010.524665,1725716010.526546,236.0,0.0,4342.94873,4281.410156,4297.692383,4279.230957,4246.153809,4261.410156,4132.820313,4262.05127,4243.461426,4256.410156,4473.974121,4506.410156,4356.538574,4410.641113,3396.0,1.0,15.0,,,,0.0,4.0,4.0,4.0,4.0,4.0,4.0,4.0,4.0,4.0,4.0,4.0,4.0,4.0,4.0,100.0,,,,,,,,,,,,,,,,,,,,,,,,,,,,,,,,,,,,,,,,,,,,,,,,,,,,,,,,0.0,0.0,1.0,0.0,1.0,0.0,,,,,,,,,,,,,,,,,,,,,,,,,,,,,,,,,,,,,,,,,,,,,,,,,,,,,,,,,,,,,,,,,,,,,,
1725716010.528569,1725716010.53045,237.0,0.0,4342.307617,4281.025879,4299.615234,4278.461426,4246.410156,4260.897461,4136.922852,4262.307617,4246.025879,4257.307617,4473.974121,4505.641113,4356.794922,4410.384766,3814.0,1.0,15.0,,,,0.0,4.0,4.0,4.0,4.0,4.0,4.0,4.0,4.0,4.0,4.0,4.0,4.0,4.0,4.0,100.0,,,,,,,,,,,,,,,,,,,,,,,,,,,,,,,,,,,,,,,,,,,,,,,,,,,,,,,,,,,,,,,,,,,,,,,,,,,,,,,,,,,,,,,,,,,,,,,,,,,,,,,,,,,,,,,,,,,,,,,,,,,,,,,,,,,
1725716010.532473,1725716010.534354,238.0,0.0,4343.077148,4281.153809,4301.282227,4278.589844,4246.794922,4260.897461,4141.153809,4262.563965,4248.205078,4257.307617,4473.077148,4505.897461,4358.205078,4409.743652,2877.0,1.0,15.0,,,,0.0,4.0,4.0,4.0,4.0,4.0,4.0,4.0,4.0,4.0,4.0,4.0,4.0,4.0,4.0,100.0,,,,,,,,,,,,,,,,,,,,,,,,,,,,,,,,,,,,,,,,,,,,,,,,,,,,,,,,,,,,,,,,,,,,,,,,,,,,,,,,,,,,,,,,,,,,,,,,,,,,,,,,,,,,,,,,,,,,,,,,,,,,,,,,,,,
1725716010.536377,1725716010.538158,239.0,0.0,4344.487305,4281.282227,4302.307617,4279.230957,4247.307617,4261.794922,4145.256348,4262.692383,4249.102539,4257.692383,4472.307617,4507.307617,4360.256348,4408.974121,3109.0,1.0,15.0,,,,0.0,4.0,4.0,4.0,4.0,4.0,4.0,4.0,4.0,4.0,4.0,4.0,4.0,4.0,4.0,100.0,,,,,,,,,,,,,,,,,,,,,,,,,,,,,,,,,,,,,,,,,,,,,,,,,,,,,,,,,,,,,,,,,,,,,,,,,,,,,,,,,,,,,,,,,,,,,,,,,,,,,,,,,,,,,,,,,,,,,,,,,,,,,,,,,,,
1725716010.540281,1725716010.542062,240.0,0.0,4345.384766,4280.641113,4303.205078,4279.487305,4247.820313,4262.820313,4148.717773,4262.692383,4248.717773,4259.102539,4472.692383,4508.717773,4361.410156,4408.461426,3396.0,1.0,15.0,,,,0.0,4.0,4.0,4.0,4.0,4.0,4.0,4.0,4.0,4.0,4.0,4.0,4.0,4.0,4.0,100.0,,,,,,,,,,,,,,,,,,,,,,,,,,,,,,,,,,,,,,,,,,,,,,,,,,,,,,,,,,,,,,,,,,,,,,,,,,,,,,,,,,,,,,,,,,,,,,,,,,,,,,,,,,,,,,,,,,,,,,,,,,,,,,,,,,,
1725716010.544185,1725716010.545966,241.0,0.0,4344.615234,4278.974121,4304.358887,4278.974121,4248.205078,4263.461426,4150.641113,4263.077148,4247.94873,4260.384766,4473.205078,4509.102539,4359.615234,4408.589844,3814.0,1.0,15.0,,,,0.0,4.0,4.0,4.0,4.0,4.0,4.0,4.0,4.0,4.0,4.0,4.0,4.0,4.0,4.0,100.0,,,,,,,,,,,,,,,,,,,,,,,,,,,,,,,,,,,,,,,,,,,,,,,,,,,,,,,,,,,,,,,,,,,,,,,,,,,,,,,,,,,,,,,,,,,,,,,,,,,,,,,,,,,,,,,,,,,,,,,,,,,,,,,,,,,
1725716010.548089,1725716010.54997,242.0,0.0,4342.94873,4277.436035,4306.025879,4277.820313,4248.461426,4263.846191,4151.666504,4263.846191,4247.563965,4260.128418,4473.077148,4508.589844,4355.0,4409.230957,2877.0,1.0,15.0,,,,0.0,4.0,4.0,4.0,4.0,4.0,4.0,4.0,4.0,4.0,4.0,4.0,4.0,4.0,4.0,100.0,,,,,,,,,,,,,,,,,,,,,,,,,,,,,,,,,,,,,,,,,,,,,,,,,,,,,,,,,,,,,,,,,,,,,,,,,,,,,,,,,,,,,,,,,,,,,,,,,,,,,,,,,,,,,,,,,,,,,,,,,,,,,,,,,,,
1725716010.551993,1725716010.553874,243.0,0.0,4342.05127,4277.692383,4307.563965,4277.05127,4248.461426,4263.717773,4152.94873,4264.102539,4246.922852,4257.94873,4471.922852,4507.94873,4349.871582,4410.256348,3109.0,1.0,15.0,,,,0.0,4.0,4.0,4.0,4.0,4.0,4.0,4.0,4.0,4.0,4.0,4.0,4.0,4.0,4.0,100.0,,,,,,,,,,,,,,,,,,,,,,,,,,,,,,,,,,,,,,,,,,,,,,,,,,,,,,,,,,,,,,,,,,,,,,,,,,,,,,,,,,,,,,,,,,,,,,,,,,,,,,,,,,,,,,,,,,,,,,,,,,,,,,,,,,,
1725716010.555897,1725716010.557778,244.0,0.0,4342.94873,4281.153809,4308.461426,4277.179688,4248.333496,4263.333496,4156.025879,4262.820313,4246.025879,4255.384766,4470.256348,4507.563965,4347.94873,4411.666504,3396.0,1.0,15.0,,,,0.0,4.0,4.0,4.0,4.0,4.0,4.0,4.0,4.0,4.0,4.0,4.0,4.0,4.0,4.0,100.0,,,,,,,,,,,,,,,,,1.0,0.0,0.0,,,,,,,,,,,,,,,,,,,,,,,,,,,,,,,,,,,,,0.0,0.0,1.0,0.0,1.0,0.0,6.123623,4.262226,2.623474,0.530183,0.128585,1.0401,0.685427,0.599725,0.133642,0.075193,1.784981,0.997161,0.275164,0.142517,0.068454,1.448503,0.645893,0.293297,0.084918,0.062028,0.611534,0.574533,0.283974,0.08207,0.078601,0.215171,0.133429,0.083871,0.030405,0.057242,1.358407,1.041711,0.310872,0.069424,0.051184,1.432457,3.155224,0.486855,0.20265,0.102469,1.013621,1.516941,0.823656,0.154884,0.090181,1.519787,1.030117,0.837473,0.239358,0.06649,3.837883,3.099001,1.127022,0.427933,0.109857,3.78475,2.415545,0.940805,0.390473,0.09531,3.118998,2.050683,0.972108,0.338999,0.111729,2.244304,1.680333,0.976018,0.257842,0.111462
1725716010.559801,1725716010.561683,245.0,0.0,4344.871582,4287.179688,4308.846191,4278.461426,4248.205078,4262.820313,4161.025879,4260.769043,4245.128418,4254.615234,4470.0,4507.563965,4351.794922,4413.461426,3814.0,1.0,15.0,,,,0.0,4.0,4.0,4.0,4.0,4.0,4.0,4.0,4.0,4.0,4.0,4.0,4.0,4.0,4.0,100.0,,,,,,,,,,,,,,,,,,,,,,,,,,,,,,,,,,,,,,,,,,,,,,,,,,,,,,,,,,,,,,,,,,,,,,,,,,,,,,,,,,,,,,,,,,,,,,,,,,,,,,,,,,,,,,,,,,,,,,,,,,,,,,,,,,,
1725716010.563706,1725716010.565687,246.0,0.0,4345.384766,4293.077148,4308.717773,4280.128418,4248.333496,4262.05127,4166.410156,4260.0,4245.512695,4256.410156,4472.307617,4508.077148,4360.897461,4415.641113,2877.0,1.0,15.0,,,,0.0,4.0,4.0,4.0,4.0,4.0,4.0,4.0,4.0,4.0,4.0,4.0,4.0,4.0,4.0,100.0,,,,,,,,,,,,,,,,,,,,,,,,,,,,,,,,,,,,,,,,,,,,,,,,,,,,,,,,,,,,,,,,,,,,,,,,,,,,,,,,,,,,,,,,,,,,,,,,,,,,,,,,,,,,,,,,,,,,,,,,,,,,,,,,,,,
1725716010.56761,1725716010.569591,247.0,0.0,4343.333496,4296.153809,4308.974121,4281.282227,4248.974121,4261.538574,4170.256348,4261.025879,4247.179688,4259.743652,4476.538574,4509.102539,4371.025879,4417.563965,3109.0,1.0,15.0,,,,0.0,4.0,4.0,4.0,4.0,4.0,4.0,4.0,4.0,4.0,4.0,4.0,4.0,4.0,4.0,100.0,,,,,,,,,,,,,,,,,,,,,,,,,,,,,,,,,,,,,,,,,,,,,,,,,,,,,,,,,,,,,,,,,,,,,,,,,,,,,,,,,,,,,,,,,,,,,,,,,,,,,,,,,,,,,,,,,,,,,,,,,,,,,,,,,,,
1725716010.571514,1725716010.573495,248.0,0.0,4338.974121,4295.0,4310.128418,4281.666504,4249.358887,4261.153809,4171.538574,4262.563965,4248.205078,4261.922852,4480.256348,4510.128418,4376.282227,4418.589844,3396.0,1.0,15.0,,,,0.0,4.0,4.0,4.0,4.0,4.0,4.0,4.0,4.0,4.0,4.0,4.0,4.0,4.0,4.0,100.0,,,,,,,,,,,,,,,,,,,,,,,,,,,,,,,,,,,,,,,,,,,,,,,,,,,,,,,,,,,,,,,,,,,,,,,,,,,,,,,,,,,,,,,,,,,,,,,,,,,,,,,,,,,,,,,,,,,,,,,,,,,,,,,,,,,
1725716010.575418,1725716010.577399,249.0,0.0,4333.717773,4291.153809,4311.538574,4281.538574,4249.358887,4260.512695,4171.282227,4262.307617,4246.282227,4260.897461,4480.641113,4510.897461,4373.333496,4417.94873,3814.0,1.0,15.0,,,,0.0,4.0,4.0,4.0,4.0,4.0,4.0,4.0,4.0,4.0,4.0,4.0,4.0,4.0,4.0,100.0,,,,,,,,,,,,,,,,,,,,,,,,,,,,,,,,,,,,,,,,,,,,,,,,,,,,,,,,,,,,,,,,,,,,,,,,,,,,,,,,,,,,,,,,,,,,,,,,,,,,,,,,,,,,,,,,,,,,,,,,,,,,,,,,,,,
1725716010.579322,1725716010.581203,250.0,0.0,4329.358887,4287.563965,4312.179688,4281.025879,4248.589844,4260.128418,4171.666504,4259.743652,4240.897461,4256.282227,4476.794922,4510.512695,4364.743652,4416.025879,2877.0,1.0,15.0,,,,0.0,4.0,4.0,4.0,4.0,4.0,4.0,4.0,4.0,4.0,4.0,4.0,4.0,4.0,4.0,100.0,,,,,,,,,,,,,,,,,,,,,,,,,,,,,,,,,,,,,,,,,,,,,,,,,,,,,,,,,,,,,,,,,,,,,,,,,,,,,,,,,,,,,,,,,,,,,,,,,,,,,,,,,,,,,,,,,,,,,,,,,,,,,,,,,,,
1725716010.583226,1725716010.585107,251.0,0.0,4326.153809,4286.538574,4311.282227,4280.384766,4247.436035,4260.512695,4174.487305,4256.025879,4234.358887,4250.256348,4470.769043,4509.102539,4356.666504,4413.846191,3109.0,1.0,15.0,,,,0.0,4.0,4.0,4.0,4.0,4.0,4.0,4.0,4.0,4.0,4.0,4.0,4.0,4.0,4.0,100.0,,,,,,,,,,,,,,,,,,,,,,,,,,,,,,,,,,,,,,,,,,,,,,,,,,,,,,,,,,,,,,,,,,,,,,,,,,,,,,,,,,,,,,,,,,,,,,,,,,,,,,,,,,,,,,,,,,,,,,,,,,,,,,,,,,,
1725716010.58713,1725716010.589011,252.0,0.0,4323.077148,4288.077148,4309.615234,4279.871582,4246.410156,4261.794922,4179.358887,4253.461426,4229.615234,4245.897461,4465.769043,4507.436035,4354.230957,4412.563965,3396.0,1.0,15.0,,,,0.0,4.0,4.0,4.0,4.0,4.0,4.0,4.0,4.0,4.0,4.0,4.0,4.0,4.0,4.0,100.0,,,,,,,,,,,,,,,,,,,,,,,,,,,,,,,,,,,,,,,,,,,,,,,,,,,,,,,,0.0,0.0,1.0,0.0,1.0,0.0,,,,,,,,,,,,,,,,,,,,,,,,,,,,,,,,,,,,,,,,,,,,,,,,,,,,,,,,,,,,,,,,,,,,,,
1725716010.591034,1725716010.592915,253.0,0.0,4319.102539,4290.384766,4308.205078,4279.487305,4246.153809,4262.94873,4183.333496,4253.974121,4228.717773,4245.128418,4464.102539,4506.282227,4357.436035,4412.563965,3814.0,1.0,15.0,,,,0.0,4.0,4.0,4.0,4.0,4.0,4.0,4.0,4.0,4.0,4.0,4.0,4.0,4.0,4.0,100.0,,,,,,,,,,,,,,,,,,,,,,,,,,,,,,,,,,,,,,,,,,,,,,,,,,,,,,,,,,,,,,,,,,,,,,,,,,,,,,,,,,,,,,,,,,,,,,,,,,,,,,,,,,,,,,,,,,,,,,,,,,,,,,,,,,,
1725716010.594938,1725716010.59672,254.0,0.0,4314.102539,4291.153809,4308.077148,4279.230957,4246.794922,4263.077148,4184.487305,4257.820313,4231.025879,4247.307617,4465.769043,4506.282227,4362.563965,4413.461426,2877.0,1.0,15.0,,,,0.0,4.0,4.0,4.0,4.0,4.0,4.0,4.0,4.0,4.0,4.0,4.0,4.0,4.0,4.0,100.0,,,,,,,,,,,,,,,,,,,,,,,,,,,,,,,,,,,,,,,,,,,,,,,,,,,,,,,,,,,,,,,,,,,,,,,,,,,,,,,,,,,,,,,,,,,,,,,,,,,,,,,,,,,,,,,,,,,,,,,,,,,,,,,,,,,
1725716010.598843,1725716010.600624,255.0,0.0,4308.333496,4289.358887,4309.102539,4278.846191,4247.94873,4261.794922,4183.974121,4263.333496,4234.358887,4249.743652,4469.615234,4506.922852,4365.128418,4414.230957,15.0,1.0,15.0,,,,0.0,4.0,4.0,4.0,4.0,4.0,4.0,4.0,4.0,4.0,4.0,4.0,4.0,4.0,4.0,100.0,,,,,,,,,,,,,,,,,,,,,,,,,,,,,,,,,,,,,,,,,,,,,,,,,,,,,,,,,,,,,,,,,,,,,,,,,,,,,,,,,,,,,,,,,,,,,,,,,,,,,,,,,,,,,,,,,,,,,,,,,,,,,,,,,,,
1725716010.602747,1725716010.604528,0.0,0.0,4302.820313,4285.641113,4310.384766,4278.589844,4249.102539,4260.128418,4185.0,4267.820313,4235.897461,4250.384766,4473.717773,4508.077148,4364.230957,4413.974121,2693.0,1.0,15.0,,,,0.0,4.0,4.0,4.0,4.0,4.0,4.0,4.0,4.0,4.0,4.0,4.0,4.0,4.0,4.0,100.0,,,,,,,,,,,,,,,,,,,,,,,,,,,,,,,,,,,,,,,,,,,,,,,,,,,,,,,,,,,,,,,,,,,,,,,,,,,,,,,,,,,,,,,,,,,,,,,,,,,,,,,,,,,,,,,,,,,,,,,,,,,,,,,,,,,
1725716010.606651,1725716010.608532,1.0,0.0,4297.94873,4282.05127,4311.410156,4278.205078,4249.615234,4259.102539,4189.230957,4268.717773,4235.0,4249.358887,4476.922852,4508.974121,4362.179688,4413.205078,2565.0,1.0,15.0,,,,0.0,4.0,4.0,4.0,4.0,4.0,4.0,4.0,4.0,4.0,4.0,4.0,4.0,4.0,4.0,100.0,,,,,,,,,,,,,,,,,,,,,,,,,,,,,,,,,,,,,,,,,,,,,,,,,,,,,,,,,,,,,,,,,,,,,,,,,,,,,,,,,,,,,,,,,,,,,,,,,,,,,,,,,,,,,,,,,,,,,,,,,,,,,,,,,,,
1725716010.610555,1725716010.612436,2.0,0.0,4293.717773,4280.512695,4311.922852,4277.94873,4249.102539,4258.846191,4195.128418,4265.769043,4232.692383,4248.333496,4477.563965,4509.487305,4361.282227,4412.563965,2515.0,1.0,15.0,,,,0.0,4.0,4.0,4.0,4.0,4.0,4.0,4.0,4.0,4.0,4.0,4.0,4.0,4.0,4.0,100.0,,,,,,,,,,,,,,,,,,,,,,,,,,,,,,,,,,,,,,,,,,,,,,,,,,,,,,,,,,,,,,,,,,,,,,,,,,,,,,,,,,,,,,,,,,,,,,,,,,,,,,,,,,,,,,,,,,,,,,,,,,,,,,,,,,,
1725716010.614459,1725716010.61634,3.0,0.0,4289.615234,4281.025879,4311.666504,4277.94873,4248.077148,4259.358887,4199.615234,4260.0,4231.153809,4248.589844,4475.128418,4509.102539,4361.922852,4411.794922,2461.0,1.0,15.0,,,,0.0,4.0,4.0,4.0,4.0,4.0,4.0,4.0,4.0,4.0,4.0,4.0,4.0,4.0,4.0,100.0,,,,,,,,,,,,,,,,,,,,,,,,,,,,,,,,,,,,,,,,,,,,,,,,,,,,,,,,,,,,,,,,,,,,,,,,,,,,,,,,,,,,,,,,,,,,,,,,,,,,,,,,,,,,,,,,,,,,,,,,,,,,,,,,,,,
1725716010.618363,1725716010.620244,4.0,0.0,4285.512695,4282.692383,4310.641113,4277.820313,4246.922852,4260.0,4201.410156,4254.358887,4231.666504,4249.230957,4470.384766,4507.436035,4362.179688,4410.128418,2436.0,1.0,15.0,,,,0.0,4.0,4.0,4.0,4.0,4.0,4.0,4.0,4.0,4.0,4.0,4.0,4.0,4.0,4.0,100.0,,,,,,,,,,,,,,,,,,,,,,,,,,,,,,,,,,,,,,,,,,,,,,,,,,,,,,,,0.0,0.0,1.0,0.0,1.0,0.0,,,,,,,,,,,,,,,,,,,,,,,,,,,,,,,,,,,,,,,,,,,,,,,,,,,,,,,,,,,,,,,,,,,,,,
1725716010.622267,1725716010.624248,5.0,0.0,4281.282227,4284.358887,4309.487305,4277.692383,4246.282227,4260.128418,4201.410156,4250.641113,4233.589844,4248.589844,4465.0,4504.615234,4360.769043,4406.922852,2399.0,1.0,15.0,,,,0.0,4.0,4.0,4.0,4.0,4.0,4.0,4.0,4.0,4.0,4.0,4.0,4.0,4.0,4.0,100.0,,,,,,,,,,,,,,,,,,,,,,,,,,,,,,,,,,,,,,,,,,,,,,,,,,,,,,,,,,,,,,,,,,,,,,,,,,,,,,,,,,,,,,,,,,,,,,,,,,,,,,,,,,,,,,,,,,,,,,,,,,,,,,,,,,,
1725716010.626171,1725716010.628152,6.0,0.0,4276.922852,4285.897461,4309.102539,4277.179688,4246.282227,4259.743652,4202.05127,4249.358887,4234.871582,4245.512695,4460.897461,4501.410156,4357.692383,4402.692383,2426.0,1.0,15.0,,,,0.0,4.0,4.0,4.0,4.0,4.0,4.0,4.0,4.0,4.0,4.0,4.0,4.0,4.0,4.0,100.0,,,,,,,,,,,,,,,,,,,,,,,,,,,,,,,,,,,,,,,,,,,,,,,,,,,,,,,,,,,,,,,,,,,,,,,,,,,,,,,,,,,,,,,,,,,,,,,,,,,,,,,,,,,,,,,,,,,,,,,,,,,,,,,,,,,
1725716010.630075,1725716010.632056,7.0,0.0,4272.692383,4287.94873,4309.743652,4276.666504,4246.666504,4259.102539,4205.256348,4249.102539,4233.717773,4240.256348,4459.230957,4498.205078,4354.743652,4398.974121,2493.0,1.0,15.0,,,,0.0,4.0,4.0,4.0,4.0,4.0,4.0,4.0,4.0,4.0,4.0,4.0,4.0,4.0,4.0,100.0,,,,,,,,,,,,,,,,,,,,,,,,,,,,,,,,,,,,,,,,,,,,,,,,,,,,,,,,,,,,,,,,,,,,,,,,,,,,,,,,,,,,,,,,,,,,,,,,,,,,,,,,,,,,,,,,,,,,,,,,,,,,,,,,,,,
1725716010.633979,1725716010.63596,8.0,0.0,4268.333496,4290.0,4310.897461,4276.538574,4247.179688,4259.102539,4211.025879,4248.717773,4230.641113,4235.256348,4459.487305,4495.256348,4353.717773,4397.307617,2466.0,1.0,15.0,,,,0.0,4.0,4.0,4.0,4.0,4.0,4.0,4.0,4.0,4.0,4.0,4.0,4.0,4.0,4.0,100.0,,,,,,,,,,,,,,,,,,,,,,,,,,,,,,,,,,,,,,,,,,,,,,,,,,,,,,,,,,,,,,,,,,,,,,,,,,,,,,,,,,,,,,,,,,,,,,,,,,,,,,,,,,,,,,,,,,,,,,,,,,,,,,,,,,,
1725716010.637884,1725716010.639864,9.0,0.0,4263.846191,4291.538574,4311.410156,4276.922852,4247.563965,4260.128418,4217.692383,4247.563965,4227.307617,4233.077148,4460.384766,4493.077148,4354.871582,4397.820313,2560.0,1.0,15.0,,,,0.0,4.0,4.0,4.0,4.0,4.0,4.0,4.0,4.0,4.0,4.0,4.0,4.0,4.0,4.0,100.0,,,,,,,,,,,,,,,,,,,,,,,,,,,,,,,,,,,,,,,,,,,,,,,,,,,,,,,,,,,,,,,,,,,,,,,,,,,,,,,,,,,,,,,,,,,,,,,,,,,,,,,,,,,,,,,,,,,,,,,,,,,,,,,,,,,
1725716010.641788,1725716010.643669,10.0,0.0,4258.461426,4291.538574,4310.897461,4277.563965,4247.563965,4261.794922,4223.077148,4246.538574,4225.641113,4235.0,4460.641113,4492.05127,4357.307617,4398.974121,2877.0,1.0,15.0,,,,0.0,4.0,4.0,4.0,4.0,4.0,4.0,4.0,4.0,4.0,4.0,4.0,4.0,4.0,4.0,100.0,,,,,,,,,,,,,,,,,,,,,,,,,,,,,,,,,,,,,,,,,,,,,,,,,,,,,,,,,,,,,,,,,,,,,,,,,,,,,,,,,,,,,,,,,,,,,,,,,,,,,,,,,,,,,,,,,,,,,,,,,,,,,,,,,,,
1725716010.645692,1725716010.647573,11.0,0.0,4251.666504,4289.743652,4309.871582,4278.077148,4247.307617,4263.205078,4226.282227,4246.410156,4226.794922,4240.256348,4459.615234,4492.820313,4358.717773,4399.871582,3109.0,1.0,15.0,,,,0.0,4.0,4.0,4.0,4.0,4.0,4.0,4.0,4.0,4.0,4.0,4.0,4.0,4.0,4.0,100.0,,,,,,,,,,,,,,,,,,,,,,,,,,,,,,,,,,,,,,,,,,,,,,,,,,,,,,,,,,,,,,,,,,,,,,,,,,,,,,,,,,,,,,,,,,,,,,,,,,,,,,,,,,,,,,,,,,,,,,,,,,,,,,,,,,,
1725716010.649596,1725716010.651477,12.0,0.0,4243.333496,4287.179688,4309.871582,4278.205078,4247.179688,4263.717773,4228.205078,4247.436035,4230.256348,4246.410156,4457.692383,4495.256348,4357.94873,4400.0,3396.0,1.0,15.0,,,,0.0,4.0,4.0,4.0,4.0,4.0,4.0,4.0,4.0,4.0,4.0,4.0,4.0,4.0,4.0,100.0,,,,,,,,,,,,,,,,,,,,,,,,,,,,,,,,,,,,,,,,,,,,,,,,,,,,,,,,0.0,0.0,1.0,0.0,1.0,0.0,,,,,,,,,,,,,,,,,,,,,,,,,,,,,,,,,,,,,,,,,,,,,,,,,,,,,,,,,,,,,,,,,,,,,,
1725716010.6535,1725716010.655481,13.0,0.0,4234.102539,4285.512695,4311.794922,4277.94873,4247.179688,4263.717773,4230.641113,4249.102539,4233.717773,4250.0,4456.538574,4499.102539,4355.384766,4399.487305,3817.0,1.0,15.0,,,,0.0,4.0,4.0,4.0,4.0,4.0,4.0,4.0,4.0,4.0,4.0,4.0,4.0,4.0,4.0,100.0,,,,,,,,,,,,,,,,,,,,,,,,,,,,,,,,,,,,,,,,,,,,,,,,,,,,,,,,,,,,,,,,,,,,,,,,,,,,,,,,,,,,,,,,,,,,,,,,,,,,,,,,,,,,,,,,,,,,,,,,,,,,,,,,,,,
1725716010.657404,1725716010.659385,14.0,0.0,4225.384766,4285.769043,4315.769043,4277.692383,4247.436035,4263.974121,4234.743652,4250.0,4234.102539,4249.102539,4457.179688,4502.94873,4352.436035,4398.846191,2877.0,1.0,15.0,,,,0.0,4.0,4.0,4.0,4.0,4.0,4.0,4.0,4.0,4.0,4.0,4.0,4.0,4.0,4.0,100.0,,,,,,,,,,,,,,,,,,,,,,,,,,,,,,,,,,,,,,,,,,,,,,,,,,,,,,,,,,,,,,,,,,,,,,,,,,,,,,,,,,,,,,,,,,,,,,,,,,,,,,,,,,,,,,,,,,,,,,,,,,,,,,,,,,,
1725716010.661308,1725716010.663289,15.0,0.0,4218.846191,4287.307617,4320.384766,4277.820313,4247.820313,4264.743652,4239.743652,4249.230957,4230.128418,4244.743652,4459.358887,4505.641113,4350.897461,4397.94873,3109.0,1.0,15.0,,,,0.0,4.0,4.0,4.0,4.0,4.0,4.0,4.0,4.0,4.0,4.0,4.0,4.0,4.0,4.0,100.0,,,,,,,,,,,,,,,,,,,,,,,,,,,,,,,,,,,,,,,,,,,,,,,,,,,,,,,,,,,,,,,,,,,,,,,,,,,,,,,,,,,,,,,,,,,,,,,,,,,,,,,,,,,,,,,,,,,,,,,,,,,,,,,,,,,
1725716010.665212,1725716010.667193,16.0,0.0,4214.743652,4288.589844,4324.230957,4278.461426,4247.94873,4265.512695,4244.487305,4248.077148,4223.589844,4239.615234,4461.538574,4506.794922,4350.769043,4397.563965,3396.0,1.0,15.0,,,,0.0,4.0,4.0,4.0,4.0,4.0,4.0,4.0,4.0,4.0,4.0,4.0,4.0,4.0,4.0,100.0,,,,,,,,,,,,,,,,,,,,,,,,,,,,,,,,,,,,,,,,,,,,,,,,,,,,,,,,,,,,,,,,,,,,,,,,,,,,,,,,,,,,,,,,,,,,,,,,,,,,,,,,,,,,,,,,,,,,,,,,,,,,,,,,,,,
1725716010.669116,1725716010.670997,17.0,0.0,4212.563965,4288.333496,4326.410156,4279.487305,4247.820313,4265.897461,4248.461426,4248.974121,4218.461426,4236.025879,4461.922852,4507.436035,4350.897461,4398.205078,3817.0,1.0,15.0,,,,0.0,4.0,4.0,4.0,4.0,4.0,4.0,4.0,4.0,4.0,4.0,4.0,4.0,4.0,4.0,100.0,,,,,,,,,,,,,,,,,,,,,,,,,,,,,,,,,,,,,,,,,,,,,,,,,,,,,,,,,,,,,,,,,,,,,,,,,,,,,,,,,,,,,,,,,,,,,,,,,,,,,,,,,,,,,,,,,,,,,,,,,,,,,,,,,,,
1725716010.67302,1725716010.674902,18.0,0.0,4210.256348,4286.666504,4327.179688,4280.641113,4247.436035,4265.641113,4252.692383,4253.077148,4218.205078,4234.743652,4460.128418,4508.077148,4350.512695,4399.743652,2877.0,1.0,15.0,,,,0.0,4.0,4.0,4.0,4.0,4.0,4.0,4.0,4.0,4.0,4.0,4.0,4.0,4.0,4.0,100.0,,,,,,,,,,,,,,,,,,,,,,,,,,,,,,,,,,,,,,,,,,,,,,,,,,,,,,,,,,,,,,,,,,,,,,,,,,,,,,,,,,,,,,,,,,,,,,,,,,,,,,,,,,,,,,,,,,,,,,,,,,,,,,,,,,,
1725716010.676925,1725716010.678806,19.0,0.0,4205.769043,4284.358887,4327.05127,4281.410156,4247.05127,4265.384766,4258.205078,4258.717773,4222.820313,4234.871582,4457.94873,4508.717773,4348.974121,4401.025879,3109.0,1.0,15.0,,,,0.0,4.0,4.0,4.0,4.0,4.0,4.0,4.0,4.0,4.0,4.0,4.0,4.0,4.0,4.0,100.0,,,,,,,,,,,,,,,,,,,,,,,,,,,,,,,,,,,,,,,,,,,,,,,,,,,,,,,,,,,,,,,,,,,,,,,,,,,,,,,,,,,,,,,,,,,,,,,,,,,,,,,,,,,,,,,,,,,,,,,,,,,,,,,,,,,
1725716010.680829,1725716010.68271,20.0,0.0,4198.333496,4282.692383,4326.794922,4281.153809,4247.179688,4265.0,4265.0,4262.436035,4229.358887,4235.0,4456.794922,4508.846191,4346.666504,4401.410156,3396.0,1.0,15.0,,,,0.0,4.0,4.0,4.0,4.0,4.0,4.0,4.0,4.0,4.0,4.0,4.0,4.0,4.0,4.0,100.0,,,,,,,,,,,,,,,,,1.0,0.0,0.0,,,,,,,,,,,,,,,,,,,,,,,,,,,,,,,,,,,,,0.0,0.0,64.0,0.09095,1.0,0.0,7.726523,4.506946,2.826488,0.620553,0.134905,1.053154,0.684101,0.581656,0.156814,0.069525,1.520666,0.963351,0.233864,0.142605,0.064718,1.182884,0.57426,0.285778,0.104424,0.053257,0.469713,0.465079,0.237573,0.08624,0.071449,0.236362,0.150024,0.070427,0.029502,0.051754,1.682289,0.845916,0.356234,0.078228,0.052425,1.303154,2.56298,0.474095,0.206281,0.107045,0.823567,1.284346,0.759308,0.156975,0.076032,1.27741,1.009763,0.807027,0.21718,0.074693,3.36892,2.906201,1.018873,0.381382,0.104476,3.205654,2.122342,0.788377,0.374155,0.098589,2.452999,1.842732,0.87153,0.329603,0.104975,1.920124,1.663843,0.762799,0.234658,0.115427
1725716010.684733,1725716010.686514,21.0,0.0,4188.846191,4282.05127,4326.666504,4280.384766,4248.077148,4264.615234,4271.410156,4262.179688,4233.589844,4234.743652,4457.179688,4508.333496,4344.358887,4400.769043,3817.0,1.0,15.0,,,,0.0,4.0,4.0,4.0,4.0,4.0,4.0,4.0,4.0,4.0,4.0,4.0,4.0,4.0,4.0,100.0,,,,,,,,,,,,,,,,,,,,,,,,,,,,,,,,,,,,,,,,,,,,,,,,,,,,,,,,,,,,,,,,,,,,,,,,,,,,,,,,,,,,,,,,,,,,,,,,,,,,,,,,,,,,,,,,,,,,,,,,,,,,,,,,,,,
1725716010.688637,1725716010.690418,22.0,0.0,4178.974121,4282.05127,4326.666504,4279.230957,4248.974121,4264.230957,4275.897461,4258.974121,4233.846191,4233.974121,4457.94873,4507.05127,4342.563965,4400.0,2877.0,1.0,15.0,,,,0.0,4.0,4.0,4.0,4.0,4.0,4.0,4.0,4.0,4.0,4.0,4.0,4.0,4.0,4.0,100.0,,,,,,,,,,,,,,,,,,,,,,,,,,,,,,,,,,,,,,,,,,,,,,,,,,,,,,,,,,,,,,,,,,,,,,,,,,,,,,,,,,,,,,,,,,,,,,,,,,,,,,,,,,,,,,,,,,,,,,,,,,,,,,,,,,,
1725716010.692541,1725716010.694322,23.0,0.0,4169.102539,4281.794922,4326.794922,4278.333496,4248.974121,4264.102539,4278.974121,4255.256348,4231.666504,4233.077148,4458.077148,4505.384766,4341.794922,4399.615234,3109.0,1.0,15.0,,,,0.0,4.0,4.0,4.0,4.0,4.0,4.0,4.0,4.0,4.0,4.0,4.0,4.0,4.0,4.0,100.0,,,,,,,,,,,,,,,,,,,,,,,,,,,,,,,,,,,,,,,,,,,,,,,,,,,,,,,,,,,,,,,,,,,,,,,,,,,,,,,,,,,,,,,,,,,,,,,,,,,,,,,,,,,,,,,,,,,,,,,,,,,,,,,,,,,
1725716010.696445,1725716010.698226,24.0,0.0,4158.461426,4281.025879,4326.794922,4278.205078,4247.94873,4264.358887,4282.179688,4253.461426,4229.487305,4232.179688,4456.538574,4503.846191,4341.410156,4399.230957,3396.0,1.0,15.0,,,,0.0,4.0,4.0,4.0,4.0,4.0,4.0,4.0,4.0,4.0,4.0,4.0,4.0,4.0,4.0,100.0,,,,,,,,,,,,,,,,,,,,,,,,,,,,,,,,,,,,,,,,,,,,,,,,,,,,,,,,,,,,,,,,,,,,,,,,,,,,,,,,,,,,,,,,,,,,,,,,,,,,,,,,,,,,,,,,,,,,,,,,,,,,,,,,,,,
1725716010.700349,1725716010.70203,25.0,0.0,4146.410156,4280.128418,4326.538574,4278.461426,4246.410156,4265.0,4287.179688,4254.102539,4228.846191,4231.794922,4453.589844,4502.307617,4340.641113,4398.333496,3817.0,1.0,15.0,,,,0.0,4.0,4.0,4.0,4.0,4.0,4.0,4.0,4.0,4.0,4.0,4.0,4.0,4.0,4.0,100.0,,,,,,,,,,,,,,,,,,,,,,,,,,,,,,,,,,,,,,,,,,,,,,,,,,,,,,,,,,,,,,,,,,,,,,,,,,,,,,,,,,,,,,,,,,,,,,,,,,,,,,,,,,,,,,,,,,,,,,,,,,,,,,,,,,,
1725716010.704253,1725716010.705935,26.0,0.0,4133.077148,4279.743652,4325.897461,4278.333496,4245.0,4265.512695,4294.615234,4255.512695,4228.461426,4231.794922,4449.487305,4499.615234,4339.102539,4395.769043,2877.0,1.0,15.0,,,,0.0,4.0,4.0,4.0,4.0,4.0,4.0,4.0,4.0,4.0,4.0,4.0,4.0,4.0,4.0,100.0,,,,,,,,,,,,,,,,,,,,,,,,,,,,,,,,,,,,,,,,,,,,,,,,,,,,,,,,,,,,,,,,,,,,,,,,,,,,,,,,,,,,,,,,,,,,,,,,,,,,,,,,,,,,,,,,,,,,,,,,,,,,,,,,,,,
1725716010.708157,1725716010.709839,27.0,0.0,4119.102539,4279.615234,4325.128418,4277.307617,4243.846191,4265.641113,4303.461426,4255.256348,4226.538574,4232.05127,4445.641113,4495.512695,4337.94873,4391.794922,3109.0,1.0,15.0,,,,0.0,4.0,4.0,4.0,4.0,4.0,4.0,4.0,4.0,4.0,4.0,4.0,4.0,4.0,4.0,100.0,,,,,,,,,,,,,,,,,,,,,,,,,,,,,,,,,,,,,,,,,,,,,,,,,,,,,,,,,,,,,,,,,,,,,,,,,,,,,,,,,,,,,,,,,,,,,,,,,,,,,,,,,,,,,,,,,,,,,,,,,,,,,,,,,,,
1725716010.712062,1725716010.713843,28.0,0.0,4105.512695,4279.487305,4324.743652,4275.512695,4242.563965,4265.384766,4311.153809,4252.820313,4223.077148,4231.922852,4443.461426,4490.641113,4338.333496,4387.563965,3396.0,1.0,15.0,,,,0.0,4.0,4.0,4.0,4.0,4.0,4.0,4.0,4.0,4.0,4.0,4.0,4.0,4.0,4.0,100.0,,,,,,,,,,,,,,,,,,,,,,,,,,,,,,,,,,,,,,,,,,,,,,,,,,,,,,,,0.0,0.0,64.0,0.09095,1.0,0.0,,,,,,,,,,,,,,,,,,,,,,,,,,,,,,,,,,,,,,,,,,,,,,,,,,,,,,,,,,,,,,,,,,,,,,
1725716010.715966,1725716010.717747,29.0,0.0,4093.076904,4278.846191,4324.615234,4273.461426,4241.410156,4265.256348,4316.282227,4249.487305,4220.0,4231.666504,4443.461426,4487.436035,4340.256348,4385.128418,3817.0,1.0,15.0,,,,0.0,4.0,4.0,4.0,4.0,4.0,4.0,4.0,4.0,4.0,4.0,4.0,4.0,4.0,4.0,100.0,,,,,,,,,,,,,,,,,,,,,,,,,,,,,,,,,,,,,,,,,,,,,,,,,,,,,,,,,,,,,,,,,,,,,,,,,,,,,,,,,,,,,,,,,,,,,,,,,,,,,,,,,,,,,,,,,,,,,,,,,,,,,,,,,,,
1725716010.71987,1725716010.721651,30.0,0.0,4082.05127,4278.333496,4324.615234,4272.05127,4240.641113,4265.0,4319.102539,4247.820313,4219.358887,4231.666504,4445.256348,4487.179688,4342.179688,4385.769043,2877.0,1.0,15.0,,,,0.0,4.0,4.0,4.0,4.0,4.0,4.0,4.0,4.0,4.0,4.0,4.0,4.0,4.0,4.0,100.0,,,,,,,,,,,,,,,,,,,,,,,,,,,,,,,,,,,,,,,,,,,,,,,,,,,,,,,,,,,,,,,,,,,,,,,,,,,,,,,,,,,,,,,,,,,,,,,,,,,,,,,,,,,,,,,,,,,,,,,,,,,,,,,,,,,
1725716010.723774,1725716010.725555,31.0,0.0,4072.179443,4278.333496,4324.358887,4272.05127,4241.025879,4264.487305,4322.436035,4248.846191,4221.538574,4232.307617,4447.307617,4488.974121,4342.563965,4388.333496,3109.0,1.0,15.0,,,,0.0,4.0,4.0,4.0,4.0,4.0,4.0,4.0,4.0,4.0,4.0,4.0,4.0,4.0,4.0,100.0,,,,,,,,,,,,,,,,,,,,,,,,,,,,,,,,,,,,,,,,,,,,,,,,,,,,,,,,,,,,,,,,,,,,,,,,,,,,,,,,,,,,,,,,,,,,,,,,,,,,,,,,,,,,,,,,,,,,,,,,,,,,,,,,,,,
1725716010.727678,1725716010.729559,32.0,0.0,4063.076904,4278.846191,4323.974121,4273.589844,4242.436035,4264.102539,4328.846191,4251.794922,4224.487305,4233.077148,4448.717773,4490.641113,4341.025879,4390.384766,0.0,1.0,15.0,,,,0.0,4.0,4.0,4.0,4.0,4.0,4.0,4.0,4.0,4.0,4.0,4.0,4.0,4.0,4.0,100.0,,,,,,,,,,,,,,,,,,,,,,,,,,,,,,,,,,,,,,,,,,,,,,,,,,,,,,,,,,,,,,,,,,,,,,,,,,,,,,,,,,,,,,,,,,,,,,,,,,,,,,,,,,,,,,,,,,,,,,,,,,,,,,,,,,,
1725716010.731582,1725716010.733463,33.0,0.0,4054.743652,4279.615234,4323.333496,4275.641113,4244.487305,4264.487305,4338.205078,4254.358887,4225.641113,4233.461426,4448.589844,4489.871582,4338.461426,4389.487305,0.0,1.0,15.0,,,,0.0,4.0,4.0,4.0,4.0,4.0,4.0,4.0,4.0,4.0,4.0,4.0,4.0,4.0,4.0,100.0,,,,,,,,,,,,,,,,,,,,,,,,,,,,,,,,,,,,,,,,,,,,,,,,,,,,,,,,,,,,,,,,,,,,,,,,,,,,,,,,,,,,,,,,,,,,,,,,,,,,,,,,,,,,,,,,,,,,,,,,,,,,,,,,,,,
1725716010.735486,1725716010.737367,34.0,0.0,4046.794922,4280.0,4322.94873,4277.179688,4246.025879,4265.512695,4347.563965,4255.128418,4223.717773,4233.205078,4447.179688,4486.282227,4335.769043,4386.025879,0.0,1.0,15.0,,,,0.0,4.0,4.0,4.0,4.0,4.0,4.0,4.0,4.0,4.0,4.0,4.0,4.0,4.0,4.0,100.0,,,,,,,,,,,,,,,,,,,,,,,,,,,,,,,,,,,,,,,,,,,,,,,,,,,,,,,,,,,,,,,,,,,,,,,,,,,,,,,,,,,,,,,,,,,,,,,,,,,,,,,,,,,,,,,,,,,,,,,,,,,,,,,,,,,
1725716010.73939,1725716010.741271,35.0,0.0,4039.487061,4279.615234,4322.692383,4277.692383,4246.538574,4266.538574,4354.358887,4253.717773,4220.128418,4232.179688,4444.615234,4481.410156,4333.333496,4382.179688,0.0,1.0,15.0,,,,0.0,4.0,4.0,4.0,4.0,4.0,4.0,4.0,4.0,4.0,4.0,4.0,4.0,4.0,4.0,100.0,,,,,,,,,,,,,,,,,,,,,,,,,,,,,,,,,,,,,,,,,,,,,,,,,,,,,,,,,,,,,,,,,,,,,,,,,,,,,,,,,,,,,,,,,,,,,,,,,,,,,,,,,,,,,,,,,,,,,,,,,,,,,,,,,,,
1725716010.743294,1725716010.745175,36.0,0.0,4032.820557,4278.589844,4322.820313,4277.179688,4246.153809,4266.794922,4358.589844,4251.153809,4217.179688,4230.769043,4441.666504,4477.179688,4331.153809,4380.384766,0.0,1.0,15.0,,,,0.0,4.0,4.0,4.0,4.0,4.0,4.0,4.0,4.0,4.0,4.0,4.0,4.0,4.0,4.0,100.0,,,,,,,,,,,,,,,,,,,,,,,,,,,,,,,,,,,,,,,,,,,,,,,,,,,,,,,,0.0,0.0,64.0,0.09095,1.0,0.0,,,,,,,,,,,,,,,,,,,,,,,,,,,,,,,,,,,,,,,,,,,,,,,,,,,,,,,,,,,,,,,,,,,,,,
1725716010.747198,1725716010.74898,37.0,0.0,4026.923096,4277.307617,4323.077148,4276.666504,4245.897461,4266.410156,4362.05127,4248.974121,4216.666504,4229.358887,4439.487305,4474.871582,4329.743652,4380.384766,0.0,1.0,15.0,,,,0.0,4.0,4.0,4.0,4.0,4.0,4.0,4.0,4.0,4.0,4.0,4.0,4.0,4.0,4.0,100.0,,,,,,,,,,,,,,,,,,,,,,,,,,,,,,,,,,,,,,,,,,,,,,,,,,,,,,,,,,,,,,,,,,,,,,,,,,,,,,,,,,,,,,,,,,,,,,,,,,,,,,,,,,,,,,,,,,,,,,,,,,,,,,,,,,,
1725716010.751102,1725716010.752884,38.0,0.0,4021.794922,4276.666504,4322.94873,4277.05127,4246.282227,4266.153809,4366.410156,4247.692383,4217.94873,4228.205078,4439.230957,4474.358887,4329.487305,4380.384766,0.0,1.0,15.0,,,,0.0,4.0,4.0,4.0,4.0,4.0,4.0,4.0,4.0,4.0,4.0,4.0,4.0,4.0,4.0,100.0,,,,,,,,,,,,,,,,,,,,,,,,,,,,,,,,,,,,,,,,,,,,,,,,,,,,,,,,,,,,,,,,,,,,,,,,,,,,,,,,,,,,,,,,,,,,,,,,,,,,,,,,,,,,,,,,,,,,,,,,,,,,,,,,,,,
1725716010.755006,1725716010.756888,39.0,0.0,4016.410156,4277.179688,4322.820313,4278.205078,4247.563965,4266.794922,4372.179688,4247.820313,4219.358887,4228.077148,4440.641113,4474.871582,4330.641113,4379.230957,0.0,1.0,15.0,,,,0.0,4.0,4.0,4.0,4.0,4.0,4.0,4.0,4.0,4.0,4.0,4.0,4.0,4.0,4.0,100.0,,,,,,,,,,,,,,,,,,,,,,,,,,,,,,,,,,,,,,,,,,,,,,,,,,,,,,,,,,,,,,,,,,,,,,,,,,,,,,,,,,,,,,,,,,,,,,,,,,,,,,,,,,,,,,,,,,,,,,,,,,,,,,,,,,,
1725716010.758911,1725716010.760792,40.0,0.0,4010.128174,4278.205078,4323.205078,4278.974121,4248.974121,4268.461426,4378.333496,4249.102539,4219.358887,4228.846191,4442.05127,4475.256348,4332.436035,4377.05127,0.0,1.0,15.0,,,,0.0,4.0,4.0,4.0,4.0,4.0,4.0,4.0,4.0,4.0,4.0,4.0,4.0,4.0,4.0,100.0,,,,,,,,,,,,,,,,,,,,,,,,,,,,,,,,,,,,,,,,,,,,,,,,,,,,,,,,,,,,,,,,,,,,,,,,,,,,,,,,,,,,,,,,,,,,,,,,,,,,,,,,,,,,,,,,,,,,,,,,,,,,,,,,,,,
1725716010.762815,1725716010.764696,41.0,0.0,4002.820557,4278.846191,4324.487305,4278.846191,4249.102539,4270.897461,4383.846191,4250.384766,4218.077148,4229.102539,4441.025879,4474.871582,4333.333496,4375.384766,0.0,1.0,15.0,,,,0.0,4.0,4.0,4.0,4.0,4.0,4.0,4.0,4.0,4.0,4.0,4.0,4.0,4.0,4.0,100.0,,,,,,,,,,,,,,,,,,,,,,,,,,,,,,,,,,,,,,,,,,,,,,,,,,,,,,,,,,,,,,,,,,,,,,,,,,,,,,,,,,,,,,,,,,,,,,,,,,,,,,,,,,,,,,,,,,,,,,,,,,,,,,,,,,,
1725716010.766719,1725716010.7686,42.0,0.0,3995.769287,4278.205078,4326.794922,4277.820313,4247.692383,4273.461426,4387.820313,4250.769043,4216.794922,4227.563965,4437.179688,4474.230957,4332.307617,4375.512695,0.0,1.0,15.0,,,,0.0,4.0,4.0,4.0,4.0,4.0,4.0,4.0,4.0,4.0,4.0,4.0,4.0,4.0,4.0,100.0,,,,,,,,,,,,,,,,,,,,,,,,,,,,,,,,,,,,,,,,,,,,,,,,,,,,,,,,,,,,,,,,,,,,,,,,,,,,,,,,,,,,,,,,,,,,,,,,,,,,,,,,,,,,,,,,,,,,,,,,,,,,,,,,,,,
1725716010.770623,1725716010.772504,43.0,0.0,3990.512939,4276.282227,4329.615234,4277.05127,4245.384766,4275.128418,4390.512695,4250.128418,4216.538574,4223.846191,4432.179688,4473.974121,4328.974121,4377.307617,0.0,1.0,15.0,,,,0.0,4.0,4.0,4.0,4.0,4.0,4.0,4.0,4.0,4.0,4.0,4.0,4.0,4.0,4.0,100.0,,,,,,,,,,,,,,,,,,,,,,,,,,,,,,,,,,,,,,,,,,,,,,,,,,,,,,,,,,,,,,,,,,,,,,,,,,,,,,,,,,,,,,,,,,,,,,,,,,,,,,,,,,,,,,,,,,,,,,,,,,,,,,,,,,,
1725716010.774527,1725716010.776308,44.0,0.0,3987.820557,4273.974121,4332.179688,4276.922852,4243.974121,4275.512695,4392.94873,4249.102539,4217.436035,4219.615234,4429.487305,4475.256348,4324.871582,4378.974121,0.0,1.0,15.0,,,,0.0,4.0,4.0,4.0,4.0,4.0,4.0,4.0,4.0,4.0,4.0,4.0,4.0,4.0,4.0,100.0,,,,,,,,,,,,,,,,,,,,,,,,,,,,,,,,,,,,,,,,,,,,,,,,,,,,,,,,0.0,0.0,64.0,0.09095,1.0,0.0,,,,,,,,,,,,,,,,,,,,,,,,,,,,,,,,,,,,,,,,,,,,,,,,,,,,,,,,,,,,,,,,,,,,,,
1725716010.778431,1725716010.780212,45.0,0.0,3986.794922,4272.179688,4333.974121,4277.563965,4243.846191,4274.743652,4396.410156,4248.846191,4218.333496,4217.307617,4431.153809,4478.974121,4322.307617,4379.358887,0.0,1.0,15.0,,,,0.0,4.0,4.0,4.0,4.0,4.0,4.0,4.0,4.0,4.0,4.0,4.0,4.0,4.0,4.0,100.0,,,,,,,,,,,,,,,,,,,,,,,,,,,,,,,,,,,,,,,,,,,,,,,,,,,,,,,,,,,,,,,,,,,,,,,,,,,,,,,,,,,,,,,,,,,,,,,,,,,,,,,,,,,,,,,,,,,,,,,,,,,,,,,,,,,
1725716010.782335,1725716010.784117,46.0,0.0,3985.384521,4272.05127,4335.256348,4278.333496,4244.743652,4273.717773,4400.641113,4249.615234,4218.461426,4218.846191,4436.666504,4484.358887,4323.333496,4378.461426,0.0,1.0,15.0,,,,0.0,4.0,4.0,4.0,4.0,4.0,4.0,4.0,4.0,4.0,4.0,4.0,4.0,4.0,4.0,100.0,,,,,,,,,,,,,,,,,,,,,,,,,,,,,,,,,,,,,,,,,,,,,,,,,,,,,,,,,,,,,,,,,,,,,,,,,,,,,,,,,,,,,,,,,,,,,,,,,,,,,,,,,,,,,,,,,,,,,,,,,,,,,,,,,,,
1725716010.786239,1725716010.788021,47.0,0.0,3982.435791,4273.461426,4336.153809,4279.487305,4245.512695,4273.333496,4405.0,4250.769043,4217.820313,4223.589844,4443.205078,4489.487305,4327.820313,4378.077148,0.0,1.0,15.0,,,,0.0,4.0,4.0,4.0,4.0,4.0,4.0,4.0,4.0,4.0,4.0,4.0,4.0,4.0,4.0,100.0,,,,,,,,,,,,,,,,,,,,,,,,,,,,,,,,,,,,,,,,,,,,,,,,,,,,,,,,,,,,,,,,,,,,,,,,,,,,,,,,,,,,,,,,,,,,,,,,,,,,,,,,,,,,,,,,,,,,,,,,,,,,,,,,,,,
1725716010.790143,1725716010.791825,48.0,0.0,3978.718018,4275.769043,4336.666504,4281.282227,4245.641113,4274.102539,4408.846191,4251.153809,4217.179688,4229.230957,4447.692383,4492.563965,4334.102539,4380.512695,0.0,1.0,15.0,,,,0.0,4.0,4.0,4.0,4.0,4.0,4.0,4.0,4.0,4.0,4.0,4.0,4.0,4.0,4.0,100.0,,,,,,,,,,,,,,,,,,,,,,,,,,,,,,,,,,,,,,,,,,,,,,,,,,,,,,,,,,,,,,,,,,,,,,,,,,,,,,,,,,,,,,,,,,,,,,,,,,,,,,,,,,,,,,,,,,,,,,,,,,,,,,,,,,,
1725716010.794047,1725716010.795729,49.0,0.0,3975.897461,4277.820313,4336.922852,4284.230957,4245.128418,4275.512695,4411.794922,4250.384766,4217.307617,4233.333496,4448.846191,4493.077148,4339.743652,4385.769043,0.0,1.0,15.0,,,,0.0,4.0,4.0,4.0,4.0,4.0,4.0,4.0,4.0,4.0,4.0,4.0,4.0,4.0,4.0,100.0,,,,,,,,,,,,,,,,,,,,,,,,,,,,,,,,,,,,,,,,,,,,,,,,,,,,,,,,,,,,,,,,,,,,,,,,,,,,,,,,,,,,,,,,,,,,,,,,,,,,,,,,,,,,,,,,,,,,,,,,,,,,,,,,,,,
1725716010.797952,1725716010.799633,50.0,0.0,3974.743652,4279.230957,4337.307617,4288.077148,4244.487305,4276.666504,4414.230957,4249.102539,4217.94873,4234.230957,4447.94873,4491.666504,4343.205078,4391.922852,0.0,1.0,15.0,,,,0.0,4.0,4.0,4.0,4.0,4.0,4.0,4.0,4.0,4.0,4.0,4.0,4.0,4.0,4.0,100.0,,,,,,,,,,,,,,,,,,,,,,,,,,,,,,,,,,,,,,,,,,,,,,,,,,,,,,,,,,,,,,,,,,,,,,,,,,,,,,,,,,,,,,,,,,,,,,,,,,,,,,,,,,,,,,,,,,,,,,,,,,,,,,,,,,,
1725716010.801856,1725716010.803537,51.0,0.0,3974.230713,4279.871582,4338.717773,4292.179688,4244.230957,4277.05127,4417.179688,4248.717773,4218.589844,4232.563965,4446.922852,4490.769043,4344.230957,4396.282227,0.0,1.0,15.0,,,,0.0,4.0,4.0,4.0,4.0,4.0,4.0,4.0,4.0,4.0,4.0,4.0,4.0,4.0,4.0,100.0,,,,,,,,,,,,,,,,,,,,,,,,,,,,,,,,,,,,,,,,,,,,,,,,,,,,,,,,,,,,,,,,,,,,,,,,,,,,,,,,,,,,,,,,,,,,,,,,,,,,,,,,,,,,,,,,,,,,,,,,,,,,,,,,,,,
1725716010.80576,1725716010.807341,52.0,0.0,3972.94873,4280.769043,4341.282227,4295.384766,4244.615234,4276.794922,4421.538574,4251.025879,4218.846191,4230.128418,4447.436035,4492.563965,4343.589844,4397.436035,0.0,1.0,15.0,,,,0.0,4.0,4.0,4.0,4.0,4.0,4.0,4.0,4.0,4.0,4.0,4.0,4.0,4.0,4.0,100.0,1.0,16.666666,1.0,4.0,4.0,4.0,4.0,1.0,0.0,4.0,4.0,4.0,4.0,4.0,4.0,4.0,1.0,0.0,0.0,1.0,0.442202,-8.363762,-13.695959,-1.888123,1.0,0.598902,-0.548776,-1.145757,-0.086648,1.0,0.354864,3.36626,1.424084,6.897106,0.321172,1.0,0.45782,70.571243,-792.335049,1058.835651,1.0,0.289652,0.116701,0.049131,0.29199,1.0,0.551456,4.991605,-13.18068,20.203857,1.0,0.453841,0.453841,0.0,1.0,0.0,0.0,64.0,0.114784,1.0,0.0,9.371263,4.584802,2.935086,0.715608,0.140502,1.280867,0.767296,0.58044,0.184713,0.06625,1.447514,1.025779,0.238844,0.148595,0.060477,1.158089,0.594706,0.326085,0.134251,0.044089,0.37581,0.377295,0.211905,0.095363,0.062963,0.281229,0.190679,0.062712,0.031502,0.050348,2.473303,0.704928,0.391329,0.090907,0.055476,1.168925,2.090973,0.504487,0.198293,0.107959,0.680086,1.175694,0.790557,0.161391,0.06387,1.200801,1.064783,0.862704,0.209881,0.082729,3.089662,2.80509,1.026047,0.33926,0.100831,2.770956,1.983633,0.731222,0.355084,0.104969,2.143161,1.80618,0.928083,0.334255,0.098735,1.845459,1.816178,0.646939,0.22645,0.115951
1725716010.809664,1725716010.811245,53.0,0.0,3969.871826,4282.179688,4344.743652,4296.666504,4245.769043,4276.538574,4427.179688,4255.897461,4218.589844,4229.102539,4449.102539,4497.692383,4342.436035,4396.922852,0.0,1.0,15.0,,,,0.0,4.0,4.0,4.0,4.0,4.0,4.0,4.0,4.0,4.0,4.0,4.0,4.0,4.0,4.0,100.0,,,,,,,,,,,,,,,,,,,,,,,,,,,,,,,,,,,,,,,,,,,,,,,,,,,,,,,,,,,,,,,,,,,,,,,,,,,,,,,,,,,,,,,,,,,,,,,,,,,,,,,,,,,,,,,,,,,,,,,,,,,,,,,,,,,
1725716010.813568,1725716010.81515,54.0,0.0,3965.128174,4283.717773,4348.205078,4296.410156,4247.179688,4276.153809,4433.077148,4260.769043,4218.077148,4230.384766,4450.641113,4504.743652,4342.307617,4397.307617,0.0,1.0,15.0,,,,0.0,4.0,4.0,4.0,4.0,4.0,4.0,4.0,4.0,4.0,4.0,4.0,4.0,4.0,4.0,100.0,,,,,,,,,,,,,,,,,,,,,,,,,,,,,,,,,,,,,,,,,,,,,,,,,,,,,,,,,,,,,,,,,,,,,,,,,,,,,,,,,,,,,,,,,,,,,,,,,,,,,,,,,,,,,,,,,,,,,,,,,,,,,,,,,,,
1725716010.817472,1725716010.819154,55.0,0.0,3959.871826,4284.230957,4351.025879,4295.769043,4248.333496,4276.025879,4438.461426,4262.563965,4217.94873,4232.94873,4451.153809,4509.871582,4343.205078,4399.230957,0.0,1.0,15.0,,,,0.0,4.0,4.0,4.0,4.0,4.0,4.0,4.0,4.0,4.0,4.0,4.0,4.0,4.0,4.0,100.0,,,,,,,,,,,,,,,,,,,,,,,,,,,,,,,,,,,,,,,,,,,,,,,,,,,,,,,,,,,,,,,,,,,,,,,,,,,,,,,,,,,,,,,,,,,,,,,,,,,,,,,,,,,,,,,,,,,,,,,,,,,,,,,,,,,
1725716010.821376,1725716010.823058,56.0,0.0,3955.0,4283.205078,4352.692383,4295.641113,4249.102539,4276.410156,4442.94873,4259.615234,4218.333496,4234.102539,4450.256348,4510.641113,4343.846191,4400.641113,0.0,1.0,15.0,,,,0.0,4.0,4.0,4.0,4.0,4.0,4.0,4.0,4.0,4.0,4.0,4.0,4.0,4.0,4.0,100.0,,,,,,,,,,,,,,,,,,,,,,,,,,,,,,,,,,,,,,,,,,,,,,,,,,,,,,,,,,,,,,,,,,,,,,,,,,,,,,,,,,,,,,,,,,,,,,,,,,,,,,,,,,,,,,,,,,,,,,,,,,,,,,,,,,,
1725716010.82528,1725716010.826962,57.0,0.0,3950.897461,4281.282227,4353.205078,4296.410156,4249.230957,4277.05127,4446.666504,4253.333496,4218.461426,4232.436035,4448.205078,4506.538574,4342.307617,4399.102539,0.0,1.0,15.0,,,,0.0,4.0,4.0,4.0,4.0,4.0,4.0,4.0,4.0,4.0,4.0,4.0,4.0,4.0,4.0,100.0,,,,,,,,,,,,,,,,,,,,,,,,,,,,,,,,,,,,,,,,,,,,,,,,,,,,,,,,,,,,,,,,,,,,,,,,,,,,,,,,,,,,,,,,,,,,,,,,,,,,,,,,,,,,,,,,,,,,,,,,,,,,,,,,,,,
1725716010.829184,1725716010.830866,58.0,0.0,3946.410156,4279.743652,4353.205078,4297.436035,4249.230957,4276.666504,4449.615234,4247.179688,4217.563965,4228.205078,4445.256348,4500.0,4337.94873,4393.974121,0.0,1.0,15.0,,,,0.0,4.0,4.0,4.0,4.0,4.0,4.0,4.0,4.0,4.0,4.0,4.0,4.0,4.0,4.0,100.0,,,,,,,,,,,,,,,,,,,,,,,,,,,,,,,,,,,,,,,,,,,,,,,,,,,,,,,,,,,,,,,,,,,,,,,,,,,,,,,,,,,,,,,,,,,,,,,,,,,,,,,,,,,,,,,,,,,,,,,,,,,,,,,,,,,
1725716010.833089,1725716010.83487,59.0,0.0,3940.0,4278.846191,4353.333496,4297.692383,4249.102539,4274.743652,4452.692383,4243.974121,4215.256348,4222.94873,4441.153809,4494.358887,4332.179688,4387.436035,0.0,1.0,15.0,,,,0.0,4.0,4.0,4.0,4.0,4.0,4.0,4.0,4.0,4.0,4.0,4.0,4.0,4.0,4.0,100.0,,,,,,,,,,,,,,,,,,,,,,,,,,,,,,,,,,,,,,,,,,,,,,,,,,,,,,,,,,,,,,,,,,,,,,,,,,,,,,,,,,,,,,,,,,,,,,,,,,,,,,,,,,,,,,,,,,,,,,,,,,,,,,,,,,,
1725716010.836993,1725716010.838774,60.0,0.0,3931.025635,4277.94873,4354.358887,4296.794922,4248.846191,4271.922852,4456.538574,4244.358887,4212.307617,4218.717773,4435.769043,4491.282227,4327.563965,4382.436035,0.0,1.0,15.0,,,,0.0,4.0,4.0,4.0,4.0,4.0,4.0,4.0,4.0,4.0,4.0,4.0,4.0,4.0,4.0,100.0,,,,,,,,,,,,,,,,,,,,,,,,,,,,,,,,,,,,,,,,,,,,,,,,,,,,,,,,0.0,0.0,64.0,0.114784,1.0,0.0,,,,,,,,,,,,,,,,,,,,,,,,,,,,,,,,,,,,,,,,,,,,,,,,,,,,,,,,,,,,,,,,,,,,,,
1725716010.840897,1725716010.842678,61.0,0.0,3920.512939,4276.025879,4355.641113,4295.512695,4248.205078,4270.256348,4460.256348,4246.666504,4210.256348,4216.922852,4430.128418,4491.025879,4325.769043,4380.897461,0.0,1.0,15.0,,,,0.0,4.0,4.0,4.0,4.0,4.0,4.0,4.0,4.0,4.0,4.0,4.0,4.0,4.0,4.0,100.0,,,,,,,,,,,,,,,,,,,,,,,,,,,,,,,,,,,,,,,,,,,,,,,,,,,,,,,,,,,,,,,,,,,,,,,,,,,,,,,,,,,,,,,,,,,,,,,,,,,,,,,,,,,,,,,,,,,,,,,,,,,,,,,,,,,
1725716010.844801,1725716010.846582,62.0,0.0,3910.897461,4273.077148,4356.410156,4294.487305,4247.692383,4270.769043,4463.461426,4248.333496,4210.256348,4217.563965,4426.538574,4492.563965,4326.153809,4382.692383,0.0,1.0,15.0,,,,0.0,4.0,4.0,4.0,4.0,4.0,4.0,4.0,4.0,4.0,4.0,4.0,4.0,4.0,4.0,100.0,,,,,,,,,,,,,,,,,,,,,,,,,,,,,,,,,,,,,,,,,,,,,,,,,,,,,,,,,,,,,,,,,,,,,,,,,,,,,,,,,,,,,,,,,,,,,,,,,,,,,,,,,,,,,,,,,,,,,,,,,,,,,,,,,,,
1725716010.848705,1725716010.850486,63.0,0.0,3903.589844,4269.743652,4356.025879,4294.615234,4247.307617,4273.205078,4466.025879,4248.333496,4212.436035,4219.615234,4426.794922,4493.974121,4327.307617,4385.384766,0.0,1.0,15.0,,,,0.0,4.0,4.0,4.0,4.0,4.0,4.0,4.0,4.0,4.0,4.0,4.0,4.0,4.0,4.0,100.0,,,,,,,,,,,,,,,,,,,,,,,,,,,,,,,,,,,,,,,,,,,,,,,,,,,,,,,,,,,,,,,,,,,,,,,,,,,,,,,,,,,,,,,,,,,,,,,,,,,,,,,,,,,,,,,,,,,,,,,,,,,,,,,,,,,
1725716010.852609,1725716010.854291,64.0,0.0,3898.333252,4267.05127,4354.615234,4295.769043,4247.307617,4275.897461,4469.102539,4247.179688,4215.512695,4221.538574,4430.384766,4494.487305,4328.077148,4385.897461,0.0,1.0,15.0,,,,0.0,4.0,4.0,4.0,4.0,4.0,4.0,4.0,4.0,4.0,4.0,4.0,4.0,4.0,4.0,100.0,,,,,,,,,,,,,,,,,,,,,,,,,,,,,,,,,,,,,,,,,,,,,,,,,,,,,,,,,,,,,,,,,,,,,,,,,,,,,,,,,,,,,,,,,,,,,,,,,,,,,,,,,,,,,,,,,,,,,,,,,,,,,,,,,,,
1725716010.856513,1725716010.858195,65.0,0.0,3893.461426,4265.641113,4352.692383,4296.922852,4247.307617,4277.820313,4473.333496,4246.538574,4217.05127,4222.179688,4435.128418,4494.230957,4328.461426,4383.077148,0.0,1.0,15.0,,,,0.0,4.0,4.0,4.0,4.0,4.0,4.0,4.0,4.0,4.0,4.0,4.0,4.0,4.0,4.0,100.0,,,,,,,,,,,,,,,,,,,,,,,,,,,,,,,,,,,,,,,,,,,,,,,,,,,,,,,,,,,,,,,,,,,,,,,,,,,,,,,,,,,,,,,,,,,,,,,,,,,,,,,,,,,,,,,,,,,,,,,,,,,,,,,,,,,
1725716010.860417,1725716010.862199,66.0,0.0,3886.410156,4265.512695,4351.025879,4297.436035,4247.436035,4278.333496,4479.230957,4247.05127,4215.384766,4221.153809,4438.333496,4493.846191,4328.589844,4377.94873,0.0,1.0,15.0,,,,0.0,4.0,4.0,4.0,4.0,4.0,4.0,4.0,4.0,4.0,4.0,4.0,4.0,4.0,4.0,100.0,,,,,,,,,,,,,,,,,,,,,,,,,,,,,,,,,,,,,,,,,,,,,,,,,,,,,,,,,,,,,,,,,,,,,,,,,,,,,,,,,,,,,,,,,,,,,,,,,,,,,,,,,,,,,,,,,,,,,,,,,,,,,,,,,,,
1725716010.864321,1725716010.866103,67.0,0.0,3876.025635,4265.897461,4350.384766,4296.794922,4247.436035,4277.436035,4486.282227,4248.205078,4211.025879,4219.487305,4439.230957,4493.717773,4328.461426,4373.205078,0.0,1.0,15.0,,,,0.0,4.0,4.0,4.0,4.0,4.0,4.0,4.0,4.0,4.0,4.0,4.0,4.0,4.0,4.0,100.0,,,,,,,,,,,,,,,,,,,,,,,,,,,,,,,,,,,,,,,,,,,,,,,,,,,,,,,,,,,,,,,,,,,,,,,,,,,,,,,,,,,,,,,,,,,,,,,,,,,,,,,,,,,,,,,,,,,,,,,,,,,,,,,,,,,
1725716010.868225,1725716010.870007,68.0,0.0,3862.820557,4266.153809,4350.512695,4295.384766,4247.563965,4276.282227,4493.846191,4249.102539,4206.666504,4218.589844,4438.333496,4493.205078,4327.94873,4370.256348,0.0,1.0,15.0,,,,0.0,4.0,4.0,4.0,4.0,4.0,4.0,4.0,4.0,4.0,4.0,4.0,4.0,4.0,4.0,100.0,,,,,,,,,,,,,,,,,,,,,,,,,,,,,,,,,,,,,,,,,,,,,,,,,,,,,,,,0.0,0.0,64.0,0.114784,1.0,0.0,,,,,,,,,,,,,,,,,,,,,,,,,,,,,,,,,,,,,,,,,,,,,,,,,,,,,,,,,,,,,,,,,,,,,,
1725716010.87213,1725716010.873911,69.0,0.0,3849.102539,4265.769043,4351.025879,4294.487305,4247.436035,4275.769043,4500.641113,4248.846191,4204.743652,4218.589844,4437.05127,4491.666504,4327.179688,4369.358887,0.0,1.0,15.0,,,,0.0,4.0,4.0,4.0,4.0,4.0,4.0,4.0,4.0,4.0,4.0,4.0,4.0,4.0,4.0,100.0,,,,,,,,,,,,,,,,,,,,,,,,,,,,,,,,,,,,,,,,,,,,,,,,,,,,,,,,,,,,,,,,,,,,,,,,,,,,,,,,,,,,,,,,,,,,,,,,,,,,,,,,,,,,,,,,,,,,,,,,,,,,,,,,,,,
1725716010.876034,1725716010.877815,70.0,0.0,3837.94873,4265.128418,4351.538574,4295.384766,4247.179688,4276.410156,4506.410156,4248.333496,4206.025879,4219.102539,4435.897461,4489.743652,4326.282227,4369.230957,0.0,1.0,15.0,,,,0.0,4.0,4.0,4.0,4.0,4.0,4.0,4.0,4.0,4.0,4.0,4.0,4.0,4.0,4.0,100.0,,,,,,,,,,,,,,,,,,,,,,,,,,,,,,,,,,,,,,,,,,,,,,,,,,,,,,,,,,,,,,,,,,,,,,,,,,,,,,,,,,,,,,,,,,,,,,,,,,,,,,,,,,,,,,,,,,,,,,,,,,,,,,,,,,,
1725716010.879938,1725716010.881619,71.0,0.0,3831.153809,4264.871582,4351.666504,4298.333496,4246.794922,4277.94873,4511.794922,4248.461426,4208.589844,4219.358887,4435.128418,4488.589844,4325.897461,4368.461426,0.0,1.0,15.0,,,,0.0,4.0,4.0,4.0,4.0,4.0,4.0,4.0,4.0,4.0,4.0,4.0,4.0,4.0,4.0,100.0,,,,,,,,,,,,,,,,,,,,,,,,,,,,,,,,,,,,,,,,,,,,,,,,,,,,,,,,,,,,,,,,,,,,,,,,,,,,,,,,,,,,,,,,,,,,,,,,,,,,,,,,,,,,,,,,,,,,,,,,,,,,,,,,,,,
1725716010.883842,1725716010.885523,72.0,0.0,3828.589844,4265.256348,4351.282227,4302.05127,4246.666504,4279.358887,4517.563965,4249.615234,4210.0,4218.974121,4433.974121,4489.102539,4326.153809,4366.538574,0.0,1.0,15.0,,,,0.0,4.0,4.0,4.0,4.0,4.0,4.0,4.0,4.0,4.0,4.0,4.0,4.0,4.0,4.0,100.0,,,,,,,,,,,,,,,,,,,,,,,,,,,,,,,,,,,,,,,,,,,,,,,,,,,,,,,,,,,,,,,,,,,,,,,,,,,,,,,,,,,,,,,,,,,,,,,,,,,,,,,,,,,,,,,,,,,,,,,,,,,,,,,,,,,
1725716010.887746,1725716010.889427,73.0,0.0,3827.94873,4265.769043,4350.512695,4304.615234,4246.922852,4279.871582,4523.461426,4251.025879,4208.974121,4217.94873,4431.794922,4490.384766,4327.563965,4364.615234,0.0,1.0,15.0,,,,0.0,4.0,4.0,4.0,4.0,4.0,4.0,4.0,4.0,4.0,4.0,4.0,4.0,4.0,4.0,100.0,,,,,,,,,,,,,,,,,,,,,,,,,,,,,,,,,,,,,,,,,,,,,,,,,,,,,,,,,,,,,,,,,,,,,,,,,,,,,,,,,,,,,,,,,,,,,,,,,,,,,,,,,,,,,,,,,,,,,,,,,,,,,,,,,,,
1725716010.89165,1725716010.893332,74.0,0.0,3825.897461,4265.641113,4349.615234,4304.615234,4247.05127,4279.487305,4529.615234,4251.922852,4205.897461,4216.794922,4429.487305,4490.512695,4329.358887,4363.846191,0.0,1.0,15.0,,,,0.0,4.0,4.0,4.0,4.0,4.0,4.0,4.0,4.0,4.0,4.0,4.0,4.0,4.0,4.0,100.0,,,,,,,,,,,,,,,,,,,,,,,,,,,,,,,,,,,,,,,,,,,,,,,,,,,,,,,,,,,,,,,,,,,,,,,,,,,,,,,,,,,,,,,,,,,,,,,,,,,,,,,,,,,,,,,,,,,,,,,,,,,,,,,,,,,
1725716010.895554,1725716010.897136,75.0,0.0,3820.769287,4264.487305,4349.102539,4302.436035,4246.538574,4279.230957,4535.897461,4251.922852,4202.563965,4215.897461,4428.205078,4488.205078,4329.871582,4364.743652,0.0,1.0,15.0,,,,0.0,4.0,4.0,4.0,4.0,4.0,4.0,4.0,4.0,4.0,4.0,4.0,4.0,4.0,4.0,100.0,,,,,,,,,,,,,,,,,,,,,,,,,,,,,,,,,,,,,,,,,,,,,,,,,,,,,,,,,,,,,,,,,,,,,,,,,,,,,,,,,,,,,,,,,,,,,,,,,,,,,,,,,,,,,,,,,,,,,,,,,,,,,,,,,,,
1725716010.899458,1725716010.90104,76.0,0.0,3813.461426,4262.820313,4349.102539,4300.0,4245.256348,4279.358887,4541.666504,4250.769043,4200.384766,4215.384766,4428.205078,4483.717773,4327.05127,4365.641113,0.0,1.0,15.0,,,,0.0,4.0,4.0,4.0,4.0,4.0,4.0,4.0,4.0,4.0,4.0,4.0,4.0,4.0,4.0,100.0,,,,,,,,,,,,,,,,,,,,,,,,,,,,,,,,,,,,,,,,,,,,,,,,,,,,,,,,0.0,0.0,64.0,0.114784,1.0,0.0,,,,,,,,,,,,,,,,,,,,,,,,,,,,,,,,,,,,,,,,,,,,,,,,,,,,,,,,,,,,,,,,,,,,,,
1725716010.903362,1725716010.904944,77.0,0.0,3806.410156,4261.538574,4349.487305,4299.230957,4243.974121,4279.871582,4546.282227,4249.102539,4199.615234,4214.871582,4428.461426,4478.846191,4321.153809,4365.256348,0.0,1.0,15.0,,,,0.0,4.0,4.0,4.0,4.0,4.0,4.0,4.0,4.0,4.0,4.0,4.0,4.0,4.0,4.0,100.0,,,,,,,,,,,,,,,,,,,,,,,,,,,,,,,,,,,,,,,,,,,,,,,,,,,,,,,,,,,,,,,,,,,,,,,,,,,,,,,,,,,,,,,,,,,,,,,,,,,,,,,,,,,,,,,,,,,,,,,,,,,,,,,,,,,
1725716010.907267,1725716010.908848,78.0,0.0,3801.538574,4261.282227,4349.871582,4301.282227,4243.461426,4280.256348,4549.487305,4248.077148,4199.871582,4213.077148,4428.205078,4475.512695,4314.487305,4362.94873,0.0,1.0,15.0,,,,0.0,4.0,4.0,4.0,4.0,4.0,4.0,4.0,4.0,4.0,4.0,4.0,4.0,4.0,4.0,100.0,,,,,,,,,,,,,,,,,,,,,,,,,,,,,,,,,,,,,,,,,,,,,,,,,,,,,,,,,,,,,,,,,,,,,,,,,,,,,,,,,,,,,,,,,,,,,,,,,,,,,,,,,,,,,,,,,,,,,,,,,,,,,,,,,,,
1725716010.911171,1725716010.912652,79.0,0.0,3798.205078,4262.307617,4350.256348,4305.641113,4244.358887,4280.512695,4552.436035,4248.333496,4200.512695,4209.615234,4426.794922,4474.615234,4310.128418,4360.0,0.0,1.0,15.0,,,,0.0,4.0,4.0,4.0,4.0,4.0,4.0,4.0,4.0,4.0,4.0,4.0,4.0,4.0,4.0,100.0,,,,,,,,,,,,,,,,,,,,,,,,,,,,,,,,,,,,,,,,,,,,,,,,,,,,,,,,,,,,,,,,,,,,,,,,,,,,,,,,,,,,,,,,,,,,,,,,,,,,,,,,,,,,,,,,,,,,,,,,,,,,,,,,,,,
1725716010.915075,1725716010.916556,80.0,0.0,3795.512939,4263.974121,4350.769043,4309.743652,4246.153809,4280.769043,4556.153809,4248.974121,4200.769043,4205.641113,4423.846191,4475.512695,4310.256348,4358.077148,0.0,1.0,15.0,,,,0.0,4.0,4.0,4.0,4.0,4.0,4.0,4.0,4.0,4.0,4.0,4.0,4.0,4.0,4.0,100.0,,,,,,,,,,,,,,,,,,,,,,,,,,,,,,,,,,,,,,,,,,,,,,,,,,,,,,,,,,,,,,,,,,,,,,,,,,,,,,,,,,,,,,,,,,,,,,,,,,,,,,,,,,,,,,,,,,,,,,,,,,,,,,,,,,,
1725716010.918979,1725716010.920461,81.0,0.0,3792.564209,4265.769043,4351.282227,4311.922852,4247.820313,4281.025879,4560.384766,4248.589844,4200.641113,4203.205078,4420.256348,4476.410156,4313.846191,4358.461426,0.0,1.0,15.0,,,,0.0,4.0,4.0,4.0,4.0,4.0,4.0,4.0,4.0,4.0,4.0,4.0,4.0,4.0,4.0,100.0,,,,,,,,,,,,,,,,,,,,,,,,,,,,,,,,,,,,,,,,,,,,,,,,,,,,,,,,,,,,,,,,,,,,,,,,,,,,,,,,,,,,,,,,,,,,,,,,,,,,,,,,,,,,,,,,,,,,,,,,,,,,,,,,,,,
1725716010.922883,1725716010.924465,82.0,0.0,3789.358887,4266.538574,4352.179688,4311.538574,4248.589844,4280.897461,4564.102539,4246.410156,4200.384766,4203.717773,4417.307617,4475.769043,4317.94873,4360.897461,0.0,1.0,15.0,,,,0.0,4.0,4.0,4.0,4.0,4.0,4.0,4.0,4.0,4.0,4.0,4.0,4.0,4.0,4.0,100.0,,,,,,,,,,,,,,,,,,,,,,,,,,,,,,,,,,,,,,,,,,,,,,,,,,,,,,,,,,,,,,,,,,,,,,,,,,,,,,,,,,,,,,,,,,,,,,,,,,,,,,,,,,,,,,,,,,,,,,,,,,,,,,,,,,,
1725716010.926787,1725716010.928369,83.0,0.0,3785.897461,4265.641113,4353.333496,4310.128418,4248.589844,4280.641113,4567.05127,4242.94873,4200.256348,4206.666504,4416.410156,4473.589844,4319.615234,4363.077148,0.0,1.0,15.0,,,,0.0,4.0,4.0,4.0,4.0,4.0,4.0,4.0,4.0,4.0,4.0,4.0,4.0,4.0,4.0,100.0,,,,,,,,,,,,,,,,,,,,,,,,,,,,,,,,,,,,,,,,,,,,,,,,,,,,,,,,,,,,,,,,,,,,,,,,,,,,,,,,,,,,,,,,,,,,,,,,,,,,,,,,,,,,,,,,,,,,,,,,,,,,,,,,,,,
1725716010.930691,1725716010.932273,84.0,0.0,3782.820557,4263.589844,4354.487305,4309.102539,4248.205078,4280.384766,4569.615234,4240.128418,4200.0,4210.0,4417.692383,4471.410156,4317.563965,4362.94873,0.0,1.0,15.0,,,,0.0,4.0,4.0,4.0,4.0,4.0,4.0,4.0,4.0,4.0,4.0,4.0,4.0,4.0,4.0,100.0,,,,,,,,,,,,,,,,,1.0,0.0,0.0,,,,,,,,,,,,,,,,,,,,,,,,,,,,,,,,,,,,,0.0,0.0,64.0,0.130308,1.0,0.0,10.85315,4.376357,2.876451,0.778121,0.143407,1.6621,0.915006,0.591646,0.210592,0.066486,1.502797,1.190687,0.28651,0.157369,0.055289,1.32817,0.681229,0.393255,0.167811,0.036073,0.336179,0.314429,0.206685,0.105674,0.054152,0.295111,0.239578,0.058404,0.034235,0.050426,3.769368,0.60328,0.397956,0.103152,0.058438,1.114549,1.806963,0.578396,0.183714,0.104383,0.646066,1.158162,0.902512,0.166046,0.056722,1.313302,1.165324,0.98241,0.216924,0.089526,3.091127,2.797,1.130608,0.310593,0.099619,2.571457,2.026329,0.778331,0.334443,0.113979,2.244873,1.950185,1.108178,0.347681,0.096053,2.020845,2.109897,0.641997,0.23602,0.11156
1725716010.934595,1725716010.936177,85.0,0.0,3781.153809,4261.922852,4355.769043,4308.846191,4248.589844,4280.512695,4572.820313,4239.615234,4199.487305,4212.179688,4420.0,4470.897461,4313.846191,4360.256348,0.0,1.0,15.0,,,,0.0,4.0,4.0,4.0,4.0,4.0,4.0,4.0,4.0,4.0,4.0,4.0,4.0,4.0,4.0,100.0,,,,,,,,,,,,,,,,,,,,,,,,,,,,,,,,,,,,,,,,,,,,,,,,,,,,,,,,,,,,,,,,,,,,,,,,,,,,,,,,,,,,,,,,,,,,,,,,,,,,,,,,,,,,,,,,,,,,,,,,,,,,,,,,,,,
1725716010.938499,1725716010.940181,86.0,0.0,3781.538574,4261.666504,4356.794922,4309.358887,4249.871582,4280.897461,4576.794922,4241.410156,4198.846191,4212.563965,4422.05127,4472.307617,4312.179688,4357.436035,0.0,1.0,15.0,,,,0.0,4.0,4.0,4.0,4.0,4.0,4.0,4.0,4.0,4.0,4.0,4.0,4.0,4.0,4.0,100.0,,,,,,,,,,,,,,,,,,,,,,,,,,,,,,,,,,,,,,,,,,,,,,,,,,,,,,,,,,,,,,,,,,,,,,,,,,,,,,,,,,,,,,,,,,,,,,,,,,,,,,,,,,,,,,,,,,,,,,,,,,,,,,,,,,,
1725716010.942403,1725716010.944085,87.0,0.0,3783.974365,4261.794922,4357.692383,4310.256348,4251.794922,4281.153809,4580.769043,4244.230957,4199.102539,4212.307617,4423.333496,4474.358887,4314.615234,4356.794922,0.0,1.0,15.0,,,,0.0,4.0,4.0,4.0,4.0,4.0,4.0,4.0,4.0,4.0,4.0,4.0,4.0,4.0,4.0,100.0,,,,,,,,,,,,,,,,,,,,,,,,,,,,,,,,,,,,,,,,,,,,,,,,,,,,,,,,,,,,,,,,,,,,,,,,,,,,,,,,,,,,,,,,,,,,,,,,,,,,,,,,,,,,,,,,,,,,,,,,,,,,,,,,,,,
1725716010.946308,1725716010.947989,88.0,0.0,3788.333252,4260.897461,4358.717773,4311.794922,4253.077148,4281.410156,4583.333496,4246.153809,4200.641113,4212.692383,4423.461426,4476.025879,4319.615234,4358.717773,0.0,1.0,15.0,,,,0.0,4.0,4.0,4.0,4.0,4.0,4.0,4.0,4.0,4.0,4.0,4.0,4.0,4.0,4.0,100.0,,,,,,,,,,,,,,,,,,,,,,,,,,,,,,,,,,,,,,,,,,,,,,,,,,,,,,,,,,,,,,,,,,,,,,,,,,,,,,,,,,,,,,,,,,,,,,,,,,,,,,,,,,,,,,,,,,,,,,,,,,,,,,,,,,,
1725716010.950212,1725716010.951893,89.0,0.0,3793.974365,4258.846191,4359.487305,4314.230957,4253.077148,4281.922852,4584.358887,4246.410156,4202.563965,4214.358887,4423.333496,4477.436035,4323.589844,4362.179688,0.0,1.0,15.0,,,,0.0,4.0,4.0,4.0,4.0,4.0,4.0,4.0,4.0,4.0,4.0,4.0,4.0,4.0,4.0,100.0,,,,,,,,,,,,,,,,,,,,,,,,,,,,,,,,,,,,,,,,,,,,,,,,,,,,,,,,,,,,,,,,,,,,,,,,,,,,,,,,,,,,,,,,,,,,,,,,,,,,,,,,,,,,,,,,,,,,,,,,,,,,,,,,,,,
1725716010.954116,1725716010.955697,90.0,0.0,3800.128174,4256.922852,4360.128418,4317.563965,4252.436035,4282.563965,4584.358887,4245.769043,4203.461426,4216.666504,4424.102539,4479.743652,4323.589844,4365.256348,0.0,1.0,15.0,,,,0.0,4.0,4.0,4.0,4.0,4.0,4.0,4.0,4.0,4.0,4.0,4.0,4.0,4.0,4.0,100.0,,,,,,,,,,,,,,,,,,,,,,,,,,,,,,,,,,,,,,,,,,,,,,,,,,,,,,,,,,,,,,,,,,,,,,,,,,,,,,,,,,,,,,,,,,,,,,,,,,,,,,,,,,,,,,,,,,,,,,,,,,,,,,,,,,,
1725716010.95802,1725716010.959601,91.0,0.0,3806.410156,4256.666504,4360.384766,4321.153809,4252.05127,4283.333496,4584.615234,4245.769043,4203.077148,4218.589844,4426.153809,4483.461426,4319.615234,4367.05127,0.0,1.0,15.0,,,,0.0,4.0,4.0,4.0,4.0,4.0,4.0,4.0,4.0,4.0,4.0,4.0,4.0,4.0,4.0,100.0,,,,,,,,,,,,,,,,,,,,,,,,,,,,,,,,,,,,,,,,,,,,,,,,,,,,,,,,,,,,,,,,,,,,,,,,,,,,,,,,,,,,,,,,,,,,,,,,,,,,,,,,,,,,,,,,,,,,,,,,,,,,,,,,,,,
1725716010.961924,1725716010.963506,92.0,0.0,3812.94873,4258.589844,4360.256348,4324.230957,4252.179688,4283.974121,4585.256348,4247.436035,4202.436035,4218.974121,4428.205078,4487.563965,4314.615234,4367.692383,0.0,1.0,15.0,,,,0.0,4.0,4.0,4.0,4.0,4.0,4.0,4.0,4.0,4.0,4.0,4.0,4.0,4.0,4.0,100.0,,,,,,,,,,,,,,,,,,,,,,,,,,,,,,,,,,,,,,,,,,,,,,,,,,,,,,,,0.0,0.0,64.0,0.130308,1.0,0.0,,,,,,,,,,,,,,,,,,,,,,,,,,,,,,,,,,,,,,,,,,,,,,,,,,,,,,,,,,,,,,,,,,,,,,
1725716010.965828,1725716010.96751,93.0,0.0,3819.615479,4260.512695,4360.128418,4325.897461,4252.563965,4284.230957,4585.384766,4250.128418,4202.820313,4217.692383,4428.846191,4490.769043,4311.282227,4367.307617,0.0,1.0,15.0,,,,0.0,4.0,4.0,4.0,4.0,4.0,4.0,4.0,4.0,4.0,4.0,4.0,4.0,4.0,4.0,100.0,,,,,,,,,,,,,,,,,,,,,,,,,,,,,,,,,,,,,,,,,,,,,,,,,,,,,,,,,,,,,,,,,,,,,,,,,,,,,,,,,,,,,,,,,,,,,,,,,,,,,,,,,,,,,,,,,,,,,,,,,,,,,,,,,,,
1725716010.969732,1725716010.971414,94.0,0.0,3825.641113,4260.128418,4360.0,4326.410156,4252.436035,4283.974121,4583.846191,4252.563965,4204.871582,4216.282227,4427.436035,4492.05127,4310.256348,4366.282227,0.0,1.0,15.0,,,,0.0,4.0,4.0,4.0,4.0,4.0,4.0,4.0,4.0,4.0,4.0,4.0,4.0,4.0,4.0,100.0,,,,,,,,,,,,,,,,,,,,,,,,,,,,,,,,,,,,,,,,,,,,,,,,,,,,,,,,,,,,,,,,,,,,,,,,,,,,,,,,,,,,,,,,,,,,,,,,,,,,,,,,,,,,,,,,,,,,,,,,,,,,,,,,,,,
1725716010.973636,1725716010.975318,95.0,0.0,3830.0,4256.153809,4359.615234,4326.282227,4251.794922,4283.077148,4580.384766,4253.846191,4207.563965,4215.897461,4424.871582,4491.410156,4310.256348,4364.743652,0.0,1.0,15.0,,,,0.0,4.0,4.0,4.0,4.0,4.0,4.0,4.0,4.0,4.0,4.0,4.0,4.0,4.0,4.0,100.0,,,,,,,,,,,,,,,,,,,,,,,,,,,,,,,,,,,,,,,,,,,,,,,,,,,,,,,,,,,,,,,,,,,,,,,,,,,,,,,,,,,,,,,,,,,,,,,,,,,,,,,,,,,,,,,,,,,,,,,,,,,,,,,,,,,
1725716010.97754,1725716010.979222,96.0,0.0,3832.435791,4250.512695,4358.974121,4326.666504,4251.153809,4281.794922,4575.769043,4253.589844,4209.230957,4216.666504,4422.820313,4489.615234,4310.0,4362.94873,0.0,1.0,15.0,,,,0.0,4.0,4.0,4.0,4.0,4.0,4.0,4.0,4.0,4.0,4.0,4.0,4.0,4.0,4.0,100.0,,,,,,,,,,,,,,,,,,,,,,,,,,,,,,,,,,,,,,,,,,,,,,,,,,,,,,,,,,,,,,,,,,,,,,,,,,,,,,,,,,,,,,,,,,,,,,,,,,,,,,,,,,,,,,,,,,,,,,,,,,,,,,,,,,,
1725716010.981444,1725716010.983126,97.0,0.0,3833.589844,4246.666504,4357.692383,4327.179688,4250.512695,4280.769043,4572.05127,4252.563965,4208.846191,4217.563965,4422.563965,4488.077148,4309.615234,4361.794922,0.0,1.0,15.0,,,,0.0,4.0,4.0,4.0,4.0,4.0,4.0,4.0,4.0,4.0,4.0,4.0,4.0,4.0,4.0,100.0,,,,,,,,,,,,,,,,,,,,,,,,,,,,,,,,,,,,,,,,,,,,,,,,,,,,,,,,,,,,,,,,,,,,,,,,,,,,,,,,,,,,,,,,,,,,,,,,,,,,,,,,,,,,,,,,,,,,,,,,,,,,,,,,,,,
1725716010.985348,1725716010.98693,98.0,0.0,3833.974365,4247.307617,4356.666504,4327.436035,4250.128418,4280.256348,4570.769043,4251.794922,4206.410156,4217.563965,4424.358887,4488.717773,4311.666504,4362.692383,0.0,1.0,15.0,,,,0.0,4.0,4.0,4.0,4.0,4.0,4.0,4.0,4.0,4.0,4.0,4.0,4.0,4.0,4.0,100.0,,,,,,,,,,,,,,,,,,,,,,,,,,,,,,,,,,,,,,,,,,,,,,,,,,,,,,,,,,,,,,,,,,,,,,,,,,,,,,,,,,,,,,,,,,,,,,,,,,,,,,,,,,,,,,,,,,,,,,,,,,,,,,,,,,,
1725716010.989252,1725716010.990834,99.0,0.0,3835.384521,4252.179688,4356.794922,4327.436035,4249.871582,4280.128418,4571.794922,4252.05127,4203.333496,4216.666504,4427.307617,4491.666504,4317.179688,4366.025879,0.0,1.0,15.0,,,,0.0,4.0,4.0,4.0,4.0,4.0,4.0,4.0,4.0,4.0,4.0,4.0,4.0,4.0,4.0,100.0,,,,,,,,,,,,,,,,,,,,,,,,,,,,,,,,,,,,,,,,,,,,,,,,,,,,,,,,,,,,,,,,,,,,,,,,,,,,,,,,,,,,,,,,,,,,,,,,,,,,,,,,,,,,,,,,,,,,,,,,,,,,,,,,,,,
1725716010.993157,1725716010.994738,100.0,0.0,3838.974365,4258.589844,4358.461426,4327.563965,4249.487305,4280.128418,4573.205078,4252.692383,4201.282227,4215.641113,4430.0,4495.897461,4324.871582,4371.025879,0.0,1.0,15.0,,,,0.0,4.0,4.0,4.0,4.0,4.0,4.0,4.0,4.0,4.0,4.0,4.0,4.0,4.0,4.0,100.0,,,,,,,,,,,,,,,,,,,,,,,,,,,,,,,,,,,,,,,,,,,,,,,,,,,,,,,,0.0,0.0,64.0,0.130308,1.0,0.0,,,,,,,,,,,,,,,,,,,,,,,,,,,,,,,,,,,,,,,,,,,,,,,,,,,,,,,,,,,,,,,,,,,,,,
1725716010.997061,1725716010.998642,101.0,0.0,3845.384521,4263.077148,4360.897461,4328.333496,4249.487305,4279.743652,4573.205078,4253.077148,4201.410156,4215.128418,4431.410156,4498.974121,4330.641113,4375.512695,0.0,1.0,15.0,,,,0.0,4.0,4.0,4.0,4.0,4.0,4.0,4.0,4.0,4.0,4.0,4.0,4.0,4.0,4.0,100.0,,,,,,,,,,,,,,,,,,,,,,,,,,,,,,,,,,,,,,,,,,,,,,,,,,,,,,,,,,,,,,,,,,,,,,,,,,,,,,,,,,,,,,,,,,,,,,,,,,,,,,,,,,,,,,,,,,,,,,,,,,,,,,,,,,,
1725716011.000965,1725716011.002447,102.0,0.0,3853.461426,4264.102539,4363.589844,4329.871582,4249.871582,4278.717773,4572.179688,4253.077148,4202.94873,4215.128418,4431.538574,4499.615234,4330.897461,4377.436035,0.0,1.0,15.0,,,,0.0,4.0,4.0,4.0,4.0,4.0,4.0,4.0,4.0,4.0,4.0,4.0,4.0,4.0,4.0,100.0,,,,,,,,,,,,,,,,,,,,,,,,,,,,,,,,,,,,,,,,,,,,,,,,,,,,,,,,,,,,,,,,,,,,,,,,,,,,,,,,,,,,,,,,,,,,,,,,,,,,,,,,,,,,,,,,,,,,,,,,,,,,,,,,,,,
1725716011.004869,1725716011.006351,103.0,0.0,3860.769287,4262.179688,4365.769043,4331.153809,4250.897461,4277.563965,4571.410156,4252.436035,4204.358887,4215.512695,4430.641113,4497.94873,4325.0,4375.769043,0.0,1.0,15.0,,,,0.0,4.0,4.0,4.0,4.0,4.0,4.0,4.0,4.0,4.0,4.0,4.0,4.0,4.0,4.0,100.0,,,,,,,,,,,,,,,,,,,,,,,,,,,,,,,,,,,,,,,,,,,,,,,,,,,,,,,,,,,,,,,,,,,,,,,,,,,,,,,,,,,,,,,,,,,,,,,,,,,,,,,,,,,,,,,,,,,,,,,,,,,,,,,,,,,
1725716011.008773,1725716011.010255,104.0,0.0,3865.384521,4259.358887,4367.179688,4331.538574,4252.179688,4276.794922,4571.410156,4251.666504,4204.743652,4215.897461,4429.102539,4495.256348,4316.282227,4371.282227,0.0,1.0,15.0,,,,0.0,4.0,4.0,4.0,4.0,4.0,4.0,4.0,4.0,4.0,4.0,4.0,4.0,4.0,4.0,100.0,,,,,,,,,,,,,,,,,,,,,,,,,,,,,,,,,,,,,,,,,,,,,,,,,,,,,,,,,,,,,,,,,,,,,,,,,,,,,,,,,,,,,,,,,,,,,,,,,,,,,,,,,,,,,,,,,,,,,,,,,,,,,,,,,,,
1725716011.012677,1725716011.014259,105.0,0.0,3866.538574,4257.307617,4367.307617,4330.769043,4253.717773,4277.179688,4570.641113,4250.769043,4204.102539,4215.897461,4427.436035,4492.94873,4309.615234,4366.922852,0.0,1.0,15.0,,,,0.0,4.0,4.0,4.0,4.0,4.0,4.0,4.0,4.0,4.0,4.0,4.0,4.0,4.0,4.0,100.0,,,,,,,,,,,,,,,,,,,,,,,,,,,,,,,,,,,,,,,,,,,,,,,,,,,,,,,,,,,,,,,,,,,,,,,,,,,,,,,,,,,,,,,,,,,,,,,,,,,,,,,,,,,,,,,,,,,,,,,,,,,,,,,,,,,
1725716011.016581,1725716011.018163,106.0,0.0,3865.641113,4255.641113,4365.897461,4329.487305,4255.256348,4278.589844,4567.820313,4250.128418,4204.102539,4215.512695,4426.410156,4491.666504,4308.846191,4365.128418,0.0,1.0,15.0,,,,0.0,4.0,4.0,4.0,4.0,4.0,4.0,4.0,4.0,4.0,4.0,4.0,4.0,4.0,4.0,100.0,,,,,,,,,,,,,,,,,,,,,,,,,,,,,,,,,,,,,,,,,,,,,,,,,,,,,,,,,,,,,,,,,,,,,,,,,,,,,,,,,,,,,,,,,,,,,,,,,,,,,,,,,,,,,,,,,,,,,,,,,,,,,,,,,,,
1725716011.020485,1725716011.022067,107.0,0.0,3865.0,4253.846191,4363.333496,4328.589844,4256.922852,4280.0,4563.077148,4250.0,4206.025879,4215.256348,4426.410156,4491.794922,4313.461426,4366.282227,0.0,1.0,15.0,,,,0.0,4.0,4.0,4.0,4.0,4.0,4.0,4.0,4.0,4.0,4.0,4.0,4.0,4.0,4.0,100.0,,,,,,,,,,,,,,,,,,,,,,,,,,,,,,,,,,,,,,,,,,,,,,,,,,,,,,,,,,,,,,,,,,,,,,,,,,,,,,,,,,,,,,,,,,,,,,,,,,,,,,,,,,,,,,,,,,,,,,,,,,,,,,,,,,,
1725716011.024389,1725716011.025971,108.0,0.0,3866.410156,4251.794922,4360.641113,4328.717773,4258.461426,4280.769043,4558.461426,4250.256348,4209.743652,4215.769043,4427.563965,4492.692383,4319.230957,4368.333496,0.0,1.0,15.0,,,,0.0,4.0,4.0,4.0,4.0,4.0,4.0,4.0,4.0,4.0,4.0,4.0,4.0,4.0,4.0,100.0,,,,,,,,,,,,,,,,,,,,,,,,,,,,,,,,,,,,,,,,,,,,,,,,,,,,,,,,0.0,0.0,64.0,0.130308,1.0,0.0,,,,,,,,,,,,,,,,,,,,,,,,,,,,,,,,,,,,,,,,,,,,,,,,,,,,,,,,,,,,,,,,,,,,,,
1725716011.028293,1725716011.029975,109.0,0.0,3870.256348,4250.256348,4358.461426,4329.358887,4259.487305,4280.128418,4555.256348,4250.256348,4213.205078,4216.794922,4428.974121,4493.333496,4321.794922,4369.230957,0.0,1.0,15.0,,,,0.0,4.0,4.0,4.0,4.0,4.0,4.0,4.0,4.0,4.0,4.0,4.0,4.0,4.0,4.0,100.0,,,,,,,,,,,,,,,,,,,,,,,,,,,,,,,,,,,,,,,,,,,,,,,,,,,,,,,,,,,,,,,,,,,,,,,,,,,,,,,,,,,,,,,,,,,,,,,,,,,,,,,,,,,,,,,,,,,,,,,,,,,,,,,,,,,
1725716011.032198,1725716011.033879,110.0,0.0,3875.128174,4249.615234,4356.922852,4329.358887,4259.615234,4278.461426,4553.461426,4250.0,4214.743652,4217.436035,4430.0,4492.436035,4320.0,4368.461426,0.0,1.0,15.0,,,,0.0,4.0,4.0,4.0,4.0,4.0,4.0,4.0,4.0,4.0,4.0,4.0,4.0,4.0,4.0,100.0,,,,,,,,,,,,,,,,,,,,,,,,,,,,,,,,,,,,,,,,,,,,,,,,,,,,,,,,,,,,,,,,,,,,,,,,,,,,,,,,,,,,,,,,,,,,,,,,,,,,,,,,,,,,,,,,,,,,,,,,,,,,,,,,,,,
1725716011.036102,1725716011.037783,111.0,0.0,3879.102539,4249.487305,4356.153809,4327.94873,4258.589844,4277.179688,4551.153809,4249.487305,4214.230957,4217.436035,4429.871582,4490.769043,4316.025879,4367.05127,0.0,1.0,15.0,,,,0.0,4.0,4.0,4.0,4.0,4.0,4.0,4.0,4.0,4.0,4.0,4.0,4.0,4.0,4.0,100.0,,,,,,,,,,,,,,,,,,,,,,,,,,,,,,,,,,,,,,,,,,,,,,,,,,,,,,,,,,,,,,,,,,,,,,,,,,,,,,,,,,,,,,,,,,,,,,,,,,,,,,,,,,,,,,,,,,,,,,,,,,,,,,,,,,,
1725716011.040006,1725716011.041688,112.0,0.0,3881.410156,4249.358887,4356.025879,4324.743652,4257.436035,4277.179688,4547.307617,4248.974121,4213.205078,4217.179688,4429.230957,4490.0,4313.589844,4366.538574,0.0,1.0,15.0,,,,0.0,4.0,4.0,4.0,4.0,4.0,4.0,4.0,4.0,4.0,4.0,4.0,4.0,4.0,4.0,100.0,,,,,,,,,,,,,,,,,,,,,,,,,,,,,,,,,,,,,,,,,,,,,,,,,,,,,,,,,,,,,,,,,,,,,,,,,,,,,,,,,,,,,,,,,,,,,,,,,,,,,,,,,,,,,,,,,,,,,,,,,,,,,,,,,,,
1725716011.04391,1725716011.045692,113.0,0.0,3882.564209,4248.974121,4356.538574,4319.871582,4256.794922,4278.205078,4541.666504,4248.717773,4213.077148,4217.307617,4428.461426,4491.025879,4315.0,4367.563965,0.0,1.0,15.0,,,,0.0,4.0,4.0,4.0,4.0,4.0,4.0,4.0,4.0,4.0,4.0,4.0,4.0,4.0,4.0,100.0,,,,,,,,,,,,,,,,,,,,,,,,,,,,,,,,,,,,,,,,,,,,,,,,,,,,,,,,,,,,,,,,,,,,,,,,,,,,,,,,,,,,,,,,,,,,,,,,,,,,,,,,,,,,,,,,,,,,,,,,,,,,,,,,,,,
1725716011.047814,1725716011.049596,114.0,0.0,3883.205078,4248.717773,4357.307617,4313.974121,4257.307617,4279.102539,4536.282227,4248.846191,4214.487305,4217.820313,4428.333496,4492.436035,4319.487305,4369.230957,0.0,1.0,15.0,,,,0.0,4.0,4.0,4.0,4.0,4.0,4.0,4.0,4.0,4.0,4.0,4.0,4.0,4.0,4.0,100.0,,,,,,,,,,,,,,,,,,,,,,,,,,,,,,,,,,,,,,,,,,,,,,,,,,,,,,,,,,,,,,,,,,,,,,,,,,,,,,,,,,,,,,,,,,,,,,,,,,,,,,,,,,,,,,,,,,,,,,,,,,,,,,,,,,,
1725716011.051718,1725716011.0535,115.0,0.0,3883.589844,4248.589844,4357.94873,4307.94873,4258.461426,4278.333496,4532.820313,4249.358887,4216.410156,4218.333496,4428.974121,4491.410156,4323.974121,4370.0,0.0,1.0,15.0,,,,0.0,4.0,4.0,4.0,4.0,4.0,4.0,4.0,4.0,4.0,4.0,4.0,4.0,4.0,4.0,100.0,,,,,,,,,,,,,,,,,,,,,,,,,,,,,,,,,,,,,,,,,,,,,,,,,,,,,,,,,,,,,,,,,,,,,,,,,,,,,,,,,,,,,,,,,,,,,,,,,,,,,,,,,,,,,,,,,,,,,,,,,,,,,,,,,,,
1725716011.055622,1725716011.057404,116.0,0.0,3883.333252,4248.846191,4357.692383,4302.692383,4259.358887,4275.897461,4532.307617,4249.487305,4217.94873,4218.846191,4429.358887,4486.666504,4325.897461,4368.589844,0.0,1.0,15.0,,,,0.0,4.0,4.0,4.0,4.0,4.0,4.0,4.0,4.0,4.0,4.0,4.0,4.0,4.0,4.0,100.0,,,,,,,,,,,,,,,,,1.0,0.0,0.0,,,,,,,,,,,,,,,,,,,,,,,,,,,,,,,,,,,,,0.0,0.0,64.0,0.123718,1.0,0.0,11.274366,3.899041,2.600547,0.778784,0.141618,2.043512,1.07152,0.594522,0.226284,0.069545,1.565828,1.414118,0.349496,0.162633,0.048722,1.534844,0.781519,0.449234,0.1948,0.03035,0.333425,0.272174,0.208088,0.111549,0.045737,0.29295,0.277985,0.056106,0.03614,0.049195,4.793818,0.518324,0.366522,0.110135,0.059916,1.174154,1.691981,0.668755,0.16891,0.097474,0.706984,1.169231,1.028658,0.16748,0.056333,1.504822,1.246086,1.100869,0.229323,0.094403,3.186156,2.811666,1.253282,0.292319,0.101112,2.497081,2.210847,0.879786,0.309647,0.123737,2.518915,2.172315,1.305389,0.356743,0.098772,2.241094,2.453891,0.696664,0.253478,0.102329
1725716011.059526,1725716011.061308,117.0,0.0,3881.666748,4249.230957,4356.666504,4298.589844,4259.358887,4273.077148,4533.846191,4248.974121,4218.461426,4219.230957,4429.102539,4480.769043,4325.0,4365.769043,0.0,1.0,15.0,,,,0.0,4.0,4.0,4.0,4.0,4.0,4.0,4.0,4.0,4.0,4.0,4.0,4.0,4.0,4.0,100.0,,,,,,,,,,,,,,,,,,,,,,,,,,,,,,,,,,,,,,,,,,,,,,,,,,,,,,,,,,,,,,,,,,,,,,,,,,,,,,,,,,,,,,,,,,,,,,,,,,,,,,,,,,,,,,,,,,,,,,,,,,,,,,,,,,,
1725716011.06343,1725716011.065112,118.0,0.0,3878.974365,4249.102539,4355.769043,4295.769043,4258.974121,4271.794922,4536.025879,4248.333496,4217.94873,4220.512695,4428.077148,4477.563965,4323.205078,4363.974121,0.0,1.0,15.0,,,,0.0,4.0,4.0,4.0,4.0,4.0,4.0,4.0,4.0,4.0,4.0,4.0,4.0,4.0,4.0,100.0,,,,,,,,,,,,,,,,,,,,,,,,,,,,,,,,,,,,,,,,,,,,,,,,,,,,,,,,,,,,,,,,,,,,,,,,,,,,,,,,,,,,,,,,,,,,,,,,,,,,,,,,,,,,,,,,,,,,,,,,,,,,,,,,,,,
1725716011.067335,1725716011.069016,119.0,0.0,3877.692383,4248.077148,4356.282227,4293.846191,4258.461426,4272.94873,4536.922852,4248.461426,4217.179688,4222.94873,4427.692383,4479.487305,4322.820313,4365.128418,0.0,1.0,15.0,,,,0.0,4.0,4.0,4.0,4.0,4.0,4.0,4.0,4.0,4.0,4.0,4.0,4.0,4.0,4.0,100.0,,,,,,,,,,,,,,,,,,,,,,,,,,,,,,,,,,,,,,,,,,,,,,,,,,,,,,,,,,,,,,,,,,,,,,,,,,,,,,,,,,,,,,,,,,,,,,,,,,,,,,,,,,,,,,,,,,,,,,,,,,,,,,,,,,,
1725716011.071239,1725716011.07302,120.0,0.0,3879.871826,4246.922852,4358.461426,4293.461426,4258.461426,4275.769043,4536.410156,4249.487305,4217.179688,4226.282227,4428.974121,4485.0,4324.615234,4368.846191,0.0,1.0,15.0,,,,0.0,4.0,4.0,4.0,4.0,4.0,4.0,4.0,4.0,4.0,4.0,4.0,4.0,4.0,4.0,100.0,,,,,,,,,,,,,,,,,,,,,,,,,,,,,,,,,,,,,,,,,,,,,,,,,,,,,,,,,,,,,,,,,,,,,,,,,,,,,,,,,,,,,,,,,,,,,,,,,,,,,,,,,,,,,,,,,,,,,,,,,,,,,,,,,,,
1725716011.075143,1725716011.076924,121.0,0.0,3885.256348,4246.794922,4361.922852,4294.743652,4258.717773,4278.589844,4535.384766,4250.641113,4218.205078,4229.230957,4432.179688,4490.897461,4327.563965,4373.077148,0.0,1.0,15.0,,,,0.0,4.0,4.0,4.0,4.0,4.0,4.0,4.0,4.0,4.0,4.0,4.0,4.0,4.0,4.0,100.0,,,,,,,,,,,,,,,,,,,,,,,,,,,,,,,,,,,,,,,,,,,,,,,,,,,,,,,,,,,,,,,,,,,,,,,,,,,,,,,,,,,,,,,,,,,,,,,,,,,,,,,,,,,,,,,,,,,,,,,,,,,,,,,,,,,
1725716011.079047,1725716011.080828,122.0,0.0,3891.281982,4248.717773,4365.384766,4298.077148,4258.846191,4280.0,4534.743652,4251.282227,4219.487305,4230.897461,4436.538574,4494.487305,4329.743652,4375.256348,0.0,1.0,15.0,,,,0.0,4.0,4.0,4.0,4.0,4.0,4.0,4.0,4.0,4.0,4.0,4.0,4.0,4.0,4.0,100.0,,,,,,,,,,,,,,,,,,,,,,,,,,,,,,,,,,,,,,,,,,,,,,,,,,,,,,,,,,,,,,,,,,,,,,,,,,,,,,,,,,,,,,,,,,,,,,,,,,,,,,,,,,,,,,,,,,,,,,,,,,,,,,,,,,,
1725716011.082951,1725716011.084733,123.0,0.0,3894.487061,4252.05127,4367.820313,4303.077148,4258.846191,4279.871582,4535.0,4251.025879,4220.384766,4231.410156,4440.512695,4495.769043,4330.128418,4375.256348,0.0,1.0,15.0,,,,0.0,4.0,4.0,4.0,4.0,4.0,4.0,4.0,4.0,4.0,4.0,4.0,4.0,4.0,4.0,100.0,,,,,,,,,,,,,,,,,,,,,,,,,,,,,,,,,,,,,,,,,,,,,,,,,,,,,,,,,,,,,,,,,,,,,,,,,,,,,,,,,,,,,,,,,,,,,,,,,,,,,,,,,,,,,,,,,,,,,,,,,,,,,,,,,,,
1725716011.086855,1725716011.088637,124.0,0.0,3894.102539,4255.0,4368.974121,4307.820313,4258.846191,4278.846191,4535.769043,4250.641113,4220.769043,4231.410156,4442.692383,4496.538574,4328.717773,4374.743652,0.0,1.0,15.0,,,,0.0,4.0,4.0,4.0,4.0,4.0,4.0,4.0,4.0,4.0,4.0,4.0,4.0,4.0,4.0,100.0,,,,,,,,,,,,,,,,,,,,,,,,,,,,,,,,,,,,,,,,,,,,,,,,,,,,,,,,0.0,0.0,64.0,0.123718,1.0,0.0,,,,,,,,,,,,,,,,,,,,,,,,,,,,,,,,,,,,,,,,,,,,,,,,,,,,,,,,,,,,,,,,,,,,,,
1725716011.090759,1725716011.092441,125.0,0.0,3892.692383,4255.897461,4369.487305,4310.641113,4258.846191,4277.307617,4536.410156,4251.025879,4221.025879,4231.922852,4443.205078,4498.974121,4327.05127,4375.641113,0.0,1.0,15.0,,,,0.0,4.0,4.0,4.0,4.0,4.0,4.0,4.0,4.0,4.0,4.0,4.0,4.0,4.0,4.0,100.0,,,,,,,,,,,,,,,,,,,,,,,,,,,,,,,,,,,,,,,,,,,,,,,,,,,,,,,,,,,,,,,,,,,,,,,,,,,,,,,,,,,,,,,,,,,,,,,,,,,,,,,,,,,,,,,,,,,,,,,,,,,,,,,,,,,
1725716011.094663,1725716011.096345,126.0,0.0,3893.461426,4253.846191,4370.512695,4310.897461,4259.102539,4275.769043,4536.538574,4252.05127,4220.641113,4232.563965,4442.436035,4502.94873,4327.05127,4378.205078,0.0,1.0,15.0,,,,0.0,4.0,4.0,4.0,4.0,4.0,4.0,4.0,4.0,4.0,4.0,4.0,4.0,4.0,4.0,100.0,,,,,,,,,,,,,,,,,,,,,,,,,,,,,,,,,,,,,,,,,,,,,,,,,,,,,,,,,,,,,,,,,,,,,,,,,,,,,,,,,,,,,,,,,,,,,,,,,,,,,,,,,,,,,,,,,,,,,,,,,,,,,,,,,,,
1725716011.098567,1725716011.100249,127.0,0.0,3897.307617,4250.641113,4372.307617,4309.615234,4259.358887,4274.743652,4536.538574,4253.461426,4220.0,4232.179688,4441.794922,4507.179688,4328.974121,4381.666504,0.0,1.0,15.0,,,,0.0,4.0,4.0,4.0,4.0,4.0,4.0,4.0,4.0,4.0,4.0,4.0,4.0,4.0,4.0,100.0,,,,,,,,,,,,,,,,,,,,,,,,,,,,,,,,,,,,,,,,,,,,,,,,,,,,,,,,,,,,,,,,,,,,,,,,,,,,,,,,,,,,,,,,,,,,,,,,,,,,,,,,,,,,,,,,,,,,,,,,,,,,,,,,,,,
1725716011.102471,1725716011.104153,128.0,0.0,3903.076904,4248.589844,4373.974121,4308.717773,4259.358887,4274.743652,4536.025879,4254.358887,4219.487305,4230.897461,4442.563965,4509.358887,4332.307617,4384.230957,2693.0,1.0,15.0,,,,0.0,4.0,4.0,4.0,4.0,4.0,4.0,4.0,4.0,4.0,4.0,4.0,4.0,4.0,4.0,100.0,,,,,,,,,,,,,,,,,,,,,,,,,,,,,,,,,,,,,,,,,,,,,,,,,,,,,,,,,,,,,,,,,,,,,,,,,,,,,,,,,,,,,,,,,,,,,,,,,,,,,,,,,,,,,,,,,,,,,,,,,,,,,,,,,,,
1725716011.106376,1725716011.107957,129.0,0.0,3908.205078,4249.487305,4374.743652,4309.102539,4258.974121,4276.025879,4535.0,4254.358887,4220.0,4229.615234,4444.743652,4508.846191,4335.512695,4385.0,2565.0,1.0,15.0,,,,0.0,4.0,4.0,4.0,4.0,4.0,4.0,4.0,4.0,4.0,4.0,4.0,4.0,4.0,4.0,100.0,,,,,,,,,,,,,,,,,,,,,,,,,,,,,,,,,,,,,,,,,,,,,,,,,,,,,,,,,,,,,,,,,,,,,,,,,,,,,,,,,,,,,,,,,,,,,,,,,,,,,,,,,,,,,,,,,,,,,,,,,,,,,,,,,,,
1725716011.11028,1725716011.111862,130.0,0.0,3911.153809,4253.205078,4374.615234,4310.641113,4258.205078,4278.077148,4533.846191,4253.846191,4221.666504,4229.743652,4447.05127,4506.666504,4337.692383,4384.230957,2520.0,1.0,15.0,,,,0.0,4.0,4.0,4.0,4.0,4.0,4.0,4.0,4.0,4.0,4.0,4.0,4.0,4.0,4.0,100.0,,,,,,,,,,,,,,,,,,,,,,,,,,,,,,,,,,,,,,,,,,,,,,,,,,,,,,,,,,,,,,,,,,,,,,,,,,,,,,,,,,,,,,,,,,,,,,,,,,,,,,,,,,,,,,,,,,,,,,,,,,,,,,,,,,,
1725716011.114184,1725716011.115766,131.0,0.0,3912.692383,4257.94873,4373.846191,4312.307617,4257.563965,4279.102539,4532.820313,4253.205078,4223.974121,4231.282227,4447.563965,4504.487305,4338.333496,4382.820313,2463.0,1.0,15.0,,,,0.0,4.0,4.0,4.0,4.0,4.0,4.0,4.0,4.0,4.0,4.0,4.0,4.0,4.0,4.0,100.0,,,,,,,,,,,,,,,,,,,,,,,,,,,,,,,,,,,,,,,,,,,,,,,,,,,,,,,,,,,,,,,,,,,,,,,,,,,,,,,,,,,,,,,,,,,,,,,,,,,,,,,,,,,,,,,,,,,,,,,,,,,,,,,,,,,
1725716011.118088,1725716011.11977,132.0,0.0,3914.743652,4261.410156,4372.94873,4313.077148,4257.692383,4277.307617,4531.282227,4252.563965,4225.641113,4231.922852,4444.743652,4502.94873,4337.563965,4381.666504,2436.0,1.0,15.0,,,,0.0,4.0,4.0,4.0,4.0,4.0,4.0,4.0,4.0,4.0,4.0,4.0,4.0,4.0,4.0,100.0,,,,,,,,,,,,,,,,,,,,,,,,,,,,,,,,,,,,,,,,,,,,,,,,,,,,,,,,0.0,0.0,64.0,0.123718,1.0,0.0,,,,,,,,,,,,,,,,,,,,,,,,,,,,,,,,,,,,,,,,,,,,,,,,,,,,,,,,,,,,,,,,,,,,,,
1725716011.121992,1725716011.123674,133.0,0.0,3918.718018,4262.05127,4371.794922,4312.692383,4258.589844,4272.692383,4528.974121,4251.538574,4225.897461,4230.256348,4439.358887,4501.153809,4335.897461,4381.025879,2399.0,1.0,15.0,,,,0.0,4.0,4.0,4.0,4.0,4.0,4.0,4.0,4.0,4.0,4.0,4.0,4.0,4.0,4.0,100.0,,,,,,,,,,,,,,,,,,,,,,,,,,,,,,,,,,,,,,,,,,,,,,,,,,,,,,,,,,,,,,,,,,,,,,,,,,,,,,,,,,,,,,,,,,,,,,,,,,,,,,,,,,,,,,,,,,,,,,,,,,,,,,,,,,,
1725716011.125896,1725716011.127578,134.0,0.0,3924.743652,4260.641113,4370.0,4311.666504,4259.871582,4267.05127,4526.282227,4250.128418,4224.358887,4226.410156,4434.102539,4498.333496,4333.846191,4380.769043,2414.0,1.0,15.0,,,,0.0,4.0,4.0,4.0,4.0,4.0,4.0,4.0,4.0,4.0,4.0,4.0,4.0,4.0,4.0,100.0,,,,,,,,,,,,,,,,,,,,,,,,,,,,,,,,,,,,,,,,,,,,,,,,,,,,,,,,,,,,,,,,,,,,,,,,,,,,,,,,,,,,,,,,,,,,,,,,,,,,,,,,,,,,,,,,,,,,,,,,,,,,,,,,,,,
1725716011.1298,1725716011.131482,135.0,0.0,3931.923096,4258.077148,4367.692383,4311.282227,4260.641113,4263.717773,4524.487305,4248.589844,4221.282227,4223.077148,4431.666504,4494.487305,4331.794922,4380.897461,2493.0,1.0,15.0,,,,0.0,4.0,4.0,4.0,4.0,4.0,4.0,4.0,4.0,4.0,4.0,4.0,4.0,4.0,4.0,100.0,,,,,,,,,,,,,,,,,,,,,,,,,,,,,,,,,,,,,,,,,,,,,,,,,,,,,,,,,,,,,,,,,,,,,,,,,,,,,,,,,,,,,,,,,,,,,,,,,,,,,,,,,,,,,,,,,,,,,,,,,,,,,,,,,,,
1725716011.133704,1725716011.135486,136.0,0.0,3938.718018,4255.512695,4365.512695,4311.666504,4260.641113,4264.358887,4523.461426,4247.820313,4218.077148,4221.794922,4432.563965,4491.410156,4329.871582,4381.153809,2466.0,1.0,15.0,,,,0.0,4.0,4.0,4.0,4.0,4.0,4.0,4.0,4.0,4.0,4.0,4.0,4.0,4.0,4.0,100.0,,,,,,,,,,,,,,,,,,,,,,,,,,,,,,,,,,,,,,,,,,,,,,,,,,,,,,,,,,,,,,,,,,,,,,,,,,,,,,,,,,,,,,,,,,,,,,,,,,,,,,,,,,,,,,,,,,,,,,,,,,,,,,,,,,,
1725716011.137608,1725716011.13939,137.0,0.0,3944.230713,4253.077148,4364.358887,4312.563965,4260.641113,4268.077148,4522.179688,4248.205078,4216.025879,4222.436035,4435.384766,4490.641113,4328.589844,4381.282227,2555.0,1.0,15.0,,,,0.0,4.0,4.0,4.0,4.0,4.0,4.0,4.0,4.0,4.0,4.0,4.0,4.0,4.0,4.0,100.0,,,,,,,,,,,,,,,,,,,,,,,,,,,,,,,,,,,,,,,,,,,,,,,,,,,,,,,,,,,,,,,,,,,,,,,,,,,,,,,,,,,,,,,,,,,,,,,,,,,,,,,,,,,,,,,,,,,,,,,,,,,,,,,,,,,
1725716011.141513,1725716011.143294,138.0,0.0,3948.333252,4250.897461,4364.487305,4313.333496,4261.410156,4271.794922,4519.615234,4248.974121,4216.282227,4223.205078,4437.179688,4491.794922,4327.94873,4381.153809,2877.0,1.0,15.0,,,,0.0,4.0,4.0,4.0,4.0,4.0,4.0,4.0,4.0,4.0,4.0,4.0,4.0,4.0,4.0,100.0,,,,,,,,,,,,,,,,,,,,,,,,,,,,,,,,,,,,,,,,,,,,,,,,,,,,,,,,,,,,,,,,,,,,,,,,,,,,,,,,,,,,,,,,,,,,,,,,,,,,,,,,,,,,,,,,,,,,,,,,,,,,,,,,,,,
1725716011.145417,1725716011.147198,139.0,0.0,3951.666748,4249.487305,4365.641113,4313.717773,4262.820313,4273.205078,4516.153809,4248.717773,4217.436035,4222.563965,4436.794922,4493.205078,4327.692383,4380.256348,3109.0,1.0,15.0,,,,0.0,4.0,4.0,4.0,4.0,4.0,4.0,4.0,4.0,4.0,4.0,4.0,4.0,4.0,4.0,100.0,,,,,,,,,,,,,,,,,,,,,,,,,,,,,,,,,,,,,,,,,,,,,,,,,,,,,,,,,,,,,,,,,,,,,,,,,,,,,,,,,,,,,,,,,,,,,,,,,,,,,,,,,,,,,,,,,,,,,,,,,,,,,,,,,,,
1725716011.149321,1725716011.151002,140.0,0.0,3955.256348,4249.487305,4367.179688,4313.717773,4263.717773,4271.282227,4512.820313,4245.897461,4217.692383,4220.128418,4433.974121,4492.436035,4327.307617,4378.589844,3396.0,1.0,15.0,,,,0.0,4.0,4.0,4.0,4.0,4.0,4.0,4.0,4.0,4.0,4.0,4.0,4.0,4.0,4.0,100.0,,,,,,,,,,,,,,,,,,,,,,,,,,,,,,,,,,,,,,,,,,,,,,,,,,,,,,,,0.0,0.0,64.0,0.123718,1.0,0.0,,,,,,,,,,,,,,,,,,,,,,,,,,,,,,,,,,,,,,,,,,,,,,,,,,,,,,,,,,,,,,,,,,,,,,
1725716011.153225,1725716011.154907,141.0,0.0,3959.230713,4250.769043,4367.94873,4312.692383,4262.94873,4267.692383,4510.256348,4240.897461,4215.128418,4217.05127,4430.128418,4489.102539,4325.769043,4376.025879,3810.0,1.0,15.0,,,,0.0,4.0,4.0,4.0,4.0,4.0,4.0,4.0,4.0,4.0,4.0,4.0,4.0,4.0,4.0,100.0,,,,,,,,,,,,,,,,,,,,,,,,,,,,,,,,,,,,,,,,,,,,,,,,,,,,,,,,,,,,,,,,,,,,,,,,,,,,,,,,,,,,,,,,,,,,,,,,,,,,,,,,,,,,,,,,,,,,,,,,,,,,,,,,,,,
1725716011.157129,1725716011.158811,142.0,0.0,3962.94873,4250.641113,4366.153809,4310.0,4259.615234,4264.230957,4507.563965,4235.0,4210.128418,4214.102539,4426.025879,4483.717773,4321.794922,4372.692383,2877.0,1.0,15.0,,,,0.0,4.0,4.0,4.0,4.0,4.0,4.0,4.0,4.0,4.0,4.0,4.0,4.0,4.0,4.0,100.0,,,,,,,,,,,,,,,,,,,,,,,,,,,,,,,,,,,,,,,,,,,,,,,,,,,,,,,,,,,,,,,,,,,,,,,,,,,,,,,,,,,,,,,,,,,,,,,,,,,,,,,,,,,,,,,,,,,,,,,,,,,,,,,,,,,
1725716011.161033,1725716011.162815,143.0,0.0,3964.358887,4246.794922,4360.897461,4305.641113,4254.487305,4262.436035,4503.077148,4230.641113,4204.358887,4211.282227,4421.153809,4477.820313,4314.871582,4367.563965,3109.0,1.0,15.0,,,,0.0,4.0,4.0,4.0,4.0,4.0,4.0,4.0,4.0,4.0,4.0,4.0,4.0,4.0,4.0,100.0,,,,,,,,,,,,,,,,,,,,,,,,,,,,,,,,,,,,,,,,,,,,,,,,,,,,,,,,,,,,,,,,,,,,,,,,,,,,,,,,,,,,,,,,,,,,,,,,,,,,,,,,,,,,,,,,,,,,,,,,,,,,,,,,,,,
1725716011.164937,1725716011.166719,144.0,0.0,3962.05127,4238.974121,4352.563965,4300.384766,4248.717773,4262.307617,4495.641113,4229.487305,4199.871582,4207.692383,4414.743652,4472.563965,4305.897461,4360.641113,3396.0,1.0,15.0,,,,0.0,4.0,4.0,4.0,4.0,4.0,4.0,4.0,4.0,4.0,4.0,4.0,4.0,4.0,4.0,100.0,,,,,,,,,,,,,,,,,,,,,,,,,,,,,,,,,,,,,,,,,,,,,,,,,,,,,,,,,,,,,,,,,,,,,,,,,,,,,,,,,,,,,,,,,,,,,,,,,,,,,,,,,,,,,,,,,,,,,,,,,,,,,,,,,,,
1725716011.168841,1725716011.170623,145.0,0.0,3956.666748,4229.230957,4343.846191,4295.128418,4244.358887,4262.692383,4486.410156,4230.769043,4198.589844,4202.436035,4406.410156,4469.230957,4296.794922,4353.205078,3810.0,1.0,15.0,,,,0.0,4.0,4.0,4.0,4.0,4.0,4.0,4.0,4.0,4.0,4.0,4.0,4.0,4.0,4.0,100.0,,,,,,,,,,,,,,,,,,,,,,,,,,,,,,,,,,,,,,,,,,,,,,,,,,,,,,,,,,,,,,,,,,,,,,,,,,,,,,,,,,,,,,,,,,,,,,,,,,,,,,,,,,,,,,,,,,,,,,,,,,,,,,,,,,,
1725716011.172745,1725716011.174527,146.0,0.0,3951.025635,4221.538574,4337.820313,4291.794922,4242.692383,4262.820313,4477.692383,4233.333496,4201.025879,4196.794922,4398.717773,4468.333496,4290.128418,4348.205078,2877.0,1.0,15.0,,,,0.0,4.0,4.0,4.0,4.0,4.0,4.0,4.0,4.0,4.0,4.0,4.0,4.0,4.0,4.0,100.0,,,,,,,,,,,,,,,,,,,,,,,,,,,,,,,,,,,,,,,,,,,,,,,,,,,,,,,,,,,,,,,,,,,,,,,,,,,,,,,,,,,,,,,,,,,,,,,,,,,,,,,,,,,,,,,,,,,,,,,,,,,,,,,,,,,
1725716011.176649,1725716011.178531,147.0,0.0,3948.974365,4218.717773,4337.179688,4291.538574,4243.589844,4262.563965,4471.922852,4236.666504,4206.794922,4194.358887,4395.512695,4470.128418,4288.077148,4348.205078,3109.0,1.0,15.0,,,,0.0,4.0,4.0,4.0,4.0,4.0,4.0,4.0,4.0,4.0,4.0,4.0,4.0,4.0,4.0,100.0,,,,,,,,,,,,,,,,,,,,,,,,,,,,,,,,,,,,,,,,,,,,,,,,,,,,,,,,,,,,,,,,,,,,,,,,,,,,,,,,,,,,,,,,,,,,,,,,,,,,,,,,,,,,,,,,,,,,,,,,,,,,,,,,,,,
1725716011.180553,1725716011.182435,148.0,0.0,3953.974365,4221.410156,4341.922852,4294.358887,4245.128418,4263.077148,4470.512695,4241.282227,4214.487305,4198.077148,4400.512695,4474.487305,4291.282227,4353.846191,3396.0,1.0,15.0,,,,0.0,4.0,4.0,4.0,4.0,4.0,4.0,4.0,4.0,4.0,4.0,4.0,4.0,4.0,4.0,100.0,,,,,,,,,,,,,,,,,1.0,0.0,0.0,,,,,,,,,,,,,,,,,,,,,,,,,,,,,,,,,,,,,0.0,0.0,64.0,0.098509,1.0,0.0,12.349751,3.289968,2.145448,0.710223,0.13431,2.263839,1.176026,0.566741,0.226817,0.073415,1.545187,1.619039,0.391059,0.158446,0.040944,1.631729,0.844267,0.462655,0.205779,0.027474,0.330272,0.237912,0.200112,0.108853,0.038117,0.252555,0.291951,0.053295,0.036473,0.045414,5.573098,0.436318,0.306614,0.108672,0.059419,1.300378,1.668258,0.731762,0.157542,0.089697,0.819717,1.153154,1.082509,0.162075,0.062248,1.667136,1.251913,1.147481,0.235424,0.097263,3.202847,2.766573,1.302847,0.273784,0.104882,2.482154,2.456029,0.956959,0.276821,0.131997,2.721086,2.329403,1.400114,0.347685,0.107276,2.394496,2.734138,0.733179,0.262843,0.090741
1725716011.184457,1725716011.186339,149.0,0.0,3965.641113,4227.692383,4349.358887,4299.743652,4246.025879,4264.871582,4472.94873,4247.563965,4222.436035,4207.820313,4412.94873,4480.897461,4299.102539,4363.333496,3810.0,1.0,15.0,,,,0.0,4.0,4.0,4.0,4.0,4.0,4.0,4.0,4.0,4.0,4.0,4.0,4.0,4.0,4.0,100.0,,,,,,,,,,,,,,,,,,,,,,,,,,,,,,,,,,,,,,,,,,,,,,,,,,,,,,,,,,,,,,,,,,,,,,,,,,,,,,,,,,,,,,,,,,,,,,,,,,,,,,,,,,,,,,,,,,,,,,,,,,,,,,,,,,,
1725716011.188362,1725716011.190243,150.0,0.0,3980.512939,4235.128418,4355.769043,4306.282227,4246.282227,4267.820313,4476.538574,4254.871582,4228.974121,4219.615234,4428.333496,4489.102539,4309.871582,4373.717773,2877.0,1.0,15.0,,,,0.0,4.0,4.0,4.0,4.0,4.0,4.0,4.0,4.0,4.0,4.0,4.0,4.0,4.0,4.0,100.0,,,,,,,,,,,,,,,,,,,,,,,,,,,,,,,,,,,,,,,,,,,,,,,,,,,,,,,,,,,,,,,,,,,,,,,,,,,,,,,,,,,,,,,,,,,,,,,,,,,,,,,,,,,,,,,,,,,,,,,,,,,,,,,,,,,
1725716011.192266,1725716011.194247,151.0,0.0,3994.358887,4241.153809,4358.717773,4312.563965,4247.179688,4270.384766,4478.205078,4261.410156,4233.077148,4228.589844,4440.641113,4498.077148,4321.282227,4382.94873,3109.0,1.0,15.0,,,,0.0,4.0,4.0,4.0,4.0,4.0,4.0,4.0,4.0,4.0,4.0,4.0,4.0,4.0,4.0,100.0,,,,,,,,,,,,,,,,,,,,,,,,,,,,,,,,,,,,,,,,,,,,,,,,,,,,,,,,,,,,,,,,,,,,,,,,,,,,,,,,,,,,,,,,,,,,,,,,,,,,,,,,,,,,,,,,,,,,,,,,,,,,,,,,,,,
1725716011.19617,1725716011.198151,152.0,0.0,4004.871826,4245.256348,4358.333496,4317.563965,4249.615234,4271.538574,4476.666504,4265.769043,4235.0,4233.333496,4447.05127,4506.282227,4331.538574,4390.256348,3396.0,1.0,15.0,,,,0.0,4.0,4.0,4.0,4.0,4.0,4.0,4.0,4.0,4.0,4.0,4.0,4.0,4.0,4.0,100.0,,,,,,,,,,,,,,,,,,,,,,,,,,,,,,,,,,,,,,,,,,,,,,,,,,,,,,,,,,,,,,,,,,,,,,,,,,,,,,,,,,,,,,,,,,,,,,,,,,,,,,,,,,,,,,,,,,,,,,,,,,,,,,,,,,,
1725716011.200074,1725716011.202056,153.0,0.0,4012.307617,4248.077148,4356.794922,4320.512695,4253.077148,4270.641113,4472.563965,4267.05127,4235.897461,4236.025879,4448.461426,4511.794922,4338.846191,4395.384766,3810.0,1.0,15.0,,,,0.0,4.0,4.0,4.0,4.0,4.0,4.0,4.0,4.0,4.0,4.0,4.0,4.0,4.0,4.0,100.0,,,,,,,,,,,,,,,,,,,,,,,,,,,,,,,,,,,,,,,,,,,,,,,,,,,,,,,,,,,,,,,,,,,,,,,,,,,,,,,,,,,,,,,,,,,,,,,,,,,,,,,,,,,,,,,,,,,,,,,,,,,,,,,,,,,
1725716011.203978,1725716011.20596,154.0,0.0,4018.974365,4250.128418,4355.641113,4321.410156,4255.641113,4268.333496,4467.307617,4266.153809,4236.153809,4239.102539,4447.692383,4513.589844,4342.692383,4398.461426,2877.0,1.0,15.0,,,,0.0,4.0,4.0,4.0,4.0,4.0,4.0,4.0,4.0,4.0,4.0,4.0,4.0,4.0,4.0,100.0,,,,,,,,,,,,,,,,,,,,,,,,,,,,,,,,,,,,,,,,,,,,,,,,,,,,,,,,,,,,,,,,,,,,,,,,,,,,,,,,,,,,,,,,,,,,,,,,,,,,,,,,,,,,,,,,,,,,,,,,,,,,,,,,,,,
1725716011.207882,1725716011.209864,155.0,0.0,4026.538574,4251.410156,4355.897461,4321.025879,4256.025879,4265.769043,4462.179688,4264.871582,4236.410156,4242.820313,4446.666504,4512.179688,4343.205078,4398.974121,3109.0,1.0,15.0,,,,0.0,4.0,4.0,4.0,4.0,4.0,4.0,4.0,4.0,4.0,4.0,4.0,4.0,4.0,4.0,100.0,,,,,,,,,,,,,,,,,,,,,,,,,,,,,,,,,,,,,,,,,,,,,,,,,,,,,,,,,,,,,,,,,,,,,,,,,,,,,,,,,,,,,,,,,,,,,,,,,,,,,,,,,,,,,,,,,,,,,,,,,,,,,,,,,,,
1725716011.211786,1725716011.213668,156.0,0.0,4035.128174,4251.538574,4356.922852,4320.512695,4253.846191,4263.589844,4458.205078,4264.102539,4236.666504,4245.512695,4446.282227,4509.615234,4341.153809,4396.922852,3396.0,1.0,15.0,,,,0.0,4.0,4.0,4.0,4.0,4.0,4.0,4.0,4.0,4.0,4.0,4.0,4.0,4.0,4.0,100.0,,,,,,,,,,,,,,,,,,,,,,,,,,,,,,,,,,,,,,,,,,,,,,,,,,,,,,,,0.0,0.0,64.0,0.098509,1.0,0.0,,,,,,,,,,,,,,,,,,,,,,,,,,,,,,,,,,,,,,,,,,,,,,,,,,,,,,,,,,,,,,,,,,,,,,
1725716011.21569,1725716011.217572,157.0,0.0,4043.205078,4250.769043,4358.333496,4320.641113,4251.025879,4262.307617,4455.641113,4263.974121,4237.05127,4245.256348,4446.410156,4507.692383,4338.589844,4392.692383,3810.0,1.0,15.0,,,,0.0,4.0,4.0,4.0,4.0,4.0,4.0,4.0,4.0,4.0,4.0,4.0,4.0,4.0,4.0,100.0,,,,,,,,,,,,,,,,,,,,,,,,,,,,,,,,,,,,,,,,,,,,,,,,,,,,,,,,,,,,,,,,,,,,,,,,,,,,,,,,,,,,,,,,,,,,,,,,,,,,,,,,,,,,,,,,,,,,,,,,,,,,,,,,,,,
1725716011.219594,1725716011.221476,158.0,0.0,4049.487061,4249.743652,4359.102539,4321.794922,4249.487305,4262.05127,4453.717773,4263.846191,4236.922852,4242.307617,4446.666504,4507.179688,4337.05127,4388.205078,2877.0,1.0,15.0,,,,0.0,4.0,4.0,4.0,4.0,4.0,4.0,4.0,4.0,4.0,4.0,4.0,4.0,4.0,4.0,100.0,,,,,,,,,,,,,,,,,,,,,,,,,,,,,,,,,,,,,,,,,,,,,,,,,,,,,,,,,,,,,,,,,,,,,,,,,,,,,,,,,,,,,,,,,,,,,,,,,,,,,,,,,,,,,,,,,,,,,,,,,,,,,,,,,,,
1725716011.223498,1725716011.22548,159.0,0.0,4053.974365,4248.846191,4358.717773,4322.94873,4249.743652,4262.179688,4451.153809,4263.846191,4236.282227,4238.077148,4446.538574,4507.692383,4338.333496,4386.410156,3109.0,1.0,15.0,,,,0.0,4.0,4.0,4.0,4.0,4.0,4.0,4.0,4.0,4.0,4.0,4.0,4.0,4.0,4.0,100.0,,,,,,,,,,,,,,,,,,,,,,,,,,,,,,,,,,,,,,,,,,,,,,,,,,,,,,,,,,,,,,,,,,,,,,,,,,,,,,,,,,,,,,,,,,,,,,,,,,,,,,,,,,,,,,,,,,,,,,,,,,,,,,,,,,,
1725716011.227403,1725716011.229384,160.0,0.0,4057.820557,4248.461426,4357.05127,4323.333496,4251.025879,4262.179688,4446.282227,4263.717773,4235.384766,4234.615234,4446.282227,4508.589844,4341.922852,4388.333496,3396.0,1.0,15.0,,,,0.0,4.0,4.0,4.0,4.0,4.0,4.0,4.0,4.0,4.0,4.0,4.0,4.0,4.0,4.0,100.0,,,,,,,,,,,,,,,,,,,,,,,,,,,,,,,,,,,,,,,,,,,,,,,,,,,,,,,,,,,,,,,,,,,,,,,,,,,,,,,,,,,,,,,,,,,,,,,,,,,,,,,,,,,,,,,,,,,,,,,,,,,,,,,,,,,
1725716011.231307,1725716011.233288,161.0,0.0,4062.179443,4247.94873,4355.128418,4322.563965,4251.794922,4261.922852,4439.358887,4263.974121,4234.743652,4233.077148,4446.025879,4509.102539,4346.025879,4392.436035,3810.0,1.0,15.0,,,,0.0,4.0,4.0,4.0,4.0,4.0,4.0,4.0,4.0,4.0,4.0,4.0,4.0,4.0,4.0,100.0,,,,,,,,,,,,,,,,,,,,,,,,,,,,,,,,,,,,,,,,,,,,,,,,,,,,,,,,,,,,,,,,,,,,,,,,,,,,,,,,,,,,,,,,,,,,,,,,,,,,,,,,,,,,,,,,,,,,,,,,,,,,,,,,,,,
1725716011.235211,1725716011.237192,162.0,0.0,4067.692383,4247.436035,4353.846191,4321.794922,4251.153809,4261.538574,4432.307617,4264.615234,4234.743652,4233.589844,4445.897461,4509.358887,4348.077148,4396.153809,2877.0,1.0,15.0,,,,0.0,4.0,4.0,4.0,4.0,4.0,4.0,4.0,4.0,4.0,4.0,4.0,4.0,4.0,4.0,100.0,,,,,,,,,,,,,,,,,,,,,,,,,,,,,,,,,,,,,,,,,,,,,,,,,,,,,,,,,,,,,,,,,,,,,,,,,,,,,,,,,,,,,,,,,,,,,,,,,,,,,,,,,,,,,,,,,,,,,,,,,,,,,,,,,,,
1725716011.239115,1725716011.240997,163.0,0.0,4073.718018,4247.436035,4354.102539,4321.538574,4249.615234,4261.538574,4427.563965,4265.512695,4235.128418,4235.512695,4446.025879,4509.230957,4346.666504,4397.436035,3109.0,1.0,15.0,,,,0.0,4.0,4.0,4.0,4.0,4.0,4.0,4.0,4.0,4.0,4.0,4.0,4.0,4.0,4.0,100.0,,,,,,,,,,,,,,,,,,,,,,,,,,,,,,,,,,,,,,,,,,,,,,,,,,,,,,,,,,,,,,,,,,,,,,,,,,,,,,,,,,,,,,,,,,,,,,,,,,,,,,,,,,,,,,,,,,,,,,,,,,,,,,,,,,,
1725716011.243019,1725716011.244901,164.0,0.0,4079.615479,4248.461426,4355.256348,4322.692383,4248.974121,4261.410156,4426.282227,4266.282227,4235.512695,4237.307617,4446.538574,4508.589844,4343.333496,4396.538574,3396.0,1.0,15.0,,,,0.0,4.0,4.0,4.0,4.0,4.0,4.0,4.0,4.0,4.0,4.0,4.0,4.0,4.0,4.0,100.0,,,,,,,,,,,,,,,,,,,,,,,,,,,,,,,,,,,,,,,,,,,,,,,,,,,,,,,,0.0,0.0,64.0,0.098509,1.0,0.0,,,,,,,,,,,,,,,,,,,,,,,,,,,,,,,,,,,,,,,,,,,,,,,,,,,,,,,,,,,,,,,,,,,,,,
1725716011.246923,1725716011.248805,165.0,0.0,4085.256348,4250.384766,4356.410156,4324.871582,4251.538574,4260.384766,4426.666504,4266.410156,4235.641113,4237.692383,4447.179688,4507.563965,4340.384766,4395.384766,3810.0,1.0,15.0,,,,0.0,4.0,4.0,4.0,4.0,4.0,4.0,4.0,4.0,4.0,4.0,4.0,4.0,4.0,4.0,100.0,,,,,,,,,,,,,,,,,,,,,,,,,,,,,,,,,,,,,,,,,,,,,,,,,,,,,,,,,,,,,,,,,,,,,,,,,,,,,,,,,,,,,,,,,,,,,,,,,,,,,,,,,,,,,,,,,,,,,,,,,,,,,,,,,,,
1725716011.250827,1725716011.252709,166.0,0.0,4091.538574,4252.307617,4356.538574,4327.436035,4257.179688,4257.94873,4425.897461,4265.897461,4235.0,4236.666504,4447.179688,4506.666504,4339.615234,4395.384766,2877.0,1.0,15.0,,,,0.0,4.0,4.0,4.0,4.0,4.0,4.0,4.0,4.0,4.0,4.0,4.0,4.0,4.0,4.0,100.0,,,,,,,,,,,,,,,,,,,,,,,,,,,,,,,,,,,,,,,,,,,,,,,,,,,,,,,,,,,,,,,,,,,,,,,,,,,,,,,,,,,,,,,,,,,,,,,,,,,,,,,,,,,,,,,,,,,,,,,,,,,,,,,,,,,
1725716011.254731,1725716011.256513,167.0,0.0,4098.846191,4252.94873,4355.384766,4328.974121,4263.205078,4254.871582,4422.179688,4265.0,4233.717773,4235.128418,4446.282227,4505.897461,4340.384766,4396.410156,3109.0,1.0,15.0,,,,0.0,4.0,4.0,4.0,4.0,4.0,4.0,4.0,4.0,4.0,4.0,4.0,4.0,4.0,4.0,100.0,,,,,,,,,,,,,,,,,,,,,,,,,,,,,,,,,,,,,,,,,,,,,,,,,,,,,,,,,,,,,,,,,,,,,,,,,,,,,,,,,,,,,,,,,,,,,,,,,,,,,,,,,,,,,,,,,,,,,,,,,,,,,,,,,,,
1725716011.258635,1725716011.260417,168.0,0.0,4107.307617,4252.05127,4352.94873,4328.461426,4265.512695,4252.436035,4416.282227,4264.102539,4232.179688,4234.230957,4444.358887,4505.384766,4341.666504,4397.563965,3396.0,1.0,15.0,,,,0.0,4.0,4.0,4.0,4.0,4.0,4.0,4.0,4.0,4.0,4.0,4.0,4.0,4.0,4.0,100.0,,,,,,,,,,,,,,,,,,,,,,,,,,,,,,,,,,,,,,,,,,,,,,,,,,,,,,,,,,,,,,,,,,,,,,,,,,,,,,,,,,,,,,,,,,,,,,,,,,,,,,,,,,,,,,,,,,,,,,,,,,,,,,,,,,,
1725716011.26254,1725716011.264321,169.0,0.0,4116.922852,4250.0,4350.0,4326.153809,4262.820313,4251.282227,4410.256348,4263.717773,4232.179688,4234.743652,4443.205078,4505.512695,4342.307617,4397.94873,3810.0,1.0,15.0,,,,0.0,4.0,4.0,4.0,4.0,4.0,4.0,4.0,4.0,4.0,4.0,4.0,4.0,4.0,4.0,100.0,,,,,,,,,,,,,,,,,,,,,,,,,,,,,,,,,,,,,,,,,,,,,,,,,,,,,,,,,,,,,,,,,,,,,,,,,,,,,,,,,,,,,,,,,,,,,,,,,,,,,,,,,,,,,,,,,,,,,,,,,,,,,,,,,,,
1725716011.266444,1725716011.268325,170.0,0.0,4127.179688,4247.692383,4347.563965,4323.846191,4257.05127,4251.025879,4405.256348,4264.358887,4235.0,4237.05127,4444.615234,4506.282227,4342.436035,4397.820313,2877.0,1.0,15.0,,,,0.0,4.0,4.0,4.0,4.0,4.0,4.0,4.0,4.0,4.0,4.0,4.0,4.0,4.0,4.0,100.0,,,,,,,,,,,,,,,,,,,,,,,,,,,,,,,,,,,,,,,,,,,,,,,,,,,,,,,,,,,,,,,,,,,,,,,,,,,,,,,,,,,,,,,,,,,,,,,,,,,,,,,,,,,,,,,,,,,,,,,,,,,,,,,,,,,
1725716011.270348,1725716011.272229,171.0,0.0,4136.794922,4246.153809,4345.512695,4322.94873,4251.538574,4251.025879,4402.179688,4265.128418,4239.871582,4241.153809,4449.358887,4507.692383,4342.94873,4397.692383,3109.0,1.0,15.0,,,,0.0,4.0,4.0,4.0,4.0,4.0,4.0,4.0,4.0,4.0,4.0,4.0,4.0,4.0,4.0,100.0,,,,,,,,,,,,,,,,,,,,,,,,,,,,,,,,,,,,,,,,,,,,,,,,,,,,,,,,,,,,,,,,,,,,,,,,,,,,,,,,,,,,,,,,,,,,,,,,,,,,,,,,,,,,,,,,,,,,,,,,,,,,,,,,,,,
1725716011.274252,1725716011.276134,172.0,0.0,4144.487305,4245.897461,4343.974121,4323.461426,4249.230957,4250.769043,4400.384766,4264.487305,4244.615234,4245.897461,4454.743652,4508.974121,4344.358887,4397.820313,3396.0,1.0,15.0,,,,0.0,4.0,4.0,4.0,4.0,4.0,4.0,4.0,4.0,4.0,4.0,4.0,4.0,4.0,4.0,100.0,,,,,,,,,,,,,,,,,,,,,,,,,,,,,,,,,,,,,,,,,,,,,,,,,,,,,,,,0.0,0.0,64.0,0.098509,1.0,0.0,,,,,,,,,,,,,,,,,,,,,,,,,,,,,,,,,,,,,,,,,,,,,,,,,,,,,,,,,,,,,,,,,,,,,,
1725716011.278156,1725716011.280038,173.0,0.0,4149.743652,4246.922852,4342.563965,4323.461426,4250.769043,4250.128418,4398.589844,4261.410156,4246.538574,4249.230957,4457.307617,4509.743652,4346.025879,4398.333496,3810.0,1.0,15.0,,,,0.0,4.0,4.0,4.0,4.0,4.0,4.0,4.0,4.0,4.0,4.0,4.0,4.0,4.0,4.0,100.0,,,,,,,,,,,,,,,,,,,,,,,,,,,,,,,,,,,,,,,,,,,,,,,,,,,,,,,,,,,,,,,,,,,,,,,,,,,,,,,,,,,,,,,,,,,,,,,,,,,,,,,,,,,,,,,,,,,,,,,,,,,,,,,,,,,
1725716011.28206,1725716011.284042,174.0,0.0,4153.589844,4247.94873,4341.538574,4322.179688,4254.487305,4249.102539,4395.384766,4256.794922,4244.487305,4249.358887,4455.0,4509.615234,4346.666504,4398.717773,2877.0,1.0,15.0,,,,0.0,4.0,4.0,4.0,4.0,4.0,4.0,4.0,4.0,4.0,4.0,4.0,4.0,4.0,4.0,100.0,,,,,,,,,,,,,,,,,,,,,,,,,,,,,,,,,,,,,,,,,,,,,,,,,,,,,,,,,,,,,,,,,,,,,,,,,,,,,,,,,,,,,,,,,,,,,,,,,,,,,,,,,,,,,,,,,,,,,,,,,,,,,,,,,,,
1725716011.285964,1725716011.287946,175.0,0.0,4157.307617,4248.077148,4341.153809,4320.128418,4257.94873,4248.205078,4390.641113,4252.820313,4239.743652,4246.538574,4449.743652,4508.846191,4345.641113,4398.717773,3109.0,1.0,15.0,,,,0.0,4.0,4.0,4.0,4.0,4.0,4.0,4.0,4.0,4.0,4.0,4.0,4.0,4.0,4.0,100.0,,,,,,,,,,,,,,,,,,,,,,,,,,,,,,,,,,,,,,,,,,,,,,,,,,,,,,,,,,,,,,,,,,,,,,,,,,,,,,,,,,,,,,,,,,,,,,,,,,,,,,,,,,,,,,,,,,,,,,,,,,,,,,,,,,,
1725716011.289868,1725716011.29185,176.0,0.0,4161.153809,4247.307617,4341.282227,4318.717773,4258.846191,4247.563965,4385.641113,4251.538574,4235.0,4242.94873,4445.256348,4507.94873,4343.333496,4398.205078,3396.0,1.0,15.0,,,,0.0,4.0,4.0,4.0,4.0,4.0,4.0,4.0,4.0,4.0,4.0,4.0,4.0,4.0,4.0,100.0,,,,,,,,,,,,,,,,,,,,,,,,,,,,,,,,,,,,,,,,,,,,,,,,,,,,,,,,,,,,,,,,,,,,,,,,,,,,,,,,,,,,,,,,,,,,,,,,,,,,,,,,,,,,,,,,,,,,,,,,,,,,,,,,,,,
1725716011.293772,1725716011.295754,177.0,0.0,4165.128418,4246.794922,4341.282227,4319.487305,4257.179688,4247.307617,4381.794922,4253.333496,4232.692383,4241.153809,4445.384766,4507.307617,4341.794922,4397.436035,3810.0,1.0,15.0,,,,0.0,4.0,4.0,4.0,4.0,4.0,4.0,4.0,4.0,4.0,4.0,4.0,4.0,4.0,4.0,100.0,,,,,,,,,,,,,,,,,,,,,,,,,,,,,,,,,,,,,,,,,,,,,,,,,,,,,,,,,,,,,,,,,,,,,,,,,,,,,,,,,,,,,,,,,,,,,,,,,,,,,,,,,,,,,,,,,,,,,,,,,,,,,,,,,,,
1725716011.297676,1725716011.299758,178.0,0.0,4168.461426,4246.794922,4340.769043,4321.922852,4253.974121,4246.922852,4378.974121,4256.922852,4233.333496,4241.922852,4450.0,4507.05127,4342.563965,4396.922852,2877.0,1.0,15.0,,,,0.0,4.0,4.0,4.0,4.0,4.0,4.0,4.0,4.0,4.0,4.0,4.0,4.0,4.0,4.0,100.0,,,,,,,,,,,,,,,,,,,,,,,,,,,,,,,,,,,,,,,,,,,,,,,,,,,,,,,,,,,,,,,,,,,,,,,,,,,,,,,,,,,,,,,,,,,,,,,,,,,,,,,,,,,,,,,,,,,,,,,,,,,,,,,,,,,
1725716011.301581,1725716011.303662,179.0,0.0,4171.025879,4247.563965,4339.871582,4324.743652,4250.897461,4246.410156,4376.153809,4260.0,4235.384766,4244.487305,4456.282227,4506.922852,4345.512695,4396.794922,3109.0,1.0,15.0,,,,0.0,4.0,4.0,4.0,4.0,4.0,4.0,4.0,4.0,4.0,4.0,4.0,4.0,4.0,4.0,100.0,,,,,,,,,,,,,,,,,,,,,,,,,,,,,,,,,,,,,,,,,,,,,,,,,,,,,,,,,,,,,,,,,,,,,,,,,,,,,,,,,,,,,,,,,,,,,,,,,,,,,,,,,,,,,,,,,,,,,,,,,,,,,,,,,,,
1725716011.305485,1725716011.307566,180.0,0.0,4172.94873,4248.589844,4339.615234,4326.922852,4248.846191,4245.769043,4372.820313,4260.897461,4236.410156,4246.922852,4460.512695,4507.307617,4348.333496,4396.794922,3396.0,1.0,15.0,,,,0.0,4.0,4.0,4.0,4.0,4.0,4.0,4.0,4.0,4.0,4.0,4.0,4.0,4.0,4.0,100.0,1.0,33.333332,1.0,4.0,4.0,4.0,4.0,3.0,0.0,4.0,4.0,4.0,4.0,4.0,4.0,4.0,1.0,0.0,0.0,,,,,,,,,,,,,,,,,,,,,,,,,,,,,,,,,,,,,0.0,0.0,64.0,0.214111,1.0,0.0,13.152557,2.660445,1.61474,0.593921,0.12349,2.220114,1.190079,0.505301,0.213716,0.076339,1.420308,1.723421,0.388991,0.143873,0.032989,1.590058,0.840248,0.428234,0.198415,0.027274,0.305272,0.201239,0.178561,0.097666,0.031535,0.204429,0.277104,0.050221,0.035414,0.039915,5.806909,0.351879,0.236467,0.09922,0.057346,1.416995,1.632466,0.738304,0.149547,0.083343,0.940264,1.064749,1.023289,0.150173,0.071915,1.715922,1.158742,1.092181,0.229404,0.098234,2.998487,2.592383,1.240151,0.248999,0.109668,2.526613,2.640852,0.957272,0.236959,0.137069,2.670469,2.313006,1.346416,0.319797,0.121044,2.403116,2.84696,0.706225,0.254329,0.080709
1725716011.309389,1725716011.31147,181.0,0.0,4175.128418,4248.974121,4340.512695,4327.692383,4248.589844,4245.641113,4369.358887,4260.128418,4235.512695,4247.820313,4460.769043,4507.94873,4349.102539,4396.666504,3810.0,1.0,15.0,,,,0.0,4.0,4.0,4.0,4.0,4.0,4.0,4.0,4.0,4.0,4.0,4.0,4.0,4.0,4.0,100.0,,,,,,,,,,,,,,,,,,,,,,,,,,,,,,,,,,,,,,,,,,,,,,,,,,,,,,,,,,,,,,,,,,,,,,,,,,,,,,,,,,,,,,,,,,,,,,,,,,,,,,,,,,,,,,,,,,,,,,,,,,,,,,,,,,,
