Timestamp,OriginalTimestamp,EEG.Counter,EEG.Interpolated,EEG.AF3,EEG.F7,EEG.F3,EEG.FC5,EEG.T7,EEG.P7,EEG.O1,EEG.O2,EEG.P8,EEG.T8,EEG.FC6,EEG.F4,EEG.F8,EEG.AF4,EEG.RawCq,EEG.Battery,EEG.BatteryPercent,MarkerIndex,MarkerType,MarkerValueInt,EEG.MarkerHardware,CQ.AF3,CQ.F7,CQ.F3,CQ.FC5,CQ.T7,CQ.P7,CQ.O1,CQ.O2,CQ.P8,CQ.T8,CQ.FC6,CQ.F4,CQ.F8,CQ.AF4,CQ.Overall,EQ.SampleRateQuality,EQ.OVERALL,EQ.AF3,EQ.F7,EQ.F3,EQ.FC5,EQ.T7,EQ.P7,EQ.O1,EQ.O2,EQ.P8,EQ.T8,EQ.FC6,EQ.F4,EQ.F8,EQ.AF4,MC.Action,MC.ActionPower,MC.IsActive,PM.Attention.IsActive,PM.Attention.Scaled,PM.Attention.Raw,PM.Attention.Min,PM.Attention.Max,PM.Engagement.IsActive,PM.Engagement.Scaled,PM.Engagement.Raw,PM.Engagement.Min,PM.Engagement.Max,PM.Excitement.IsActive,PM.Excitement.Scaled,PM.Excitement.Raw,PM.Excitement.Min,PM.Excitement.Max,PM.LongTermExcitement,PM.Stress.IsActive,PM.Stress.Scaled,PM.Stress.Raw,PM.Stress.Min,PM.Stress.Max,PM.Relaxation.IsActive,PM.Relaxation.Scaled,PM.Relaxation.Raw,PM.Relaxation.Min,PM.Relaxation.Max,PM.Interest.IsActive,PM.Interest.Scaled,PM.Interest.Raw,PM.Interest.Min,PM.Interest.Max,PM.Focus.IsActive,PM.Focus.Scaled,PM.Focus.Raw,PM.Focus.Min,PM.Focus.Max,FE.BlinkWink,FE.HorizontalEyesDirection,FE.UpperFaceAction,FE.UpperFaceActionPower,FE.LowerFaceAction,FE.LowerFaceActionPower,POW.AF3.Theta,POW.AF3.Alpha,POW.AF3.BetaL,POW.AF3.BetaH,POW.AF3.Gamma,POW.F7.Theta,POW.F7.Alpha,POW.F7.BetaL,POW.F7.BetaH,POW.F7.Gamma,POW.F3.Theta,POW.F3.Alpha,POW.F3.BetaL,POW.F3.BetaH,POW.F3.Gamma,POW.FC5.Theta,POW.FC5.Alpha,POW.FC5.BetaL,POW.FC5.BetaH,POW.FC5.Gamma,POW.T7.Theta,POW.T7.Alpha,POW.T7.BetaL,POW.T7.BetaH,POW.T7.Gamma,POW.P7.Theta,POW.P7.Alpha,POW.P7.BetaL,POW.P7.BetaH,POW.P7.Gamma,POW.O1.Theta,POW.O1.Alpha,POW.O1.BetaL,POW.O1.BetaH,POW.O1.Gamma,POW.O2.Theta,POW.O2.Alpha,POW.O2.BetaL,POW.O2.BetaH,POW.O2.Gamma,POW.P8.Theta,POW.P8.Alpha,POW.P8.BetaL,POW.P8.BetaH,POW.P8.Gamma,POW.T8.Theta,POW.T8.Alpha,POW.T8.BetaL,POW.T8.BetaH,POW.T8.Gamma,POW.FC6.Theta,POW.FC6.Alpha,POW.FC6.BetaL,POW.FC6.BetaH,POW.FC6.Gamma,POW.F4.Theta,POW.F4.Alpha,POW.F4.BetaL,POW.F4.BetaH,POW.F4.Gamma,POW.F8.Theta,POW.F8.Alpha,POW.F8.BetaL,POW.F8.BetaH,POW.F8.Gamma,POW.AF4.Theta,POW.AF4.Alpha,POW.AF4.BetaL,POW.AF4.BetaH,POW.AF4.Gamma
1725716042.647598,1725716042.649216,16.0,0.0,4648.846191,4324.615234,4249.487305,4294.871582,4248.461426,4234.615234,4074.871826,4276.410156,4295.0,4268.461426,4490.0,4536.538574,4381.794922,4429.871582,3398.0,1.0,15.0,17.0,1.0,1.0,0.0,4.0,4.0,4.0,4.0,4.0,4.0,4.0,4.0,4.0,4.0,4.0,4.0,4.0,4.0,100.0,,,,,,,,,,,,,,,,,,,,,,,,,,,,,,,,,,,,,,,,,,,,,,,,,,,,,,,,,,,,,,,,,,,,,,,,,,,,,,,,,,,,,,,,,,,,,,,,,,,,,,,,,,,,,,,,,,,,,,,,,,,,,,,,,,,
1725716042.651502,1725716042.65312,17.0,0.0,4645.512695,4323.077148,4246.025879,4294.615234,4247.179688,4234.102539,4075.128174,4272.94873,4294.487305,4266.025879,4490.512695,4535.256348,4380.769043,4428.846191,3812.0,1.0,15.0,,,,0.0,4.0,4.0,4.0,4.0,4.0,4.0,4.0,4.0,4.0,4.0,4.0,4.0,4.0,4.0,100.0,,,,,,,,,,,,,,,,,,,,,,,,,,,,,,,,,,,,,,,,,,,,,,,,,,,,,,,,,,,,,,,,,,,,,,,,,,,,,,,,,,,,,,,,,,,,,,,,,,,,,,,,,,,,,,,,,,,,,,,,,,,,,,,,,,,
1725716042.655407,1725716042.657024,18.0,0.0,4644.615234,4322.05127,4245.641113,4293.589844,4246.025879,4234.487305,4077.05127,4272.820313,4294.871582,4266.538574,4492.307617,4534.230957,4380.512695,4431.794922,2880.0,1.0,15.0,,,,0.0,4.0,4.0,4.0,4.0,4.0,4.0,4.0,4.0,4.0,4.0,4.0,4.0,4.0,4.0,100.0,,,,,,,,,,,,,,,,,,,,,,,,,,,,,,,,,,,,,,,,,,,,,,,,,,,,,,,,,,,,,,,,,,,,,,,,,,,,,,,,,,,,,,,,,,,,,,,,,,,,,,,,,,,,,,,,,,,,,,,,,,,,,,,,,,,
1725716042.659311,1725716042.660928,19.0,0.0,4646.538574,4321.922852,4247.94873,4292.820313,4245.384766,4235.769043,4079.615479,4276.025879,4296.153809,4269.743652,4493.717773,4534.230957,4381.410156,4437.307617,3116.0,1.0,15.0,,,,0.0,4.0,4.0,4.0,4.0,4.0,4.0,4.0,4.0,4.0,4.0,4.0,4.0,4.0,4.0,100.0,,,,,,,,,,,,,,,,,,,,,,,,,,,,,,,,,,,,,,,,,,,,,,,,,,,,,,,,,,,,,,,,,,,,,,,,,,,,,,,,,,,,,,,,,,,,,,,,,,,,,,,,,,,,,,,,,,,,,,,,,,,,,,,,,,,
1725716042.663215,1725716042.664832,20.0,0.0,4650.128418,4322.820313,4251.538574,4293.461426,4245.641113,4237.307617,4082.179443,4280.0,4297.307617,4274.230957,4493.589844,4536.025879,4382.94873,4442.820313,3398.0,1.0,15.0,,,,0.0,4.0,4.0,4.0,4.0,4.0,4.0,4.0,4.0,4.0,4.0,4.0,4.0,4.0,4.0,100.0,,,,,,,,,,,,,,,,,1.0,0.0,0.0,,,,,,,,,,,,,,,,,,,,,,,,,,,,,,,,,,,,,0.0,0.0,64.0,0.042,1.0,0.0,7.341332,2.289275,0.906563,0.149764,0.086449,0.846499,1.03789,0.51486,0.178821,0.070591,1.474572,1.385227,0.936946,0.121859,0.064995,0.78669,0.55508,0.416637,0.11503,0.071344,0.996979,0.345132,0.207462,0.124003,0.040486,0.408475,0.081809,0.110073,0.07131,0.064427,0.978877,0.723571,0.3635,0.111321,0.043537,0.298602,2.360189,0.170427,0.190722,0.111723,0.752465,2.301962,0.320622,0.26679,0.049281,1.294231,2.760605,0.674739,0.293717,0.092903,1.927272,3.473755,0.985004,0.305407,0.132944,1.92862,4.503995,1.509026,0.532939,0.126125,2.057577,2.807469,1.356225,0.405979,0.140874,1.719145,3.770481,1.156329,0.14819,0.071008
1725716042.667119,1725716042.668636,21.0,0.0,4653.461426,4324.487305,4255.0,4295.128418,4246.410156,4237.94873,4084.615479,4281.538574,4297.820313,4277.94873,4492.307617,4538.589844,4384.102539,4445.641113,3812.0,1.0,15.0,,,,0.0,4.0,4.0,4.0,4.0,4.0,4.0,4.0,4.0,4.0,4.0,4.0,4.0,4.0,4.0,100.0,,,,,,,,,,,,,,,,,,,,,,,,,,,,,,,,,,,,,,,,,,,,,,,,,,,,,,,,,,,,,,,,,,,,,,,,,,,,,,,,,,,,,,,,,,,,,,,,,,,,,,,,,,,,,,,,,,,,,,,,,,,,,,,,,,,
1725716042.671023,1725716042.67254,22.0,0.0,4654.743652,4326.282227,4257.179688,4297.05127,4247.307617,4237.436035,4086.794922,4278.717773,4297.307617,4279.871582,4490.769043,4540.512695,4383.974121,4445.256348,2880.0,1.0,15.0,,,,0.0,4.0,4.0,4.0,4.0,4.0,4.0,4.0,4.0,4.0,4.0,4.0,4.0,4.0,4.0,100.0,,,,,,,,,,,,,,,,,,,,,,,,,,,,,,,,,,,,,,,,,,,,,,,,,,,,,,,,,,,,,,,,,,,,,,,,,,,,,,,,,,,,,,,,,,,,,,,,,,,,,,,,,,,,,,,,,,,,,,,,,,,,,,,,,,,
1725716042.674927,1725716042.676444,23.0,0.0,4653.846191,4327.820313,4257.94873,4297.94873,4247.820313,4236.025879,4087.94873,4272.436035,4296.538574,4280.0,4489.871582,4540.641113,4382.820313,4442.820313,3116.0,1.0,15.0,,,,0.0,4.0,4.0,4.0,4.0,4.0,4.0,4.0,4.0,4.0,4.0,4.0,4.0,4.0,4.0,100.0,,,,,,,,,,,,,,,,,,,,,,,,,,,,,,,,,,,,,,,,,,,,,,,,,,,,,,,,,,,,,,,,,,,,,,,,,,,,,,,,,,,,,,,,,,,,,,,,,,,,,,,,,,,,,,,,,,,,,,,,,,,,,,,,,,,
1725716042.678831,1725716042.680348,24.0,0.0,4651.794922,4328.333496,4258.077148,4297.820313,4247.692383,4234.358887,4088.076904,4265.769043,4295.769043,4279.230957,4490.0,4539.358887,4382.179688,4440.128418,3398.0,1.0,15.0,,,,0.0,4.0,4.0,4.0,4.0,4.0,4.0,4.0,4.0,4.0,4.0,4.0,4.0,4.0,4.0,100.0,,,,,,,,,,,,,,,,,,,,,,,,,,,,,,,,,,,,,,,,,,,,,,,,,,,,,,,,,,,,,,,,,,,,,,,,,,,,,,,,,,,,,,,,,,,,,,,,,,,,,,,,,,,,,,,,,,,,,,,,,,,,,,,,,,,
1725716042.682735,1725716042.684153,25.0,0.0,4650.0,4328.205078,4258.333496,4297.179688,4247.179688,4233.333496,4088.461426,4261.666504,4295.128418,4278.717773,4491.794922,4538.717773,4383.974121,4439.358887,3812.0,1.0,15.0,,,,0.0,4.0,4.0,4.0,4.0,4.0,4.0,4.0,4.0,4.0,4.0,4.0,4.0,4.0,4.0,100.0,,,,,,,,,,,,,,,,,,,,,,,,,,,,,,,,,,,,,,,,,,,,,,,,,,,,,,,,,,,,,,,,,,,,,,,,,,,,,,,,,,,,,,,,,,,,,,,,,,,,,,,,,,,,,,,,,,,,,,,,,,,,,,,,,,,
1725716042.686639,1725716042.688057,26.0,0.0,4649.102539,4327.692383,4259.487305,4296.922852,4247.179688,4233.205078,4090.897461,4260.897461,4294.102539,4278.846191,4495.384766,4540.256348,4388.717773,4441.282227,2880.0,1.0,15.0,,,,0.0,4.0,4.0,4.0,4.0,4.0,4.0,4.0,4.0,4.0,4.0,4.0,4.0,4.0,4.0,100.0,,,,,,,,,,,,,,,,,,,,,,,,,,,,,,,,,,,,,,,,,,,,,,,,,,,,,,,,,,,,,,,,,,,,,,,,,,,,,,,,,,,,,,,,,,,,,,,,,,,,,,,,,,,,,,,,,,,,,,,,,,,,,,,,,,,
1725716042.690544,1725716042.691961,27.0,0.0,4649.230957,4327.563965,4261.410156,4297.563965,4247.692383,4233.974121,4095.128174,4262.436035,4292.820313,4279.102539,4500.256348,4544.358887,4394.487305,4444.871582,3116.0,1.0,15.0,,,,0.0,4.0,4.0,4.0,4.0,4.0,4.0,4.0,4.0,4.0,4.0,4.0,4.0,4.0,4.0,100.0,,,,,,,,,,,,,,,,,,,,,,,,,,,,,,,,,,,,,,,,,,,,,,,,,,,,,,,,,,,,,,,,,,,,,,,,,,,,,,,,,,,,,,,,,,,,,,,,,,,,,,,,,,,,,,,,,,,,,,,,,,,,,,,,,,,
1725716042.694448,1725716042.695965,28.0,0.0,4649.743652,4327.820313,4263.461426,4298.589844,4248.846191,4235.128418,4099.358887,4263.589844,4291.666504,4279.102539,4504.871582,4549.743652,4397.563965,4448.077148,3398.0,1.0,15.0,,,,0.0,4.0,4.0,4.0,4.0,4.0,4.0,4.0,4.0,4.0,4.0,4.0,4.0,4.0,4.0,100.0,,,,,,,,,,,,,,,,,,,,,,,,,,,,,,,,,,,,,,,,,,,,,,,,,,,,,,,,0.0,0.0,64.0,0.042,1.0,0.0,,,,,,,,,,,,,,,,,,,,,,,,,,,,,,,,,,,,,,,,,,,,,,,,,,,,,,,,,,,,,,,,,,,,,,
1725716042.698352,1725716042.699869,29.0,0.0,4649.871582,4328.077148,4264.871582,4299.102539,4249.615234,4236.025879,4101.794922,4262.94873,4291.153809,4278.846191,4507.307617,4554.230957,4396.153809,4449.743652,3812.0,1.0,15.0,,,,0.0,4.0,4.0,4.0,4.0,4.0,4.0,4.0,4.0,4.0,4.0,4.0,4.0,4.0,4.0,100.0,,,,,,,,,,,,,,,,,,,,,,,,,,,,,,,,,,,,,,,,,,,,,,,,,,,,,,,,,,,,,,,,,,,,,,,,,,,,,,,,,,,,,,,,,,,,,,,,,,,,,,,,,,,,,,,,,,,,,,,,,,,,,,,,,,,
1725716042.702256,1725716042.703773,30.0,0.0,4649.230957,4328.077148,4265.256348,4298.333496,4249.487305,4235.897461,4101.666504,4260.512695,4291.025879,4278.974121,4507.179688,4556.410156,4391.538574,4449.743652,2880.0,1.0,15.0,,,,0.0,4.0,4.0,4.0,4.0,4.0,4.0,4.0,4.0,4.0,4.0,4.0,4.0,4.0,4.0,100.0,,,,,,,,,,,,,,,,,,,,,,,,,,,,,,,,,,,,,,,,,,,,,,,,,,,,,,,,,,,,,,,,,,,,,,,,,,,,,,,,,,,,,,,,,,,,,,,,,,,,,,,,,,,,,,,,,,,,,,,,,,,,,,,,,,,
1725716042.70616,1725716042.707677,31.0,0.0,4648.205078,4328.205078,4264.743652,4296.666504,4248.846191,4234.871582,4100.512695,4258.333496,4290.641113,4279.102539,4505.512695,4556.538574,4387.94873,4449.358887,3116.0,1.0,15.0,,,,0.0,4.0,4.0,4.0,4.0,4.0,4.0,4.0,4.0,4.0,4.0,4.0,4.0,4.0,4.0,100.0,,,,,,,,,,,,,,,,,,,,,,,,,,,,,,,,,,,,,,,,,,,,,,,,,,,,,,,,,,,,,,,,,,,,,,,,,,,,,,,,,,,,,,,,,,,,,,,,,,,,,,,,,,,,,,,,,,,,,,,,,,,,,,,,,,,
1725716042.710064,1725716042.711481,32.0,0.0,4647.307617,4328.589844,4264.102539,4295.641113,4248.205078,4233.717773,4099.871582,4258.205078,4289.743652,4278.461426,4504.102539,4555.512695,4388.205078,4449.358887,0.0,1.0,15.0,,,,0.0,4.0,4.0,4.0,4.0,4.0,4.0,4.0,4.0,4.0,4.0,4.0,4.0,4.0,4.0,100.0,,,,,,,,,,,,,,,,,,,,,,,,,,,,,,,,,,,,,,,,,,,,,,,,,,,,,,,,,,,,,,,,,,,,,,,,,,,,,,,,,,,,,,,,,,,,,,,,,,,,,,,,,,,,,,,,,,,,,,,,,,,,,,,,,,,
1725716042.713968,1725716042.715385,33.0,0.0,4646.794922,4328.846191,4263.717773,4296.282227,4248.333496,4233.846191,4100.769043,4260.384766,4288.461426,4276.666504,4504.615234,4554.871582,4392.179688,4449.615234,0.0,1.0,15.0,,,,0.0,4.0,4.0,4.0,4.0,4.0,4.0,4.0,4.0,4.0,4.0,4.0,4.0,4.0,4.0,100.0,,,,,,,,,,,,,,,,,,,,,,,,,,,,,,,,,,,,,,,,,,,,,,,,,,,,,,,,,,,,,,,,,,,,,,,,,,,,,,,,,,,,,,,,,,,,,,,,,,,,,,,,,,,,,,,,,,,,,,,,,,,,,,,,,,,
1725716042.717872,1725716042.71929,34.0,0.0,4645.897461,4328.717773,4263.846191,4297.94873,4249.102539,4236.153809,4102.94873,4263.461426,4287.436035,4274.615234,4506.666504,4555.384766,4396.922852,4449.743652,0.0,1.0,15.0,,,,0.0,4.0,4.0,4.0,4.0,4.0,4.0,4.0,4.0,4.0,4.0,4.0,4.0,4.0,4.0,100.0,,,,,,,,,,,,,,,,,,,,,,,,,,,,,,,,,,,,,,,,,,,,,,,,,,,,,,,,,,,,,,,,,,,,,,,,,,,,,,,,,,,,,,,,,,,,,,,,,,,,,,,,,,,,,,,,,,,,,,,,,,,,,,,,,,,
1725716042.721776,1725716042.723294,35.0,0.0,4643.974121,4328.205078,4264.230957,4299.102539,4249.615234,4239.743652,4105.512695,4265.256348,4286.922852,4273.974121,4508.589844,4556.666504,4398.717773,4448.974121,0.0,1.0,15.0,,,,0.0,4.0,4.0,4.0,4.0,4.0,4.0,4.0,4.0,4.0,4.0,4.0,4.0,4.0,4.0,100.0,,,,,,,,,,,,,,,,,,,,,,,,,,,,,,,,,,,,,,,,,,,,,,,,,,,,,,,,,,,,,,,,,,,,,,,,,,,,,,,,,,,,,,,,,,,,,,,,,,,,,,,,,,,,,,,,,,,,,,,,,,,,,,,,,,,
1725716042.72568,1725716042.727198,36.0,0.0,4641.666504,4327.94873,4264.615234,4298.846191,4249.743652,4243.717773,4106.794922,4265.384766,4287.179688,4275.512695,4508.333496,4557.820313,4396.538574,4447.692383,0.0,1.0,15.0,,,,0.0,4.0,4.0,4.0,4.0,4.0,4.0,4.0,4.0,4.0,4.0,4.0,4.0,4.0,4.0,100.0,,,,,,,,,,,,,,,,,,,,,,,,,,,,,,,,,,,,,,,,,,,,,,,,,,,,,,,,0.0,0.0,64.0,0.042,1.0,0.0,,,,,,,,,,,,,,,,,,,,,,,,,,,,,,,,,,,,,,,,,,,,,,,,,,,,,,,,,,,,,,,,,,,,,,
1725716042.729585,1725716042.731102,37.0,0.0,4640.0,4328.077148,4265.128418,4297.94873,4249.743652,4247.05127,4106.153809,4264.615234,4287.436035,4277.436035,4505.897461,4557.563965,4392.179688,4446.538574,0.0,1.0,15.0,,,,0.0,4.0,4.0,4.0,4.0,4.0,4.0,4.0,4.0,4.0,4.0,4.0,4.0,4.0,4.0,100.0,,,,,,,,,,,,,,,,,,,,,,,,,,,,,,,,,,,,,,,,,,,,,,,,,,,,,,,,,,,,,,,,,,,,,,,,,,,,,,,,,,,,,,,,,,,,,,,,,,,,,,,,,,,,,,,,,,,,,,,,,,,,,,,,,,,
1725716042.733489,1725716042.735106,38.0,0.0,4638.846191,4328.333496,4265.384766,4297.179688,4250.0,4249.102539,4104.358887,4264.102539,4286.794922,4277.05127,4502.436035,4555.641113,4388.461426,4446.025879,0.0,1.0,15.0,,,,0.0,4.0,4.0,4.0,4.0,4.0,4.0,4.0,4.0,4.0,4.0,4.0,4.0,4.0,4.0,100.0,,,,,,,,,,,,,,,,,,,,,,,,,,,,,,,,,,,,,,,,,,,,,,,,,,,,,,,,,,,,,,,,,,,,,,,,,,,,,,,,,,,,,,,,,,,,,,,,,,,,,,,,,,,,,,,,,,,,,,,,,,,,,,,,,,,
1725716042.737393,1725716042.73901,39.0,0.0,4636.282227,4327.94873,4264.487305,4296.025879,4250.256348,4249.358887,4102.692383,4263.846191,4284.615234,4272.436035,4498.717773,4551.794922,4385.897461,4445.128418,0.0,1.0,15.0,,,,0.0,4.0,4.0,4.0,4.0,4.0,4.0,4.0,4.0,4.0,4.0,4.0,4.0,4.0,4.0,100.0,,,,,,,,,,,,,,,,,,,,,,,,,,,,,,,,,,,,,,,,,,,,,,,,,,,,,,,,,,,,,,,,,,,,,,,,,,,,,,,,,,,,,,,,,,,,,,,,,,,,,,,,,,,,,,,,,,,,,,,,,,,,,,,,,,,
1725716042.741297,1725716042.742914,40.0,0.0,4630.897461,4326.153809,4261.282227,4293.717773,4249.358887,4247.820313,4101.538574,4262.820313,4280.641113,4264.358887,4493.717773,4545.641113,4383.077148,4442.563965,0.0,1.0,15.0,,,,0.0,4.0,4.0,4.0,4.0,4.0,4.0,4.0,4.0,4.0,4.0,4.0,4.0,4.0,4.0,100.0,,,,,,,,,,,,,,,,,,,,,,,,,,,,,,,,,,,,,,,,,,,,,,,,,,,,,,,,,,,,,,,,,,,,,,,,,,,,,,,,,,,,,,,,,,,,,,,,,,,,,,,,,,,,,,,,,,,,,,,,,,,,,,,,,,,
1725716042.745201,1725716042.746818,41.0,0.0,4622.94873,4322.94873,4255.128418,4290.384766,4246.410156,4244.487305,4099.871582,4260.512695,4275.641113,4254.871582,4485.769043,4537.05127,4377.563965,4436.922852,0.0,1.0,15.0,,,,0.0,4.0,4.0,4.0,4.0,4.0,4.0,4.0,4.0,4.0,4.0,4.0,4.0,4.0,4.0,100.0,,,,,,,,,,,,,,,,,,,,,,,,,,,,,,,,,,,,,,,,,,,,,,,,,,,,,,,,,,,,,,,,,,,,,,,,,,,,,,,,,,,,,,,,,,,,,,,,,,,,,,,,,,,,,,,,,,,,,,,,,,,,,,,,,,,
1725716042.749105,1725716042.750722,42.0,0.0,4614.487305,4318.461426,4247.05127,4286.666504,4241.538574,4240.128418,4096.922852,4256.282227,4270.769043,4246.538574,4474.615234,4526.538574,4368.333496,4428.077148,0.0,1.0,15.0,,,,0.0,4.0,4.0,4.0,4.0,4.0,4.0,4.0,4.0,4.0,4.0,4.0,4.0,4.0,4.0,100.0,,,,,,,,,,,,,,,,,,,,,,,,,,,,,,,,,,,,,,,,,,,,,,,,,,,,,,,,,,,,,,,,,,,,,,,,,,,,,,,,,,,,,,,,,,,,,,,,,,,,,,,,,,,,,,,,,,,,,,,,,,,,,,,,,,,
1725716042.753009,1725716042.754726,43.0,0.0,4607.436035,4313.077148,4239.358887,4283.077148,4236.282227,4236.025879,4092.94873,4251.410156,4267.05127,4240.256348,4462.436035,4516.025879,4356.410156,4417.307617,0.0,1.0,15.0,,,,0.0,4.0,4.0,4.0,4.0,4.0,4.0,4.0,4.0,4.0,4.0,4.0,4.0,4.0,4.0,100.0,,,,,,,,,,,,,,,,,,,,,,,,,,,,,,,,,,,,,,,,,,,,,,,,,,,,,,,,,,,,,,,,,,,,,,,,,,,,,,,,,,,,,,,,,,,,,,,,,,,,,,,,,,,,,,,,,,,,,,,,,,,,,,,,,,,
1725716042.756913,1725716042.75863,44.0,0.0,4601.538574,4306.922852,4233.717773,4279.230957,4232.692383,4233.333496,4089.743652,4247.307617,4264.615234,4235.897461,4452.436035,4507.563965,4344.358887,4407.05127,0.0,1.0,15.0,,,,0.0,4.0,4.0,4.0,4.0,4.0,4.0,4.0,4.0,4.0,4.0,4.0,4.0,4.0,4.0,100.0,,,,,,,,,,,,,,,,,,,,,,,,,,,,,,,,,,,,,,,,,,,,,,,,,,,,,,,,0.0,0.0,64.0,0.042,1.0,0.0,,,,,,,,,,,,,,,,,,,,,,,,,,,,,,,,,,,,,,,,,,,,,,,,,,,,,,,,,,,,,,,,,,,,,,
1725716042.760817,1725716042.762534,45.0,0.0,4595.897461,4300.897461,4230.769043,4274.358887,4231.153809,4232.436035,4088.718018,4246.025879,4263.205078,4232.563965,4446.282227,4502.307617,4334.102539,4400.0,0.0,1.0,15.0,,,,0.0,4.0,4.0,4.0,4.0,4.0,4.0,4.0,4.0,4.0,4.0,4.0,4.0,4.0,4.0,100.0,,,,,,,,,,,,,,,,,,,,,,,,,,,,,,,,,,,,,,,,,,,,,,,,,,,,,,,,,,,,,,,,,,,,,,,,,,,,,,,,,,,,,,,,,,,,,,,,,,,,,,,,,,,,,,,,,,,,,,,,,,,,,,,,,,,
1725716042.764721,1725716042.766439,46.0,0.0,4589.871582,4296.282227,4228.974121,4268.717773,4230.512695,4232.436035,4089.358887,4247.820313,4263.205078,4230.769043,4443.846191,4500.384766,4327.179688,4397.563965,0.0,1.0,15.0,,,,0.0,4.0,4.0,4.0,4.0,4.0,4.0,4.0,4.0,4.0,4.0,4.0,4.0,4.0,4.0,100.0,,,,,,,,,,,,,,,,,,,,,,,,,,,,,,,,,,,,,,,,,,,,,,,,,,,,,,,,,,,,,,,,,,,,,,,,,,,,,,,,,,,,,,,,,,,,,,,,,,,,,,,,,,,,,,,,,,,,,,,,,,,,,,,,,,,
1725716042.768625,1725716042.770443,47.0,0.0,4584.743652,4294.487305,4227.436035,4263.846191,4229.487305,4232.563965,4090.641113,4251.794922,4265.512695,4231.410156,4444.871582,4501.538574,4324.743652,4398.717773,0.0,1.0,15.0,,,,0.0,4.0,4.0,4.0,4.0,4.0,4.0,4.0,4.0,4.0,4.0,4.0,4.0,4.0,4.0,100.0,,,,,,,,,,,,,,,,,,,,,,,,,,,,,,,,,,,,,,,,,,,,,,,,,,,,,,,,,,,,,,,,,,,,,,,,,,,,,,,,,,,,,,,,,,,,,,,,,,,,,,,,,,,,,,,,,,,,,,,,,,,,,,,,,,,
1725716042.772529,1725716042.774347,48.0,0.0,4582.692383,4296.025879,4226.282227,4262.436035,4228.077148,4232.179688,4091.923096,4256.410156,4271.025879,4235.769043,4449.102539,4505.512695,4327.820313,4402.563965,0.0,1.0,15.0,,,,0.0,4.0,4.0,4.0,4.0,4.0,4.0,4.0,4.0,4.0,4.0,4.0,4.0,4.0,4.0,100.0,,,,,,,,,,,,,,,,,,,,,,,,,,,,,,,,,,,,,,,,,,,,,,,,,,,,,,,,,,,,,,,,,,,,,,,,,,,,,,,,,,,,,,,,,,,,,,,,,,,,,,,,,,,,,,,,,,,,,,,,,,,,,,,,,,,
1725716042.776434,1725716042.778251,49.0,0.0,4585.641113,4300.512695,4227.179688,4266.282227,4228.077148,4232.179688,4093.974365,4260.897461,4278.974121,4244.487305,4456.794922,4512.692383,4336.922852,4408.461426,0.0,1.0,15.0,,,,0.0,4.0,4.0,4.0,4.0,4.0,4.0,4.0,4.0,4.0,4.0,4.0,4.0,4.0,4.0,100.0,,,,,,,,,,,,,,,,,,,,,,,,,,,,,,,,,,,,,,,,,,,,,,,,,,,,,,,,,,,,,,,,,,,,,,,,,,,,,,,,,,,,,,,,,,,,,,,,,,,,,,,,,,,,,,,,,,,,,,,,,,,,,,,,,,,
1725716042.780338,1725716042.782155,50.0,0.0,4593.205078,4306.666504,4232.05127,4274.871582,4231.282227,4233.717773,4097.820313,4265.256348,4287.94873,4256.025879,4468.077148,4522.563965,4351.025879,4416.410156,0.0,1.0,15.0,,,,0.0,4.0,4.0,4.0,4.0,4.0,4.0,4.0,4.0,4.0,4.0,4.0,4.0,4.0,4.0,100.0,,,,,,,,,,,,,,,,,,,,,,,,,,,,,,,,,,,,,,,,,,,,,,,,,,,,,,,,,,,,,,,,,,,,,,,,,,,,,,,,,,,,,,,,,,,,,,,,,,,,,,,,,,,,,,,,,,,,,,,,,,,,,,,,,,,
1725716042.784242,1725716042.786059,51.0,0.0,4602.692383,4313.077148,4240.641113,4285.384766,4237.563965,4238.077148,4103.717773,4269.615234,4295.769043,4267.563965,4480.641113,4533.974121,4366.282227,4425.384766,0.0,1.0,15.0,,,,0.0,4.0,4.0,4.0,4.0,4.0,4.0,4.0,4.0,4.0,4.0,4.0,4.0,4.0,4.0,100.0,,,,,,,,,,,,,,,,,,,,,,,,,,,,,,,,,,,,,,,,,,,,,,,,,,,,,,,,,,,,,,,,,,,,,,,,,,,,,,,,,,,,,,,,,,,,,,,,,,,,,,,,,,,,,,,,,,,,,,,,,,,,,,,,,,,
1725716042.788146,1725716042.789863,52.0,0.0,4610.128418,4318.717773,4250.0,4293.461426,4244.743652,4244.102539,4110.641113,4273.461426,4300.897461,4276.025879,4491.538574,4544.230957,4377.692383,4433.846191,0.0,1.0,15.0,,,,0.0,4.0,4.0,4.0,4.0,4.0,4.0,4.0,4.0,4.0,4.0,4.0,4.0,4.0,4.0,100.0,1.0,8.333333,0.0,4.0,4.0,4.0,4.0,1.0,0.0,3.0,4.0,4.0,4.0,4.0,4.0,4.0,1.0,0.0,0.0,,,,,,,,,,,,,,,,,,,,,,,,,,,,,,,,,,,,,0.0,0.0,64.0,0.154919,1.0,0.0,6.090075,2.193403,0.855497,0.158569,0.091474,1.007084,1.033761,0.562006,0.196207,0.077588,1.203749,1.372118,1.076277,0.149598,0.074679,0.835015,0.614995,0.402979,0.101648,0.071633,1.045964,0.386849,0.225543,0.131415,0.039648,0.371776,0.089208,0.122826,0.069116,0.064323,1.047454,0.795332,0.359476,0.119436,0.044238,0.263482,2.082391,0.222623,0.185158,0.106281,0.772156,2.436202,0.322872,0.286623,0.04963,1.400789,3.050259,0.726111,0.319229,0.101899,1.980849,3.515523,1.051042,0.338779,0.144273,2.16925,4.598359,1.564911,0.504319,0.116437,2.439632,2.927721,1.559025,0.423936,0.133345,1.744909,3.73209,1.294101,0.153405,0.065615
1725716042.79205,1725716042.793767,53.0,0.0,4612.820313,4322.820313,4256.666504,4296.666504,4249.102539,4249.230957,4116.153809,4275.256348,4302.563965,4279.487305,4497.692383,4550.641113,4382.563965,4440.384766,0.0,1.0,15.0,,,,0.0,4.0,4.0,4.0,4.0,4.0,4.0,4.0,4.0,4.0,4.0,4.0,4.0,4.0,4.0,100.0,,,,,,,,,,,,,,,,,,,,,,,,,,,,,,,,,,,,,,,,,,,,,,,,,,,,,,,,,,,,,,,,,,,,,,,,,,,,,,,,,,,,,,,,,,,,,,,,,,,,,,,,,,,,,,,,,,,,,,,,,,,,,,,,,,,
1725716042.795954,1725716042.797671,54.0,0.0,4611.282227,4325.256348,4258.846191,4295.384766,4249.358887,4250.512695,4118.333496,4273.846191,4300.769043,4278.333496,4497.94873,4551.922852,4382.436035,4444.487305,0.0,1.0,15.0,,,,0.0,4.0,4.0,4.0,4.0,4.0,4.0,4.0,4.0,4.0,4.0,4.0,4.0,4.0,4.0,100.0,,,,,,,,,,,,,,,,,,,,,,,,,,,,,,,,,,,,,,,,,,,,,,,,,,,,,,,,,,,,,,,,,,,,,,,,,,,,,,,,,,,,,,,,,,,,,,,,,,,,,,,,,,,,,,,,,,,,,,,,,,,,,,,,,,,
1725716042.799858,1725716042.801476,55.0,0.0,4608.077148,4327.05127,4258.205078,4292.820313,4246.794922,4247.820313,4116.666504,4269.487305,4296.153809,4274.102539,4494.487305,4548.974121,4381.538574,4446.666504,0.0,1.0,15.0,,,,0.0,4.0,4.0,4.0,4.0,4.0,4.0,4.0,4.0,4.0,4.0,4.0,4.0,4.0,4.0,100.0,,,,,,,,,,,,,,,,,,,,,,,,,,,,,,,,,,,,,,,,,,,,,,,,,,,,,,,,,,,,,,,,,,,,,,,,,,,,,,,,,,,,,,,,,,,,,,,,,,,,,,,,,,,,,,,,,,,,,,,,,,,,,,,,,,,
1725716042.803762,1725716042.80538,56.0,0.0,4605.769043,4328.846191,4257.563965,4291.794922,4244.615234,4243.846191,4112.820313,4264.230957,4290.384766,4269.615234,4491.538574,4544.358887,4383.205078,4447.307617,0.0,1.0,15.0,,,,0.0,4.0,4.0,4.0,4.0,4.0,4.0,4.0,4.0,4.0,4.0,4.0,4.0,4.0,4.0,100.0,,,,,,,,,,,,,,,,,,,,,,,,,,,,,,,,,,,,,,,,,,,,,,,,,,,,,,,,,,,,,,,,,,,,,,,,,,,,,,,,,,,,,,,,,,,,,,,,,,,,,,,,,,,,,,,,,,,,,,,,,,,,,,,,,,,
1725716042.807666,1725716042.809284,57.0,0.0,4604.615234,4330.0,4258.333496,4292.94873,4245.0,4242.05127,4109.487305,4260.769043,4285.256348,4266.538574,4491.282227,4541.153809,4387.05127,4447.436035,0.0,1.0,15.0,,,,0.0,4.0,4.0,4.0,4.0,4.0,4.0,4.0,4.0,4.0,4.0,4.0,4.0,4.0,4.0,100.0,,,,,,,,,,,,,,,,,,,,,,,,,,,,,,,,,,,,,,,,,,,,,,,,,,,,,,,,,,,,,,,,,,,,,,,,,,,,,,,,,,,,,,,,,,,,,,,,,,,,,,,,,,,,,,,,,,,,,,,,,,,,,,,,,,,
1725716042.811571,1725716042.813188,58.0,0.0,4603.589844,4329.615234,4259.743652,4294.615234,4247.179688,4243.333496,4108.717773,4260.384766,4282.05127,4265.641113,4492.94873,4540.384766,4390.128418,4446.794922,0.0,1.0,15.0,,,,0.0,4.0,4.0,4.0,4.0,4.0,4.0,4.0,4.0,4.0,4.0,4.0,4.0,4.0,4.0,100.0,,,,,,,,,,,,,,,,,,,,,,,,,,,,,,,,,,,,,,,,,,,,,,,,,,,,,,,,,,,,,,,,,,,,,,,,,,,,,,,,,,,,,,,,,,,,,,,,,,,,,,,,,,,,,,,,,,,,,,,,,,,,,,,,,,,
1725716042.815475,1725716042.816992,59.0,0.0,4602.179688,4327.820313,4259.102539,4295.0,4248.846191,4245.512695,4110.256348,4262.436035,4281.153809,4266.153809,4493.589844,4541.153809,4389.102539,4445.384766,0.0,1.0,15.0,,,,0.0,4.0,4.0,4.0,4.0,4.0,4.0,4.0,4.0,4.0,4.0,4.0,4.0,4.0,4.0,100.0,,,,,,,,,,,,,,,,,,,,,,,,,,,,,,,,,,,,,,,,,,,,,,,,,,,,,,,,,,,,,,,,,,,,,,,,,,,,,,,,,,,,,,,,,,,,,,,,,,,,,,,,,,,,,,,,,,,,,,,,,,,,,,,,,,,
1725716042.819379,1725716042.820896,60.0,0.0,4601.666504,4326.153809,4255.256348,4294.102539,4248.205078,4245.769043,4112.94873,4265.128418,4281.922852,4266.794922,4492.307617,4541.666504,4383.974121,4443.205078,0.0,1.0,15.0,,,,0.0,4.0,4.0,4.0,4.0,4.0,4.0,4.0,4.0,4.0,4.0,4.0,4.0,4.0,4.0,100.0,,,,,,,,,,,,,,,,,,,,,,,,,,,,,,,,,,,,,,,,,,,,,,,,,,,,,,,,0.0,0.0,64.0,0.154919,1.0,0.0,,,,,,,,,,,,,,,,,,,,,,,,,,,,,,,,,,,,,,,,,,,,,,,,,,,,,,,,,,,,,,,,,,,,,,
1725716042.823283,1725716042.8248,61.0,0.0,4603.333496,4326.922852,4250.256348,4293.589844,4245.769043,4243.333496,4115.256348,4266.666504,4283.205078,4266.538574,4491.025879,4541.282227,4377.563965,4441.410156,0.0,1.0,15.0,,,,0.0,4.0,4.0,4.0,4.0,4.0,4.0,4.0,4.0,4.0,4.0,4.0,4.0,4.0,4.0,100.0,,,,,,,,,,,,,,,,,,,,,,,,,,,,,,,,,,,,,,,,,,,,,,,,,,,,,,,,,,,,,,,,,,,,,,,,,,,,,,,,,,,,,,,,,,,,,,,,,,,,,,,,,,,,,,,,,,,,,,,,,,,,,,,,,,,
1725716042.827187,1725716042.828804,62.0,0.0,4607.563965,4331.025879,4248.461426,4294.487305,4243.461426,4239.358887,4116.794922,4266.410156,4283.461426,4265.512695,4493.077148,4540.641113,4374.102539,4441.410156,0.0,1.0,15.0,,,,0.0,4.0,4.0,4.0,4.0,4.0,4.0,4.0,4.0,4.0,4.0,4.0,4.0,4.0,4.0,100.0,,,,,,,,,,,,,,,,,,,,,,,,,,,,,,,,,,,,,,,,,,,,,,,,,,,,,,,,,,,,,,,,,,,,,,,,,,,,,,,,,,,,,,,,,,,,,,,,,,,,,,,,,,,,,,,,,,,,,,,,,,,,,,,,,,,
1725716042.831091,1725716042.832708,63.0,0.0,4613.333496,4337.563965,4252.179688,4296.410156,4243.461426,4236.153809,4117.820313,4265.384766,4282.307617,4264.615234,4498.717773,4541.025879,4375.897461,4444.230957,0.0,1.0,15.0,,,,0.0,4.0,4.0,4.0,4.0,4.0,4.0,4.0,4.0,4.0,4.0,4.0,4.0,4.0,4.0,100.0,,,,,,,,,,,,,,,,,,,,,,,,,,,,,,,,,,,,,,,,,,,,,,,,,,,,,,,,,,,,,,,,,,,,,,,,,,,,,,,,,,,,,,,,,,,,,,,,,,,,,,,,,,,,,,,,,,,,,,,,,,,,,,,,,,,
1725716042.834995,1725716042.836613,64.0,0.0,4618.461426,4343.846191,4259.871582,4298.205078,4245.769043,4234.743652,4119.358887,4264.871582,4280.256348,4265.256348,4504.615234,4542.820313,4382.179688,4448.717773,0.0,1.0,15.0,,,,0.0,4.0,4.0,4.0,4.0,4.0,4.0,4.0,4.0,4.0,4.0,4.0,4.0,4.0,4.0,100.0,,,,,,,,,,,,,,,,,,,,,,,,,,,,,,,,,,,,,,,,,,,,,,,,,,,,,,,,,,,,,,,,,,,,,,,,,,,,,,,,,,,,,,,,,,,,,,,,,,,,,,,,,,,,,,,,,,,,,,,,,,,,,,,,,,,
1725716042.838899,1725716042.840517,65.0,0.0,4621.538574,4347.563965,4266.666504,4299.102539,4248.333496,4234.871582,4122.179688,4265.256348,4278.589844,4266.410156,4506.410156,4545.128418,4388.717773,4452.436035,0.0,1.0,15.0,,,,0.0,4.0,4.0,4.0,4.0,4.0,4.0,4.0,4.0,4.0,4.0,4.0,4.0,4.0,4.0,100.0,,,,,,,,,,,,,,,,,,,,,,,,,,,,,,,,,,,,,,,,,,,,,,,,,,,,,,,,,,,,,,,,,,,,,,,,,,,,,,,,,,,,,,,,,,,,,,,,,,,,,,,,,,,,,,,,,,,,,,,,,,,,,,,,,,,
1725716042.842803,1725716042.844521,66.0,0.0,4621.666504,4346.922852,4268.461426,4298.717773,4248.974121,4235.384766,4126.282227,4265.641113,4278.205078,4266.410156,4502.692383,4546.025879,4391.025879,4452.820313,0.0,1.0,15.0,,,,0.0,4.0,4.0,4.0,4.0,4.0,4.0,4.0,4.0,4.0,4.0,4.0,4.0,4.0,4.0,100.0,,,,,,,,,,,,,,,,,,,,,,,,,,,,,,,,,,,,,,,,,,,,,,,,,,,,,,,,,,,,,,,,,,,,,,,,,,,,,,,,,,,,,,,,,,,,,,,,,,,,,,,,,,,,,,,,,,,,,,,,,,,,,,,,,,,
1725716042.846707,1725716042.848425,67.0,0.0,4618.974121,4343.077148,4264.230957,4297.179688,4247.307617,4235.641113,4130.769043,4264.871582,4278.846191,4263.974121,4495.512695,4543.846191,4387.436035,4449.230957,0.0,1.0,15.0,,,,0.0,4.0,4.0,4.0,4.0,4.0,4.0,4.0,4.0,4.0,4.0,4.0,4.0,4.0,4.0,100.0,,,,,,,,,,,,,,,,,,,,,,,,,,,,,,,,,,,,,,,,,,,,,,,,,,,,,,,,,,,,,,,,,,,,,,,,,,,,,,,,,,,,,,,,,,,,,,,,,,,,,,,,,,,,,,,,,,,,,,,,,,,,,,,,,,,
1725716042.850612,1725716042.852329,68.0,0.0,4614.487305,4338.333496,4256.410156,4295.0,4245.0,4236.282227,4134.487305,4262.94873,4279.230957,4259.871582,4489.102539,4539.615234,4379.871582,4442.94873,0.0,1.0,15.0,,,,0.0,4.0,4.0,4.0,4.0,4.0,4.0,4.0,4.0,4.0,4.0,4.0,4.0,4.0,4.0,100.0,,,,,,,,,,,,,,,,,,,,,,,,,,,,,,,,,,,,,,,,,,,,,,,,,,,,,,,,0.0,0.0,64.0,0.154919,1.0,0.0,,,,,,,,,,,,,,,,,,,,,,,,,,,,,,,,,,,,,,,,,,,,,,,,,,,,,,,,,,,,,,,,,,,,,,
1725716042.854516,1725716042.856233,69.0,0.0,4610.128418,4335.512695,4248.717773,4293.461426,4243.846191,4238.461426,4136.666504,4261.025879,4278.333496,4256.794922,4486.025879,4535.897461,4373.205078,4436.538574,0.0,1.0,15.0,,,,0.0,4.0,4.0,4.0,4.0,4.0,4.0,4.0,4.0,4.0,4.0,4.0,4.0,4.0,4.0,100.0,,,,,,,,,,,,,,,,,,,,,,,,,,,,,,,,,,,,,,,,,,,,,,,,,,,,,,,,,,,,,,,,,,,,,,,,,,,,,,,,,,,,,,,,,,,,,,,,,,,,,,,,,,,,,,,,,,,,,,,,,,,,,,,,,,,
1725716042.85842,1725716042.860237,70.0,0.0,4607.05127,4335.512695,4244.743652,4293.846191,4244.358887,4242.307617,4137.307617,4260.769043,4276.922852,4256.538574,4485.769043,4535.0,4371.025879,4432.179688,0.0,1.0,15.0,,,,0.0,4.0,4.0,4.0,4.0,4.0,4.0,4.0,4.0,4.0,4.0,4.0,4.0,4.0,4.0,100.0,,,,,,,,,,,,,,,,,,,,,,,,,,,,,,,,,,,,,,,,,,,,,,,,,,,,,,,,,,,,,,,,,,,,,,,,,,,,,,,,,,,,,,,,,,,,,,,,,,,,,,,,,,,,,,,,,,,,,,,,,,,,,,,,,,,
1725716042.862324,1725716042.864141,71.0,0.0,4604.871582,4337.05127,4246.538574,4295.769043,4246.153809,4246.794922,4137.05127,4262.436035,4276.538574,4258.589844,4486.153809,4537.05127,4373.846191,4430.641113,0.0,1.0,15.0,,,,0.0,4.0,4.0,4.0,4.0,4.0,4.0,4.0,4.0,4.0,4.0,4.0,4.0,4.0,4.0,100.0,,,,,,,,,,,,,,,,,,,,,,,,,,,,,,,,,,,,,,,,,,,,,,,,,,,,,,,,,,,,,,,,,,,,,,,,,,,,,,,,,,,,,,,,,,,,,,,,,,,,,,,,,,,,,,,,,,,,,,,,,,,,,,,,,,,
1725716042.866228,1725716042.868045,72.0,0.0,4602.05127,4337.563965,4252.307617,4297.563965,4247.94873,4249.743652,4136.410156,4264.615234,4278.077148,4260.512695,4485.0,4539.487305,4378.461426,4431.410156,0.0,1.0,15.0,,,,0.0,4.0,4.0,4.0,4.0,4.0,4.0,4.0,4.0,4.0,4.0,4.0,4.0,4.0,4.0,100.0,,,,,,,,,,,,,,,,,,,,,,,,,,,,,,,,,,,,,,,,,,,,,,,,,,,,,,,,,,,,,,,,,,,,,,,,,,,,,,,,,,,,,,,,,,,,,,,,,,,,,,,,,,,,,,,,,,,,,,,,,,,,,,,,,,,
1725716042.870132,1725716042.871949,73.0,0.0,4597.692383,4335.512695,4257.307617,4297.307617,4248.846191,4249.743652,4136.410156,4264.871582,4279.871582,4260.0,4481.794922,4539.487305,4380.384766,4432.820313,0.0,1.0,15.0,,,,0.0,4.0,4.0,4.0,4.0,4.0,4.0,4.0,4.0,4.0,4.0,4.0,4.0,4.0,4.0,100.0,,,,,,,,,,,,,,,,,,,,,,,,,,,,,,,,,,,,,,,,,,,,,,,,,,,,,,,,,,,,,,,,,,,,,,,,,,,,,,,,,,,,,,,,,,,,,,,,,,,,,,,,,,,,,,,,,,,,,,,,,,,,,,,,,,,
1725716042.874036,1725716042.875953,74.0,0.0,4592.820313,4331.410156,4255.0,4294.230957,4248.717773,4247.307617,4136.922852,4262.05127,4279.487305,4256.153809,4477.692383,4535.512695,4377.179688,4432.692383,0.0,1.0,15.0,,,,0.0,4.0,4.0,4.0,4.0,4.0,4.0,4.0,4.0,4.0,4.0,4.0,4.0,4.0,4.0,100.0,,,,,,,,,,,,,,,,,,,,,,,,,,,,,,,,,,,,,,,,,,,,,,,,,,,,,,,,,,,,,,,,,,,,,,,,,,,,,,,,,,,,,,,,,,,,,,,,,,,,,,,,,,,,,,,,,,,,,,,,,,,,,,,,,,,
1725716042.87794,1725716042.879857,75.0,0.0,4588.846191,4327.436035,4241.153809,4289.230957,4247.563965,4244.487305,4137.307617,4256.794922,4275.897461,4250.641113,4473.461426,4528.333496,4368.974121,4429.743652,0.0,1.0,15.0,,,,0.0,4.0,4.0,4.0,4.0,4.0,4.0,4.0,4.0,4.0,4.0,4.0,4.0,4.0,4.0,100.0,,,,,,,,,,,,,,,,,,,,,,,,,,,,,,,,,,,,,,,,,,,,,,,,,,,,,,,,,,,,,,,,,,,,,,,,,,,,,,,,,,,,,,,,,,,,,,,,,,,,,,,,,,,,,,,,,,,,,,,,,,,,,,,,,,,
1725716042.881844,1725716042.883761,76.0,0.0,4586.025879,4324.743652,4217.179688,4284.615234,4245.897461,4243.205078,4136.794922,4251.282227,4270.256348,4246.282227,4469.743652,4520.897461,4359.487305,4424.615234,0.0,1.0,15.0,,,,0.0,4.0,4.0,4.0,4.0,4.0,4.0,4.0,4.0,4.0,4.0,4.0,4.0,4.0,4.0,100.0,,,,,,,,,,,,,,,,,,,,,,,,,,,,,,,,,,,,,,,,,,,,,,,,,,,,,,,,0.0,0.0,64.0,0.154919,1.0,0.0,,,,,,,,,,,,,,,,,,,,,,,,,,,,,,,,,,,,,,,,,,,,,,,,,,,,,,,,,,,,,,,,,,,,,,
1725716042.885749,1725716042.887666,77.0,0.0,4584.102539,4323.717773,4190.256348,4281.666504,4244.230957,4243.974121,4135.769043,4247.563965,4266.025879,4245.0,4466.282227,4516.794922,4353.077148,4419.615234,0.0,1.0,15.0,,,,0.0,4.0,4.0,4.0,4.0,4.0,4.0,4.0,4.0,4.0,4.0,4.0,4.0,4.0,4.0,100.0,,,,,,,,,,,,,,,,,,,,,,,,,,,,,,,,,,,,,,,,,,,,,,,,,,,,,,,,,,,,,,,,,,,,,,,,,,,,,,,,,,,,,,,,,,,,,,,,,,,,,,,,,,,,,,,,,,,,,,,,,,,,,,,,,,,
1725716042.889653,1725716042.89157,78.0,0.0,4581.922852,4323.846191,4169.487305,4280.897461,4242.820313,4246.025879,4136.282227,4246.666504,4265.256348,4246.538574,4463.077148,4517.563965,4352.563965,4416.922852,0.0,1.0,15.0,,,,0.0,4.0,4.0,4.0,4.0,4.0,4.0,4.0,4.0,4.0,4.0,4.0,4.0,4.0,4.0,100.0,,,,,,,,,,,,,,,,,,,,,,,,,,,,,,,,,,,,,,,,,,,,,,,,,,,,,,,,,,,,,,,,,,,,,,,,,,,,,,,,,,,,,,,,,,,,,,,,,,,,,,,,,,,,,,,,,,,,,,,,,,,,,,,,,,,
1725716042.893557,1725716042.895374,79.0,0.0,4578.974121,4324.487305,4159.743652,4281.666504,4242.05127,4247.563965,4139.487305,4247.820313,4268.077148,4248.846191,4460.769043,4521.025879,4356.538574,4417.05127,0.0,1.0,15.0,,,,0.0,4.0,4.0,4.0,4.0,4.0,4.0,4.0,4.0,4.0,4.0,4.0,4.0,4.0,4.0,100.0,,,,,,,,,,,,,,,,,,,,,,,,,,,,,,,,,,,,,,,,,,,,,,,,,,,,,,,,,,,,,,,,,,,,,,,,,,,,,,,,,,,,,,,,,,,,,,,,,,,,,,,,,,,,,,,,,,,,,,,,,,,,,,,,,,,
1725716042.897461,1725716042.899278,80.0,0.0,4575.128418,4324.615234,4159.358887,4282.820313,4241.922852,4248.205078,4144.487305,4249.871582,4272.436035,4250.256348,4460.256348,4523.717773,4360.897461,4418.589844,0.0,1.0,15.0,,,,0.0,4.0,4.0,4.0,4.0,4.0,4.0,4.0,4.0,4.0,4.0,4.0,4.0,4.0,4.0,100.0,,,,,,,,,,,,,,,,,,,,,,,,,,,,,,,,,,,,,,,,,,,,,,,,,,,,,,,,,,,,,,,,,,,,,,,,,,,,,,,,,,,,,,,,,,,,,,,,,,,,,,,,,,,,,,,,,,,,,,,,,,,,,,,,,,,
1725716042.901365,1725716042.903182,81.0,0.0,4571.282227,4323.461426,4161.794922,4283.846191,4242.179688,4247.692383,4149.230957,4251.666504,4275.897461,4250.128418,4460.897461,4522.820313,4361.794922,4419.487305,0.0,1.0,15.0,,,,0.0,4.0,4.0,4.0,4.0,4.0,4.0,4.0,4.0,4.0,4.0,4.0,4.0,4.0,4.0,100.0,,,,,,,,,,,,,,,,,,,,,,,,,,,,,,,,,,,,,,,,,,,,,,,,,,,,,,,,,,,,,,,,,,,,,,,,,,,,,,,,,,,,,,,,,,,,,,,,,,,,,,,,,,,,,,,,,,,,,,,,,,,,,,,,,,,
1725716042.905269,1725716042.906986,82.0,0.0,4568.717773,4321.538574,4161.410156,4284.102539,4242.307617,4246.666504,4151.922852,4253.077148,4276.922852,4249.615234,4461.538574,4517.94873,4358.205078,4418.205078,0.0,1.0,15.0,,,,0.0,4.0,4.0,4.0,4.0,4.0,4.0,4.0,4.0,4.0,4.0,4.0,4.0,4.0,4.0,100.0,,,,,,,,,,,,,,,,,,,,,,,,,,,,,,,,,,,,,,,,,,,,,,,,,,,,,,,,,,,,,,,,,,,,,,,,,,,,,,,,,,,,,,,,,,,,,,,,,,,,,,,,,,,,,,,,,,,,,,,,,,,,,,,,,,,
1725716042.909173,1725716042.91089,83.0,0.0,4567.692383,4320.128418,4157.307617,4283.205078,4242.820313,4246.025879,4152.692383,4253.333496,4275.769043,4249.358887,4460.641113,4511.282227,4352.436035,4415.0,0.0,1.0,15.0,,,,0.0,4.0,4.0,4.0,4.0,4.0,4.0,4.0,4.0,4.0,4.0,4.0,4.0,4.0,4.0,100.0,,,,,,,,,,,,,,,,,,,,,,,,,,,,,,,,,,,,,,,,,,,,,,,,,,,,,,,,,,,,,,,,,,,,,,,,,,,,,,,,,,,,,,,,,,,,,,,,,,,,,,,,,,,,,,,,,,,,,,,,,,,,,,,,,,,
1725716042.913077,1725716042.914794,84.0,0.0,4567.692383,4320.256348,4153.205078,4281.282227,4243.846191,4246.153809,4153.589844,4252.179688,4273.846191,4249.230957,4458.589844,4506.025879,4347.94873,4411.282227,0.0,1.0,15.0,,,,0.0,4.0,4.0,4.0,4.0,4.0,4.0,4.0,4.0,4.0,4.0,4.0,4.0,4.0,4.0,100.0,,,,,,,,,,,,,,,,,1.0,0.0,0.0,,,,,,,,,,,,,,,,,,,,,,,,,,,,,,,,,,,,,0.0,0.0,64.0,0.141099,1.0,0.0,4.772,1.958079,0.789613,0.165701,0.09111,1.105912,0.959684,0.565491,0.197482,0.081653,0.913637,1.243452,1.111634,0.168697,0.08091,0.87292,0.654965,0.377298,0.091003,0.070929,1.070342,0.394554,0.222507,0.1323,0.04231,0.31517,0.110126,0.134242,0.06416,0.060772,1.158794,0.81282,0.337071,0.122425,0.045312,0.259465,1.827203,0.311825,0.173538,0.104315,0.762947,2.351986,0.327747,0.277578,0.051383,1.447036,2.995774,0.727367,0.319877,0.110682,1.916083,3.277946,1.040811,0.346344,0.151236,2.26074,4.284343,1.480606,0.436389,0.105967,2.692867,2.773031,1.59348,0.410416,0.130672,1.752916,3.375625,1.27974,0.154054,0.06284
1725716042.916981,1725716042.918699,85.0,0.0,4567.436035,4322.179688,4153.461426,4279.487305,4245.384766,4247.563965,4156.538574,4249.871582,4272.692383,4248.333496,4456.538574,4503.717773,4346.922852,4408.974121,0.0,1.0,15.0,,,,0.0,4.0,4.0,4.0,4.0,4.0,4.0,4.0,4.0,4.0,4.0,4.0,4.0,4.0,4.0,100.0,,,,,,,,,,,,,,,,,,,,,,,,,,,,,,,,,,,,,,,,,,,,,,,,,,,,,,,,,,,,,,,,,,,,,,,,,,,,,,,,,,,,,,,,,,,,,,,,,,,,,,,,,,,,,,,,,,,,,,,,,,,,,,,,,,,
1725716042.920885,1725716042.922503,86.0,0.0,4566.410156,4324.871582,4158.974121,4279.358887,4247.179688,4249.487305,4161.410156,4248.333496,4273.333496,4246.666504,4456.025879,4504.358887,4349.358887,4409.487305,0.0,1.0,15.0,,,,0.0,4.0,4.0,4.0,4.0,4.0,4.0,4.0,4.0,4.0,4.0,4.0,4.0,4.0,4.0,100.0,,,,,,,,,,,,,,,,,,,,,,,,,,,,,,,,,,,,,,,,,,,,,,,,,,,,,,,,,,,,,,,,,,,,,,,,,,,,,,,,,,,,,,,,,,,,,,,,,,,,,,,,,,,,,,,,,,,,,,,,,,,,,,,,,,,
1725716042.92479,1725716042.926407,87.0,0.0,4565.641113,4327.436035,4166.282227,4282.307617,4248.205078,4250.769043,4166.922852,4249.102539,4275.512695,4245.128418,4457.820313,4506.922852,4353.846191,4412.179688,0.0,1.0,15.0,,,,0.0,4.0,4.0,4.0,4.0,4.0,4.0,4.0,4.0,4.0,4.0,4.0,4.0,4.0,4.0,100.0,,,,,,,,,,,,,,,,,,,,,,,,,,,,,,,,,,,,,,,,,,,,,,,,,,,,,,,,,,,,,,,,,,,,,,,,,,,,,,,,,,,,,,,,,,,,,,,,,,,,,,,,,,,,,,,,,,,,,,,,,,,,,,,,,,,
1725716042.928694,1725716042.930311,88.0,0.0,4566.538574,4328.974121,4170.897461,4287.05127,4248.461426,4250.641113,4171.410156,4252.692383,4277.692383,4245.128418,4461.153809,4509.615234,4358.077148,4415.128418,0.0,1.0,15.0,,,,0.0,4.0,4.0,4.0,4.0,4.0,4.0,4.0,4.0,4.0,4.0,4.0,4.0,4.0,4.0,100.0,,,,,,,,,,,,,,,,,,,,,,,,,,,,,,,,,,,,,,,,,,,,,,,,,,,,,,,,,,,,,,,,,,,,,,,,,,,,,,,,,,,,,,,,,,,,,,,,,,,,,,,,,,,,,,,,,,,,,,,,,,,,,,,,,,,
1725716042.932598,1725716042.934315,89.0,0.0,4568.846191,4328.846191,4170.641113,4291.153809,4248.461426,4249.230957,4173.333496,4257.307617,4278.077148,4246.794922,4463.846191,4510.641113,4360.256348,4416.153809,0.0,1.0,15.0,,,,0.0,4.0,4.0,4.0,4.0,4.0,4.0,4.0,4.0,4.0,4.0,4.0,4.0,4.0,4.0,100.0,,,,,,,,,,,,,,,,,,,,,,,,,,,,,,,,,,,,,,,,,,,,,,,,,,,,,,,,,,,,,,,,,,,,,,,,,,,,,,,,,,,,,,,,,,,,,,,,,,,,,,,,,,,,,,,,,,,,,,,,,,,,,,,,,,,
1725716042.936502,1725716042.938219,90.0,0.0,4571.025879,4326.538574,4167.563965,4292.179688,4249.743652,4247.820313,4172.563965,4259.871582,4276.025879,4248.717773,4464.487305,4509.358887,4359.743652,4414.871582,0.0,1.0,15.0,,,,0.0,4.0,4.0,4.0,4.0,4.0,4.0,4.0,4.0,4.0,4.0,4.0,4.0,4.0,4.0,100.0,,,,,,,,,,,,,,,,,,,,,,,,,,,,,,,,,,,,,,,,,,,,,,,,,,,,,,,,,,,,,,,,,,,,,,,,,,,,,,,,,,,,,,,,,,,,,,,,,,,,,,,,,,,,,,,,,,,,,,,,,,,,,,,,,,,
1725716042.940406,1725716042.942123,91.0,0.0,4571.410156,4323.333496,4165.256348,4289.487305,4252.94873,4247.692383,4170.769043,4258.717773,4272.436035,4249.615234,4462.563965,4507.05127,4357.94873,4412.692383,0.0,1.0,15.0,,,,0.0,4.0,4.0,4.0,4.0,4.0,4.0,4.0,4.0,4.0,4.0,4.0,4.0,4.0,4.0,100.0,,,,,,,,,,,,,,,,,,,,,,,,,,,,,,,,,,,,,,,,,,,,,,,,,,,,,,,,,,,,,,,,,,,,,,,,,,,,,,,,,,,,,,,,,,,,,,,,,,,,,,,,,,,,,,,,,,,,,,,,,,,,,,,,,,,
1725716042.94431,1725716042.946127,92.0,0.0,4570.256348,4321.410156,4165.641113,4284.743652,4257.436035,4249.102539,4169.615234,4254.230957,4268.974121,4249.487305,4459.871582,4505.512695,4356.538574,4411.666504,0.0,1.0,15.0,,,,0.0,4.0,4.0,4.0,4.0,4.0,4.0,4.0,4.0,4.0,4.0,4.0,4.0,4.0,4.0,100.0,,,,,,,,,,,,,,,,,,,,,,,,,,,,,,,,,,,,,,,,,,,,,,,,,,,,,,,,0.0,0.0,64.0,0.141099,1.0,0.0,,,,,,,,,,,,,,,,,,,,,,,,,,,,,,,,,,,,,,,,,,,,,,,,,,,,,,,,,,,,,,,,,,,,,,
1725716042.948214,1725716042.950031,93.0,0.0,4568.974121,4321.794922,4167.692383,4280.897461,4261.922852,4250.769043,4170.769043,4249.358887,4267.563965,4248.461426,4459.230957,4506.282227,4357.307617,4412.436035,0.0,1.0,15.0,,,,0.0,4.0,4.0,4.0,4.0,4.0,4.0,4.0,4.0,4.0,4.0,4.0,4.0,4.0,4.0,100.0,,,,,,,,,,,,,,,,,,,,,,,,,,,,,,,,,,,,,,,,,,,,,,,,,,,,,,,,,,,,,,,,,,,,,,,,,,,,,,,,,,,,,,,,,,,,,,,,,,,,,,,,,,,,,,,,,,,,,,,,,,,,,,,,,,,
1725716042.952118,1725716042.953935,94.0,0.0,4568.846191,4323.589844,4169.487305,4279.743652,4264.615234,4250.897461,4173.717773,4247.179688,4269.230957,4247.563965,4461.794922,4508.974121,4359.615234,4414.743652,0.0,1.0,15.0,,,,0.0,4.0,4.0,4.0,4.0,4.0,4.0,4.0,4.0,4.0,4.0,4.0,4.0,4.0,4.0,100.0,,,,,,,,,,,,,,,,,,,,,,,,,,,,,,,,,,,,,,,,,,,,,,,,,,,,,,,,,,,,,,,,,,,,,,,,,,,,,,,,,,,,,,,,,,,,,,,,,,,,,,,,,,,,,,,,,,,,,,,,,,,,,,,,,,,
1725716042.956022,1725716042.95784,95.0,0.0,4569.615234,4324.487305,4170.128418,4281.025879,4265.256348,4249.871582,4177.692383,4249.871582,4273.717773,4247.179688,4467.05127,4512.563965,4361.410156,4417.05127,0.0,1.0,15.0,,,,0.0,4.0,4.0,4.0,4.0,4.0,4.0,4.0,4.0,4.0,4.0,4.0,4.0,4.0,4.0,100.0,,,,,,,,,,,,,,,,,,,,,,,,,,,,,,,,,,,,,,,,,,,,,,,,,,,,,,,,,,,,,,,,,,,,,,,,,,,,,,,,,,,,,,,,,,,,,,,,,,,,,,,,,,,,,,,,,,,,,,,,,,,,,,,,,,,
1725716042.959926,1725716042.961744,96.0,0.0,4570.384766,4323.461426,4169.743652,4282.94873,4264.743652,4249.358887,4181.666504,4256.538574,4278.717773,4247.307617,4472.692383,4515.128418,4360.897461,4417.563965,0.0,1.0,15.0,,,,0.0,4.0,4.0,4.0,4.0,4.0,4.0,4.0,4.0,4.0,4.0,4.0,4.0,4.0,4.0,100.0,,,,,,,,,,,,,,,,,,,,,,,,,,,,,,,,,,,,,,,,,,,,,,,,,,,,,,,,,,,,,,,,,,,,,,,,,,,,,,,,,,,,,,,,,,,,,,,,,,,,,,,,,,,,,,,,,,,,,,,,,,,,,,,,,,,
1725716042.963831,1725716042.965748,97.0,0.0,4570.897461,4321.410156,4168.717773,4284.230957,4264.230957,4251.153809,4185.0,4263.589844,4281.282227,4247.563965,4476.282227,4515.641113,4358.077148,4416.410156,0.0,1.0,15.0,,,,0.0,4.0,4.0,4.0,4.0,4.0,4.0,4.0,4.0,4.0,4.0,4.0,4.0,4.0,4.0,100.0,,,,,,,,,,,,,,,,,,,,,,,,,,,,,,,,,,,,,,,,,,,,,,,,,,,,,,,,,,,,,,,,,,,,,,,,,,,,,,,,,,,,,,,,,,,,,,,,,,,,,,,,,,,,,,,,,,,,,,,,,,,,,,,,,,,
1725716042.967734,1725716042.969652,98.0,0.0,4571.282227,4320.128418,4167.820313,4285.0,4264.615234,4255.256348,4186.666504,4266.794922,4279.871582,4246.794922,4476.922852,4513.333496,4354.615234,4414.615234,0.0,1.0,15.0,,,,0.0,4.0,4.0,4.0,4.0,4.0,4.0,4.0,4.0,4.0,4.0,4.0,4.0,4.0,4.0,100.0,,,,,,,,,,,,,,,,,,,,,,,,,,,,,,,,,,,,,,,,,,,,,,,,,,,,,,,,,,,,,,,,,,,,,,,,,,,,,,,,,,,,,,,,,,,,,,,,,,,,,,,,,,,,,,,,,,,,,,,,,,,,,,,,,,,
1725716042.971639,1725716042.973556,99.0,0.0,4571.282227,4319.871582,4167.692383,4286.025879,4265.512695,4259.358887,4186.153809,4264.230957,4275.128418,4244.615234,4475.897461,4509.358887,4352.436035,4413.717773,0.0,1.0,15.0,,,,0.0,4.0,4.0,4.0,4.0,4.0,4.0,4.0,4.0,4.0,4.0,4.0,4.0,4.0,4.0,100.0,,,,,,,,,,,,,,,,,,,,,,,,,,,,,,,,,,,,,,,,,,,,,,,,,,,,,,,,,,,,,,,,,,,,,,,,,,,,,,,,,,,,,,,,,,,,,,,,,,,,,,,,,,,,,,,,,,,,,,,,,,,,,,,,,,,
1725716042.975543,1725716042.97746,100.0,0.0,4570.128418,4319.487305,4168.589844,4287.563965,4266.282227,4260.512695,4184.487305,4257.820313,4269.743652,4241.538574,4474.871582,4505.769043,4352.05127,4413.333496,0.0,1.0,15.0,,,,0.0,4.0,4.0,4.0,4.0,4.0,4.0,4.0,4.0,4.0,4.0,4.0,4.0,4.0,4.0,100.0,,,,,,,,,,,,,,,,,,,,,,,,,,,,,,,,,,,,,,,,,,,,,,,,,,,,,,,,0.0,0.0,64.0,0.141099,1.0,0.0,,,,,,,,,,,,,,,,,,,,,,,,,,,,,,,,,,,,,,,,,,,,,,,,,,,,,,,,,,,,,,,,,,,,,,
1725716042.979447,1725716042.981264,101.0,0.0,4567.436035,4317.94873,4170.0,4288.333496,4266.794922,4257.307617,4183.077148,4251.282227,4266.025879,4238.333496,4473.589844,4504.487305,4351.538574,4412.05127,0.0,1.0,15.0,,,,0.0,4.0,4.0,4.0,4.0,4.0,4.0,4.0,4.0,4.0,4.0,4.0,4.0,4.0,4.0,100.0,,,,,,,,,,,,,,,,,,,,,,,,,,,,,,,,,,,,,,,,,,,,,,,,,,,,,,,,,,,,,,,,,,,,,,,,,,,,,,,,,,,,,,,,,,,,,,,,,,,,,,,,,,,,,,,,,,,,,,,,,,,,,,,,,,,
1725716042.983351,1725716042.985168,102.0,0.0,4563.077148,4315.512695,4171.025879,4286.794922,4266.922852,4251.922852,4182.692383,4248.205078,4264.743652,4235.897461,4470.384766,4505.128418,4348.589844,4408.717773,0.0,1.0,15.0,,,,0.0,4.0,4.0,4.0,4.0,4.0,4.0,4.0,4.0,4.0,4.0,4.0,4.0,4.0,4.0,100.0,,,,,,,,,,,,,,,,,,,,,,,,,,,,,,,,,,,,,,,,,,,,,,,,,,,,,,,,,,,,,,,,,,,,,,,,,,,,,,,,,,,,,,,,,,,,,,,,,,,,,,,,,,,,,,,,,,,,,,,,,,,,,,,,,,,
1725716042.987255,1725716042.989072,103.0,0.0,4558.205078,4313.077148,4170.641113,4283.205078,4266.538574,4247.94873,4183.333496,4249.230957,4265.0,4234.615234,4463.974121,4505.769043,4342.820313,4403.717773,0.0,1.0,15.0,,,,0.0,4.0,4.0,4.0,4.0,4.0,4.0,4.0,4.0,4.0,4.0,4.0,4.0,4.0,4.0,100.0,,,,,,,,,,,,,,,,,,,,,,,,,,,,,,,,,,,,,,,,,,,,,,,,,,,,,,,,,,,,,,,,,,,,,,,,,,,,,,,,,,,,,,,,,,,,,,,,,,,,,,,,,,,,,,,,,,,,,,,,,,,,,,,,,,,
1725716042.991159,1725716042.992976,104.0,0.0,4553.846191,4312.05127,4168.717773,4279.230957,4265.641113,4247.94873,4184.102539,4252.692383,4265.769043,4234.230957,4457.179688,4505.256348,4336.922852,4400.384766,0.0,1.0,15.0,,,,0.0,4.0,4.0,4.0,4.0,4.0,4.0,4.0,4.0,4.0,4.0,4.0,4.0,4.0,4.0,100.0,,,,,,,,,,,,,,,,,,,,,,,,,,,,,,,,,,,,,,,,,,,,,,,,,,,,,,,,,,,,,,,,,,,,,,,,,,,,,,,,,,,,,,,,,,,,,,,,,,,,,,,,,,,,,,,,,,,,,,,,,,,,,,,,,,,
1725716042.995063,1725716042.996781,105.0,0.0,4551.025879,4312.436035,4166.153809,4277.436035,4264.230957,4251.410156,4184.230957,4256.794922,4266.538574,4234.487305,4454.871582,4504.102539,4335.256348,4401.410156,0.0,1.0,15.0,,,,0.0,4.0,4.0,4.0,4.0,4.0,4.0,4.0,4.0,4.0,4.0,4.0,4.0,4.0,4.0,100.0,,,,,,,,,,,,,,,,,,,,,,,,,,,,,,,,,,,,,,,,,,,,,,,,,,,,,,,,,,,,,,,,,,,,,,,,,,,,,,,,,,,,,,,,,,,,,,,,,,,,,,,,,,,,,,,,,,,,,,,,,,,,,,,,,,,
1725716042.998967,1725716043.000685,106.0,0.0,4550.512695,4313.461426,4164.102539,4278.333496,4262.563965,4255.512695,4183.974121,4260.128418,4267.307617,4234.615234,4460.0,4503.589844,4339.743652,4406.282227,0.0,1.0,15.0,,,,0.0,4.0,4.0,4.0,4.0,4.0,4.0,4.0,4.0,4.0,4.0,4.0,4.0,4.0,4.0,100.0,,,,,,,,,,,,,,,,,,,,,,,,,,,,,,,,,,,,,,,,,,,,,,,,,,,,,,,,,,,,,,,,,,,,,,,,,,,,,,,,,,,,,,,,,,,,,,,,,,,,,,,,,,,,,,,,,,,,,,,,,,,,,,,,,,,
1725716043.002871,1725716043.004589,107.0,0.0,4551.666504,4313.846191,4163.846191,4280.384766,4261.410156,4257.563965,4183.846191,4261.666504,4267.692383,4234.230957,4469.102539,4504.230957,4347.94873,4411.666504,0.0,1.0,15.0,,,,0.0,4.0,4.0,4.0,4.0,4.0,4.0,4.0,4.0,4.0,4.0,4.0,4.0,4.0,4.0,100.0,,,,,,,,,,,,,,,,,,,,,,,,,,,,,,,,,,,,,,,,,,,,,,,,,,,,,,,,,,,,,,,,,,,,,,,,,,,,,,,,,,,,,,,,,,,,,,,,,,,,,,,,,,,,,,,,,,,,,,,,,,,,,,,,,,,
1725716043.006776,1725716043.008493,108.0,0.0,4552.94873,4312.436035,4164.871582,4281.282227,4261.153809,4256.538574,4184.615234,4260.769043,4267.05127,4233.461426,4474.615234,4505.128418,4354.615234,4412.94873,0.0,1.0,15.0,,,,0.0,4.0,4.0,4.0,4.0,4.0,4.0,4.0,4.0,4.0,4.0,4.0,4.0,4.0,4.0,100.0,,,,,,,,,,,,,,,,,,,,,,,,,,,,,,,,,,,,,,,,,,,,,,,,,,,,,,,,0.0,0.0,64.0,0.141099,1.0,0.0,,,,,,,,,,,,,,,,,,,,,,,,,,,,,,,,,,,,,,,,,,,,,,,,,,,,,,,,,,,,,,,,,,,,,,
1725716043.01068,1725716043.012297,109.0,0.0,4552.820313,4309.615234,4166.153809,4280.384766,4261.666504,4254.230957,4185.897461,4257.94873,4265.256348,4232.563965,4471.025879,4504.743652,4354.871582,4408.589844,0.0,1.0,15.0,,,,0.0,4.0,4.0,4.0,4.0,4.0,4.0,4.0,4.0,4.0,4.0,4.0,4.0,4.0,4.0,100.0,,,,,,,,,,,,,,,,,,,,,,,,,,,,,,,,,,,,,,,,,,,,,,,,,,,,,,,,,,,,,,,,,,,,,,,,,,,,,,,,,,,,,,,,,,,,,,,,,,,,,,,,,,,,,,,,,,,,,,,,,,,,,,,,,,,
1725716043.014584,1725716043.016201,110.0,0.0,4551.666504,4307.179688,4166.410156,4278.589844,4262.436035,4253.205078,4187.05127,4255.0,4262.94873,4231.538574,4459.487305,4502.179688,4348.205078,4401.153809,0.0,1.0,15.0,,,,0.0,4.0,4.0,4.0,4.0,4.0,4.0,4.0,4.0,4.0,4.0,4.0,4.0,4.0,4.0,100.0,,,,,,,,,,,,,,,,,,,,,,,,,,,,,,,,,,,,,,,,,,,,,,,,,,,,,,,,,,,,,,,,,,,,,,,,,,,,,,,,,,,,,,,,,,,,,,,,,,,,,,,,,,,,,,,,,,,,,,,,,,,,,,,,,,,
1725716043.018488,1725716043.020105,111.0,0.0,4551.025879,4307.436035,4165.769043,4277.307617,4263.205078,4255.128418,4187.307617,4252.692383,4261.794922,4230.0,4447.05127,4498.974121,4338.846191,4395.128418,0.0,1.0,15.0,,,,0.0,4.0,4.0,4.0,4.0,4.0,4.0,4.0,4.0,4.0,4.0,4.0,4.0,4.0,4.0,100.0,,,,,,,,,,,,,,,,,,,,,,,,,,,,,,,,,,,,,,,,,,,,,,,,,,,,,,,,,,,,,,,,,,,,,,,,,,,,,,,,,,,,,,,,,,,,,,,,,,,,,,,,,,,,,,,,,,,,,,,,,,,,,,,,,,,
1725716043.022392,1725716043.024109,112.0,0.0,4552.563965,4310.384766,4165.384766,4277.692383,4263.846191,4259.230957,4186.794922,4251.666504,4263.461426,4228.589844,4439.871582,4498.205078,4333.077148,4394.615234,0.0,1.0,15.0,,,,0.0,4.0,4.0,4.0,4.0,4.0,4.0,4.0,4.0,4.0,4.0,4.0,4.0,4.0,4.0,100.0,,,,,,,,,,,,,,,,,,,,,,,,,,,,,,,,,,,,,,,,,,,,,,,,,,,,,,,,,,,,,,,,,,,,,,,,,,,,,,,,,,,,,,,,,,,,,,,,,,,,,,,,,,,,,,,,,,,,,,,,,,,,,,,,,,,
1725716043.026296,1725716043.028014,113.0,0.0,4556.538574,4314.615234,4167.179688,4280.512695,4264.615234,4263.717773,4186.282227,4252.307617,4268.205078,4228.974121,4440.256348,4502.436035,4334.743652,4400.384766,0.0,1.0,15.0,,,,0.0,4.0,4.0,4.0,4.0,4.0,4.0,4.0,4.0,4.0,4.0,4.0,4.0,4.0,4.0,100.0,,,,,,,,,,,,,,,,,,,,,,,,,,,,,,,,,,,,,,,,,,,,,,,,,,,,,,,,,,,,,,,,,,,,,,,,,,,,,,,,,,,,,,,,,,,,,,,,,,,,,,,,,,,,,,,,,,,,,,,,,,,,,,,,,,,
1725716043.0302,1725716043.031918,114.0,0.0,4561.922852,4318.205078,4171.410156,4285.256348,4265.769043,4266.538574,4187.179688,4255.512695,4274.102539,4232.692383,4446.794922,4512.563965,4343.589844,4410.641113,0.0,1.0,15.0,,,,0.0,4.0,4.0,4.0,4.0,4.0,4.0,4.0,4.0,4.0,4.0,4.0,4.0,4.0,4.0,100.0,,,,,,,,,,,,,,,,,,,,,,,,,,,,,,,,,,,,,,,,,,,,,,,,,,,,,,,,,,,,,,,,,,,,,,,,,,,,,,,,,,,,,,,,,,,,,,,,,,,,,,,,,,,,,,,,,,,,,,,,,,,,,,,,,,,
1725716043.034104,1725716043.035822,115.0,0.0,4567.179688,4320.769043,4177.307617,4290.256348,4266.538574,4267.05127,4190.769043,4261.666504,4278.717773,4238.717773,4456.922852,4526.410156,4355.512695,4421.538574,0.0,1.0,15.0,,,,0.0,4.0,4.0,4.0,4.0,4.0,4.0,4.0,4.0,4.0,4.0,4.0,4.0,4.0,4.0,100.0,,,,,,,,,,,,,,,,,,,,,,,,,,,,,,,,,,,,,,,,,,,,,,,,,,,,,,,,,,,,,,,,,,,,,,,,,,,,,,,,,,,,,,,,,,,,,,,,,,,,,,,,,,,,,,,,,,,,,,,,,,,,,,,,,,,
1725716043.038008,1725716043.039826,116.0,0.0,4571.282227,4323.205078,4183.333496,4293.205078,4266.538574,4266.153809,4196.282227,4269.230957,4280.769043,4244.487305,4468.333496,4539.615234,4365.128418,4429.743652,0.0,1.0,15.0,,,,0.0,4.0,4.0,4.0,4.0,4.0,4.0,4.0,4.0,4.0,4.0,4.0,4.0,4.0,4.0,100.0,,,,,,,,,,,,,,,,,1.0,0.0,0.0,,,,,,,,,,,,,,,,,,,,,,,,,,,,,,,,,,,,,0.0,0.0,64.0,0.050172,1.0,0.0,3.705047,1.642059,0.689838,0.168471,0.084608,1.098466,0.822188,0.510209,0.178579,0.080371,0.677234,1.077578,1.025254,0.175812,0.083383,0.871058,0.677222,0.33848,0.084285,0.069603,1.024856,0.366884,0.197363,0.124892,0.047188,0.248016,0.139693,0.146069,0.057736,0.055793,1.291511,0.759996,0.302417,0.119404,0.046417,0.27998,1.600155,0.422248,0.157203,0.106933,0.716129,2.05121,0.327612,0.243398,0.053347,1.407658,2.61449,0.66166,0.297785,0.117387,1.777086,2.810086,0.934677,0.326505,0.153333,2.218672,3.619857,1.276945,0.346397,0.096606,2.766536,2.389399,1.451599,0.368829,0.134582,1.758476,2.772432,1.107729,0.146934,0.063449
1725716043.041912,1725716043.04373,117.0,0.0,4573.461426,4325.256348,4187.94873,4292.563965,4265.512695,4265.384766,4201.153809,4275.512695,4281.025879,4247.820313,4478.333496,4547.05127,4369.871582,4433.461426,0.0,1.0,15.0,,,,0.0,4.0,4.0,4.0,4.0,4.0,4.0,4.0,4.0,4.0,4.0,4.0,4.0,4.0,4.0,100.0,,,,,,,,,,,,,,,,,,,,,,,,,,,,,,,,,,,,,,,,,,,,,,,,,,,,,,,,,,,,,,,,,,,,,,,,,,,,,,,,,,,,,,,,,,,,,,,,,,,,,,,,,,,,,,,,,,,,,,,,,,,,,,,,,,,
1725716043.045817,1725716043.047634,118.0,0.0,4573.205078,4325.384766,4190.128418,4288.717773,4264.102539,4266.153809,4202.05127,4279.102539,4281.922852,4248.333496,4483.461426,4546.282227,4370.256348,4433.333496,0.0,1.0,15.0,,,,0.0,4.0,4.0,4.0,4.0,4.0,4.0,4.0,4.0,4.0,4.0,4.0,4.0,4.0,4.0,100.0,,,,,,,,,,,,,,,,,,,,,,,,,,,,,,,,,,,,,,,,,,,,,,,,,,,,,,,,,,,,,,,,,,,,,,,,,,,,,,,,,,,,,,,,,,,,,,,,,,,,,,,,,,,,,,,,,,,,,,,,,,,,,,,,,,,
1725716043.049721,1725716043.051638,119.0,0.0,4571.153809,4322.692383,4189.615234,4283.846191,4263.205078,4268.589844,4197.94873,4279.871582,4284.743652,4248.077148,4482.563965,4539.358887,4368.846191,4430.897461,0.0,1.0,15.0,,,,0.0,4.0,4.0,4.0,4.0,4.0,4.0,4.0,4.0,4.0,4.0,4.0,4.0,4.0,4.0,100.0,,,,,,,,,,,,,,,,,,,,,,,,,,,,,,,,,,,,,,,,,,,,,,,,,,,,,,,,,,,,,,,,,,,,,,,,,,,,,,,,,,,,,,,,,,,,,,,,,,,,,,,,,,,,,,,,,,,,,,,,,,,,,,,,,,,
1725716043.053625,1725716043.055542,120.0,0.0,4568.974121,4318.333496,4187.179688,4280.769043,4263.205078,4271.538574,4191.282227,4278.974121,4289.230957,4249.743652,4477.436035,4532.05127,4368.205078,4428.717773,0.0,1.0,15.0,,,,0.0,4.0,4.0,4.0,4.0,4.0,4.0,4.0,4.0,4.0,4.0,4.0,4.0,4.0,4.0,100.0,,,,,,,,,,,,,,,,,,,,,,,,,,,,,,,,,,,,,,,,,,,,,,,,,,,,,,,,,,,,,,,,,,,,,,,,,,,,,,,,,,,,,,,,,,,,,,,,,,,,,,,,,,,,,,,,,,,,,,,,,,,,,,,,,,,
1725716043.057529,1725716043.059446,121.0,0.0,4568.589844,4315.512695,4184.871582,4281.282227,4263.589844,4273.846191,4186.153809,4277.94873,4293.974121,4254.230957,4473.333496,4530.128418,4370.512695,4429.743652,0.0,1.0,15.0,,,,0.0,4.0,4.0,4.0,4.0,4.0,4.0,4.0,4.0,4.0,4.0,4.0,4.0,4.0,4.0,100.0,,,,,,,,,,,,,,,,,,,,,,,,,,,,,,,,,,,,,,,,,,,,,,,,,,,,,,,,,,,,,,,,,,,,,,,,,,,,,,,,,,,,,,,,,,,,,,,,,,,,,,,,,,,,,,,,,,,,,,,,,,,,,,,,,,,
1725716043.061433,1725716043.06335,122.0,0.0,4571.153809,4316.794922,4184.615234,4285.256348,4263.974121,4275.512695,4186.025879,4277.94873,4297.94873,4261.153809,4475.384766,4535.641113,4376.025879,4435.897461,0.0,1.0,15.0,,,,0.0,4.0,4.0,4.0,4.0,4.0,4.0,4.0,4.0,4.0,4.0,4.0,4.0,4.0,4.0,100.0,,,,,,,,,,,,,,,,,,,,,,,,,,,,,,,,,,,,,,,,,,,,,,,,,,,,,,,,,,,,,,,,,,,,,,,,,,,,,,,,,,,,,,,,,,,,,,,,,,,,,,,,,,,,,,,,,,,,,,,,,,,,,,,,,,,
1725716043.065337,1725716043.067254,123.0,0.0,4576.153809,4322.436035,4187.692383,4291.282227,4264.487305,4276.794922,4190.641113,4279.871582,4301.410156,4268.461426,4485.512695,4546.282227,4383.205078,4446.153809,0.0,1.0,15.0,,,,0.0,4.0,4.0,4.0,4.0,4.0,4.0,4.0,4.0,4.0,4.0,4.0,4.0,4.0,4.0,100.0,,,,,,,,,,,,,,,,,,,,,,,,,,,,,,,,,,,,,,,,,,,,,,,,,,,,,,,,,,,,,,,,,,,,,,,,,,,,,,,,,,,,,,,,,,,,,,,,,,,,,,,,,,,,,,,,,,,,,,,,,,,,,,,,,,,
1725716043.069241,1725716043.071059,124.0,0.0,4582.05127,4330.512695,4193.205078,4296.666504,4265.512695,4278.205078,4196.922852,4283.333496,4305.256348,4274.487305,4499.743652,4556.538574,4389.358887,4456.410156,0.0,1.0,15.0,,,,0.0,4.0,4.0,4.0,4.0,4.0,4.0,4.0,4.0,4.0,4.0,4.0,4.0,4.0,4.0,100.0,,,,,,,,,,,,,,,,,,,,,,,,,,,,,,,,,,,,,,,,,,,,,,,,,,,,,,,,0.0,0.0,64.0,0.050172,1.0,0.0,,,,,,,,,,,,,,,,,,,,,,,,,,,,,,,,,,,,,,,,,,,,,,,,,,,,,,,,,,,,,,,,,,,,,,
1725716043.073145,1725716043.074963,125.0,0.0,4586.922852,4337.307617,4198.717773,4299.487305,4267.563965,4280.0,4201.025879,4287.179688,4309.743652,4278.205078,4510.897461,4562.179688,4392.692383,4461.794922,0.0,1.0,15.0,,,,0.0,4.0,4.0,4.0,4.0,4.0,4.0,4.0,4.0,4.0,4.0,4.0,4.0,4.0,4.0,100.0,,,,,,,,,,,,,,,,,,,,,,,,,,,,,,,,,,,,,,,,,,,,,,,,,,,,,,,,,,,,,,,,,,,,,,,,,,,,,,,,,,,,,,,,,,,,,,,,,,,,,,,,,,,,,,,,,,,,,,,,,,,,,,,,,,,
1725716043.077049,1725716043.078867,126.0,0.0,4588.974121,4339.871582,4202.563965,4299.102539,4270.128418,4281.794922,4201.666504,4289.871582,4313.077148,4279.615234,4514.102539,4561.794922,4393.077148,4460.897461,0.0,1.0,15.0,,,,0.0,4.0,4.0,4.0,4.0,4.0,4.0,4.0,4.0,4.0,4.0,4.0,4.0,4.0,4.0,100.0,,,,,,,,,,,,,,,,,,,,,,,,,,,,,,,,,,,,,,,,,,,,,,,,,,,,,,,,,,,,,,,,,,,,,,,,,,,,,,,,,,,,,,,,,,,,,,,,,,,,,,,,,,,,,,,,,,,,,,,,,,,,,,,,,,,
1725716043.080953,1725716043.082771,127.0,0.0,4587.820313,4337.94873,4204.230957,4297.05127,4272.179688,4282.692383,4200.0,4290.769043,4313.461426,4279.615234,4510.512695,4558.077148,4392.05127,4456.025879,0.0,1.0,15.0,,,,0.0,4.0,4.0,4.0,4.0,4.0,4.0,4.0,4.0,4.0,4.0,4.0,4.0,4.0,4.0,100.0,,,,,,,,,,,,,,,,,,,,,,,,,,,,,,,,,,,,,,,,,,,,,,,,,,,,,,,,,,,,,,,,,,,,,,,,,,,,,,,,,,,,,,,,,,,,,,,,,,,,,,,,,,,,,,,,,,,,,,,,,,,,,,,,,,,
1725716043.084858,1725716043.086575,128.0,0.0,4585.128418,4334.487305,4204.358887,4295.256348,4273.205078,4282.820313,4198.717773,4290.256348,4311.153809,4279.487305,4506.025879,4554.871582,4391.410156,4452.05127,2688.0,1.0,15.0,,,,0.0,4.0,4.0,4.0,4.0,4.0,4.0,4.0,4.0,4.0,4.0,4.0,4.0,4.0,4.0,100.0,,,,,,,,,,,,,,,,,,,,,,,,,,,,,,,,,,,,,,,,,,,,,,,,,,,,,,,,,,,,,,,,,,,,,,,,,,,,,,,,,,,,,,,,,,,,,,,,,,,,,,,,,,,,,,,,,,,,,,,,,,,,,,,,,,,
1725716043.088762,1725716043.090479,129.0,0.0,4583.717773,4333.077148,4203.974121,4295.0,4273.461426,4282.94873,4198.846191,4290.0,4308.333496,4278.974121,4505.512695,4554.615234,4392.307617,4451.794922,2566.0,1.0,15.0,,,,0.0,4.0,4.0,4.0,4.0,4.0,4.0,4.0,4.0,4.0,4.0,4.0,4.0,4.0,4.0,100.0,,,,,,,,,,,,,,,,,,,,,,,,,,,,,,,,,,,,,,,,,,,,,,,,,,,,,,,,,,,,,,,,,,,,,,,,,,,,,,,,,,,,,,,,,,,,,,,,,,,,,,,,,,,,,,,,,,,,,,,,,,,,,,,,,,,
1725716043.092666,1725716043.094383,130.0,0.0,4585.384766,4335.384766,4203.846191,4296.153809,4273.717773,4284.358887,4200.128418,4290.512695,4306.794922,4277.94873,4509.358887,4556.666504,4393.205078,4454.230957,2481.0,1.0,15.0,,,,0.0,4.0,4.0,4.0,4.0,4.0,4.0,4.0,4.0,4.0,4.0,4.0,4.0,4.0,4.0,100.0,,,,,,,,,,,,,,,,,,,,,,,,,,,,,,,,,,,,,,,,,,,,,,,,,,,,,,,,,,,,,,,,,,,,,,,,,,,,,,,,,,,,,,,,,,,,,,,,,,,,,,,,,,,,,,,,,,,,,,,,,,,,,,,,,,,
1725716043.09657,1725716043.098287,131.0,0.0,4588.846191,4339.487305,4204.102539,4297.436035,4274.743652,4286.922852,4201.025879,4290.769043,4306.666504,4276.025879,4513.717773,4558.589844,4392.436035,4456.282227,2439.0,1.0,15.0,,,,0.0,4.0,4.0,4.0,4.0,4.0,4.0,4.0,4.0,4.0,4.0,4.0,4.0,4.0,4.0,100.0,,,,,,,,,,,,,,,,,,,,,,,,,,,,,,,,,,,,,,,,,,,,,,,,,,,,,,,,,,,,,,,,,,,,,,,,,,,,,,,,,,,,,,,,,,,,,,,,,,,,,,,,,,,,,,,,,,,,,,,,,,,,,,,,,,,
1725716043.100474,1725716043.102092,132.0,0.0,4590.256348,4341.666504,4204.358887,4297.820313,4276.025879,4289.615234,4200.769043,4289.102539,4306.410156,4273.461426,4515.0,4558.077148,4389.230957,4455.256348,2434.0,1.0,15.0,,,,0.0,4.0,4.0,4.0,4.0,4.0,4.0,4.0,4.0,4.0,4.0,4.0,4.0,4.0,4.0,100.0,,,,,,,,,,,,,,,,,,,,,,,,,,,,,,,,,,,,,,,,,,,,,,,,,,,,,,,,0.0,0.0,64.0,0.050172,1.0,0.0,,,,,,,,,,,,,,,,,,,,,,,,,,,,,,,,,,,,,,,,,,,,,,,,,,,,,,,,,,,,,,,,,,,,,,
1725716043.104378,1725716043.105996,133.0,0.0,4587.307617,4338.717773,4203.461426,4296.538574,4276.794922,4291.153809,4199.743652,4285.384766,4304.615234,4270.384766,4514.743652,4554.743652,4385.256348,4450.897461,2389.0,1.0,15.0,,,,0.0,4.0,4.0,4.0,4.0,4.0,4.0,4.0,4.0,4.0,4.0,4.0,4.0,4.0,4.0,100.0,,,,,,,,,,,,,,,,,,,,,,,,,,,,,,,,,,,,,,,,,,,,,,,,,,,,,,,,,,,,,,,,,,,,,,,,,,,,,,,,,,,,,,,,,,,,,,,,,,,,,,,,,,,,,,,,,,,,,,,,,,,,,,,,,,,
1725716043.108282,1725716043.1099,134.0,0.0,4580.512695,4331.282227,4201.153809,4293.974121,4276.538574,4290.641113,4198.717773,4281.410156,4301.282227,4267.179688,4516.538574,4550.769043,4383.333496,4445.512695,2426.0,1.0,15.0,,,,0.0,4.0,4.0,4.0,4.0,4.0,4.0,4.0,4.0,4.0,4.0,4.0,4.0,4.0,4.0,100.0,,,,,,,,,,,,,,,,,,,,,,,,,,,,,,,,,,,,,,,,,,,,,,,,,,,,,,,,,,,,,,,,,,,,,,,,,,,,,,,,,,,,,,,,,,,,,,,,,,,,,,,,,,,,,,,,,,,,,,,,,,,,,,,,,,,
1725716043.112186,1725716043.113804,135.0,0.0,4573.717773,4323.461426,4198.717773,4291.538574,4275.641113,4288.974121,4198.846191,4279.102539,4298.333496,4264.358887,4521.794922,4549.230957,4384.615234,4442.179688,2489.0,1.0,15.0,,,,0.0,4.0,4.0,4.0,4.0,4.0,4.0,4.0,4.0,4.0,4.0,4.0,4.0,4.0,4.0,100.0,,,,,,,,,,,,,,,,,,,,,,,,,,,,,,,,,,,,,,,,,,,,,,,,,,,,,,,,,,,,,,,,,,,,,,,,,,,,,,,,,,,,,,,,,,,,,,,,,,,,,,,,,,,,,,,,,,,,,,,,,,,,,,,,,,,
1725716043.11609,1725716043.117608,136.0,0.0,4570.897461,4320.256348,4198.461426,4291.025879,4274.743652,4287.94873,4199.743652,4280.128418,4297.692383,4263.077148,4527.563965,4550.897461,4387.94873,4442.692383,2463.0,1.0,15.0,,,,0.0,4.0,4.0,4.0,4.0,4.0,4.0,4.0,4.0,4.0,4.0,4.0,4.0,4.0,4.0,100.0,,,,,,,,,,,,,,,,,,,,,,,,,,,,,,,,,,,,,,,,,,,,,,,,,,,,,,,,,,,,,,,,,,,,,,,,,,,,,,,,,,,,,,,,,,,,,,,,,,,,,,,,,,,,,,,,,,,,,,,,,,,,,,,,,,,
1725716043.119995,1725716043.121512,137.0,0.0,4572.563965,4323.461426,4200.897461,4292.820313,4274.743652,4288.974121,4199.615234,4283.589844,4299.102539,4263.974121,4529.615234,4553.461426,4390.384766,4445.641113,2563.0,1.0,15.0,,,,0.0,4.0,4.0,4.0,4.0,4.0,4.0,4.0,4.0,4.0,4.0,4.0,4.0,4.0,4.0,100.0,,,,,,,,,,,,,,,,,,,,,,,,,,,,,,,,,,,,,,,,,,,,,,,,,,,,,,,,,,,,,,,,,,,,,,,,,,,,,,,,,,,,,,,,,,,,,,,,,,,,,,,,,,,,,,,,,,,,,,,,,,,,,,,,,,,
1725716043.123899,1725716043.125416,138.0,0.0,4575.897461,4330.0,4204.871582,4295.384766,4275.0,4291.282227,4196.410156,4287.307617,4300.384766,4265.512695,4526.282227,4553.846191,4389.615234,4448.205078,2880.0,1.0,15.0,,,,0.0,4.0,4.0,4.0,4.0,4.0,4.0,4.0,4.0,4.0,4.0,4.0,4.0,4.0,4.0,100.0,,,,,,,,,,,,,,,,,,,,,,,,,,,,,,,,,,,,,,,,,,,,,,,,,,,,,,,,,,,,,,,,,,,,,,,,,,,,,,,,,,,,,,,,,,,,,,,,,,,,,,,,,,,,,,,,,,,,,,,,,,,,,,,,,,,
1725716043.127803,1725716043.12942,139.0,0.0,4577.436035,4335.0,4208.333496,4296.666504,4275.0,4292.436035,4190.641113,4288.589844,4299.871582,4265.641113,4520.641113,4550.897461,4385.0,4447.563965,3116.0,1.0,15.0,,,,0.0,4.0,4.0,4.0,4.0,4.0,4.0,4.0,4.0,4.0,4.0,4.0,4.0,4.0,4.0,100.0,,,,,,,,,,,,,,,,,,,,,,,,,,,,,,,,,,,,,,,,,,,,,,,,,,,,,,,,,,,,,,,,,,,,,,,,,,,,,,,,,,,,,,,,,,,,,,,,,,,,,,,,,,,,,,,,,,,,,,,,,,,,,,,,,,,
1725716043.131707,1725716043.133324,140.0,0.0,4575.769043,4335.641113,4210.512695,4295.512695,4274.743652,4291.025879,4185.256348,4286.922852,4297.436035,4264.230957,4517.179688,4546.153809,4379.102539,4444.102539,3418.0,1.0,15.0,,,,0.0,4.0,4.0,4.0,4.0,4.0,4.0,4.0,4.0,4.0,4.0,4.0,4.0,4.0,4.0,100.0,,,,,,,,,,,,,,,,,,,,,,,,,,,,,,,,,,,,,,,,,,,,,,,,,,,,,,,,0.0,0.0,64.0,0.050172,1.0,0.0,,,,,,,,,,,,,,,,,,,,,,,,,,,,,,,,,,,,,,,,,,,,,,,,,,,,,,,,,,,,,,,,,,,,,,
1725716043.135611,1725716043.137229,141.0,0.0,4572.05127,4333.205078,4211.410156,4293.205078,4275.128418,4287.820313,4184.102539,4283.846191,4295.512695,4263.077148,4518.077148,4543.333496,4376.282227,4440.641113,3817.0,1.0,15.0,,,,0.0,4.0,4.0,4.0,4.0,4.0,4.0,4.0,4.0,4.0,4.0,4.0,4.0,4.0,4.0,100.0,,,,,,,,,,,,,,,,,,,,,,,,,,,,,,,,,,,,,,,,,,,,,,,,,,,,,,,,,,,,,,,,,,,,,,,,,,,,,,,,,,,,,,,,,,,,,,,,,,,,,,,,,,,,,,,,,,,,,,,,,,,,,,,,,,,
1725716043.139515,1725716043.141133,142.0,0.0,4569.102539,4330.641113,4211.794922,4291.538574,4276.666504,4285.256348,4188.461426,4281.538574,4295.897461,4264.230957,4522.05127,4544.615234,4378.974121,4440.384766,2880.0,1.0,15.0,,,,0.0,4.0,4.0,4.0,4.0,4.0,4.0,4.0,4.0,4.0,4.0,4.0,4.0,4.0,4.0,100.0,,,,,,,,,,,,,,,,,,,,,,,,,,,,,,,,,,,,,,,,,,,,,,,,,,,,,,,,,,,,,,,,,,,,,,,,,,,,,,,,,,,,,,,,,,,,,,,,,,,,,,,,,,,,,,,,,,,,,,,,,,,,,,,,,,,
1725716043.143419,1725716043.145137,143.0,0.0,4568.846191,4329.743652,4212.563965,4291.794922,4277.94873,4284.230957,4195.256348,4281.153809,4298.461426,4267.563965,4525.512695,4549.615234,4385.0,4442.94873,3116.0,1.0,15.0,,,,0.0,4.0,4.0,4.0,4.0,4.0,4.0,4.0,4.0,4.0,4.0,4.0,4.0,4.0,4.0,100.0,,,,,,,,,,,,,,,,,,,,,,,,,,,,,,,,,,,,,,,,,,,,,,,,,,,,,,,,,,,,,,,,,,,,,,,,,,,,,,,,,,,,,,,,,,,,,,,,,,,,,,,,,,,,,,,,,,,,,,,,,,,,,,,,,,,
1725716043.147323,1725716043.149041,144.0,0.0,4570.641113,4330.384766,4213.846191,4293.333496,4277.692383,4284.230957,4200.256348,4281.922852,4301.410156,4271.282227,4526.153809,4554.743652,4390.0,4445.512695,3418.0,1.0,15.0,,,,0.0,4.0,4.0,4.0,4.0,4.0,4.0,4.0,4.0,4.0,4.0,4.0,4.0,4.0,4.0,100.0,,,,,,,,,,,,,,,,,,,,,,,,,,,,,,,,,,,,,,,,,,,,,,,,,,,,,,,,,,,,,,,,,,,,,,,,,,,,,,,,,,,,,,,,,,,,,,,,,,,,,,,,,,,,,,,,,,,,,,,,,,,,,,,,,,,
1725716043.151227,1725716043.152945,145.0,0.0,4571.922852,4330.897461,4214.487305,4294.743652,4275.384766,4283.974121,4200.512695,4282.179688,4303.077148,4273.589844,4524.871582,4556.410156,4390.897461,4445.384766,3817.0,1.0,15.0,,,,0.0,4.0,4.0,4.0,4.0,4.0,4.0,4.0,4.0,4.0,4.0,4.0,4.0,4.0,4.0,100.0,,,,,,,,,,,,,,,,,,,,,,,,,,,,,,,,,,,,,,,,,,,,,,,,,,,,,,,,,,,,,,,,,,,,,,,,,,,,,,,,,,,,,,,,,,,,,,,,,,,,,,,,,,,,,,,,,,,,,,,,,,,,,,,,,,,
1725716043.155131,1725716043.156949,146.0,0.0,4570.641113,4330.512695,4213.717773,4295.128418,4272.307617,4283.333496,4196.666504,4281.538574,4303.461426,4273.974121,4524.871582,4554.102539,4388.846191,4443.589844,2880.0,1.0,15.0,,,,0.0,4.0,4.0,4.0,4.0,4.0,4.0,4.0,4.0,4.0,4.0,4.0,4.0,4.0,4.0,100.0,,,,,,,,,,,,,,,,,,,,,,,,,,,,,,,,,,,,,,,,,,,,,,,,,,,,,,,,,,,,,,,,,,,,,,,,,,,,,,,,,,,,,,,,,,,,,,,,,,,,,,,,,,,,,,,,,,,,,,,,,,,,,,,,,,,
1725716043.159036,1725716043.160853,147.0,0.0,4567.307617,4329.743652,4212.563965,4294.743652,4270.769043,4283.333496,4191.666504,4280.641113,4303.846191,4274.230957,4528.333496,4551.153809,4387.05127,4442.820313,3116.0,1.0,15.0,,,,0.0,4.0,4.0,4.0,4.0,4.0,4.0,4.0,4.0,4.0,4.0,4.0,4.0,4.0,4.0,100.0,,,,,,,,,,,,,,,,,,,,,,,,,,,,,,,,,,,,,,,,,,,,,,,,,,,,,,,,,,,,,,,,,,,,,,,,,,,,,,,,,,,,,,,,,,,,,,,,,,,,,,,,,,,,,,,,,,,,,,,,,,,,,,,,,,,
1725716043.16294,1725716043.164757,148.0,0.0,4564.871582,4329.871582,4212.820313,4294.230957,4272.05127,4285.0,4189.615234,4280.641113,4305.384766,4275.769043,4534.487305,4551.922852,4388.461426,4445.384766,3418.0,1.0,15.0,,,,0.0,4.0,4.0,4.0,4.0,4.0,4.0,4.0,4.0,4.0,4.0,4.0,4.0,4.0,4.0,100.0,,,,,,,,,,,,,,,,,1.0,0.0,0.0,,,,,,,,,,,,,,,,,,,,,,,,,,,,,,,,,,,,,0.0,0.0,1.0,0.0,1.0,0.0,3.078073,1.415944,0.571046,0.180652,0.074193,1.049487,0.69741,0.415997,0.151544,0.073708,0.765787,1.025404,0.88917,0.184357,0.086975,0.861915,0.709766,0.305363,0.087276,0.068789,0.901174,0.325265,0.164001,0.111762,0.052155,0.180667,0.172495,0.170743,0.053841,0.052247,1.427124,0.660866,0.269104,0.114943,0.047258,0.334338,1.419808,0.542535,0.144657,0.113295,0.663925,1.637251,0.340453,0.204866,0.054992,1.336756,2.101499,0.57349,0.276316,0.120569,1.754868,2.344561,0.803787,0.301929,0.152376,2.169443,2.876058,1.056415,0.273,0.090258,2.786137,2.01279,1.250069,0.325817,0.145752,1.852512,2.15992,0.860452,0.146991,0.067142
1725716043.166844,1725716043.168661,149.0,0.0,4565.769043,4331.410156,4216.282227,4294.487305,4275.256348,4287.692383,4192.436035,4281.666504,4307.563965,4278.974121,4540.512695,4558.077148,4393.205078,4450.897461,3817.0,1.0,15.0,,,,0.0,4.0,4.0,4.0,4.0,4.0,4.0,4.0,4.0,4.0,4.0,4.0,4.0,4.0,4.0,100.0,,,,,,,,,,,,,,,,,,,,,,,,,,,,,,,,,,,,,,,,,,,,,,,,,,,,,,,,,,,,,,,,,,,,,,,,,,,,,,,,,,,,,,,,,,,,,,,,,,,,,,,,,,,,,,,,,,,,,,,,,,,,,,,,,,,
1725716043.170748,1725716043.172665,150.0,0.0,4569.487305,4333.846191,4222.436035,4295.512695,4278.461426,4289.743652,4198.333496,4283.077148,4308.846191,4281.666504,4544.358887,4566.922852,4398.461426,4456.794922,2880.0,1.0,15.0,,,,0.0,4.0,4.0,4.0,4.0,4.0,4.0,4.0,4.0,4.0,4.0,4.0,4.0,4.0,4.0,100.0,,,,,,,,,,,,,,,,,,,,,,,,,,,,,,,,,,,,,,,,,,,,,,,,,,,,,,,,,,,,,,,,,,,,,,,,,,,,,,,,,,,,,,,,,,,,,,,,,,,,,,,,,,,,,,,,,,,,,,,,,,,,,,,,,,,
1725716043.174652,1725716043.176569,151.0,0.0,4572.820313,4335.897461,4228.589844,4296.538574,4279.743652,4289.358887,4202.820313,4283.333496,4308.205078,4281.410156,4545.128418,4573.205078,4400.384766,4459.358887,3116.0,1.0,15.0,,,,0.0,4.0,4.0,4.0,4.0,4.0,4.0,4.0,4.0,4.0,4.0,4.0,4.0,4.0,4.0,100.0,,,,,,,,,,,,,,,,,,,,,,,,,,,,,,,,,,,,,,,,,,,,,,,,,,,,,,,,,,,,,,,,,,,,,,,,,,,,,,,,,,,,,,,,,,,,,,,,,,,,,,,,,,,,,,,,,,,,,,,,,,,,,,,,,,,
1725716043.178556,1725716043.180473,152.0,0.0,4572.436035,4336.538574,4230.897461,4296.538574,4279.230957,4286.282227,4202.563965,4281.410156,4305.641113,4276.538574,4543.205078,4572.436035,4396.794922,4456.282227,3418.0,1.0,15.0,,,,0.0,4.0,4.0,4.0,4.0,4.0,4.0,4.0,4.0,4.0,4.0,4.0,4.0,4.0,4.0,100.0,,,,,,,,,,,,,,,,,,,,,,,,,,,,,,,,,,,,,,,,,,,,,,,,,,,,,,,,,,,,,,,,,,,,,,,,,,,,,,,,,,,,,,,,,,,,,,,,,,,,,,,,,,,,,,,,,,,,,,,,,,,,,,,,,,,
1725716043.18246,1725716043.184377,153.0,0.0,4567.179688,4335.641113,4227.436035,4295.128418,4278.461426,4282.563965,4197.436035,4278.461426,4302.563965,4269.230957,4539.230957,4564.743652,4388.846191,4448.461426,3817.0,1.0,15.0,,,,0.0,4.0,4.0,4.0,4.0,4.0,4.0,4.0,4.0,4.0,4.0,4.0,4.0,4.0,4.0,100.0,,,,,,,,,,,,,,,,,,,,,,,,,,,,,,,,,,,,,,,,,,,,,,,,,,,,,,,,,,,,,,,,,,,,,,,,,,,,,,,,,,,,,,,,,,,,,,,,,,,,,,,,,,,,,,,,,,,,,,,,,,,,,,,,,,,
1725716043.186364,1725716043.188282,154.0,0.0,4559.358887,4334.102539,4220.641113,4293.589844,4278.717773,4280.512695,4190.897461,4276.410156,4300.512695,4263.974121,4535.128418,4555.256348,4381.666504,4440.769043,2880.0,1.0,15.0,,,,0.0,4.0,4.0,4.0,4.0,4.0,4.0,4.0,4.0,4.0,4.0,4.0,4.0,4.0,4.0,100.0,,,,,,,,,,,,,,,,,,,,,,,,,,,,,,,,,,,,,,,,,,,,,,,,,,,,,,,,,,,,,,,,,,,,,,,,,,,,,,,,,,,,,,,,,,,,,,,,,,,,,,,,,,,,,,,,,,,,,,,,,,,,,,,,,,,
1725716043.190268,1725716043.192086,155.0,0.0,4552.692383,4333.461426,4215.384766,4292.820313,4280.384766,4281.025879,4186.666504,4276.922852,4300.256348,4264.615234,4532.692383,4550.256348,4380.256348,4438.717773,3116.0,1.0,15.0,,,,0.0,4.0,4.0,4.0,4.0,4.0,4.0,4.0,4.0,4.0,4.0,4.0,4.0,4.0,4.0,100.0,,,,,,,,,,,,,,,,,,,,,,,,,,,,,,,,,,,,,,,,,,,,,,,,,,,,,,,,,,,,,,,,,,,,,,,,,,,,,,,,,,,,,,,,,,,,,,,,,,,,,,,,,,,,,,,,,,,,,,,,,,,,,,,,,,,
1725716043.194172,1725716043.19599,156.0,0.0,4550.512695,4334.102539,4215.512695,4293.461426,4281.794922,4283.077148,4186.410156,4278.974121,4301.922852,4271.025879,4532.692383,4552.563965,4385.641113,4443.974121,3418.0,1.0,15.0,,,,0.0,4.0,4.0,4.0,4.0,4.0,4.0,4.0,4.0,4.0,4.0,4.0,4.0,4.0,4.0,100.0,,,,,,,,,,,,,,,,,,,,,,,,,,,,,,,,,,,,,,,,,,,,,,,,,,,,,,,,0.0,0.0,1.0,0.0,1.0,0.0,,,,,,,,,,,,,,,,,,,,,,,,,,,,,,,,,,,,,,,,,,,,,,,,,,,,,,,,,,,,,,,,,,,,,,
1725716043.198076,1725716043.199894,157.0,0.0,4552.563965,4335.256348,4220.384766,4294.871582,4281.410156,4284.615234,4188.461426,4280.641113,4304.230957,4278.589844,4533.589844,4559.615234,4393.717773,4452.563965,3817.0,1.0,15.0,,,,0.0,4.0,4.0,4.0,4.0,4.0,4.0,4.0,4.0,4.0,4.0,4.0,4.0,4.0,4.0,100.0,,,,,,,,,,,,,,,,,,,,,,,,,,,,,,,,,,,,,,,,,,,,,,,,,,,,,,,,,,,,,,,,,,,,,,,,,,,,,,,,,,,,,,,,,,,,,,,,,,,,,,,,,,,,,,,,,,,,,,,,,,,,,,,,,,,
1725716043.20198,1725716043.203798,158.0,0.0,4555.769043,4335.256348,4226.025879,4296.153809,4279.102539,4283.974121,4190.128418,4280.512695,4305.641113,4281.282227,4532.692383,4566.025879,4398.846191,4458.077148,2880.0,1.0,15.0,,,,0.0,4.0,4.0,4.0,4.0,4.0,4.0,4.0,4.0,4.0,4.0,4.0,4.0,4.0,4.0,100.0,,,,,,,,,,,,,,,,,,,,,,,,,,,,,,,,,,,,,,,,,,,,,,,,,,,,,,,,,,,,,,,,,,,,,,,,,,,,,,,,,,,,,,,,,,,,,,,,,,,,,,,,,,,,,,,,,,,,,,,,,,,,,,,,,,,
1725716043.205885,1725716043.207602,159.0,0.0,4556.666504,4334.230957,4228.333496,4296.922852,4276.666504,4281.538574,4190.0,4279.102539,4306.025879,4277.820313,4530.0,4567.820313,4398.333496,4457.436035,3116.0,1.0,15.0,,,,0.0,4.0,4.0,4.0,4.0,4.0,4.0,4.0,4.0,4.0,4.0,4.0,4.0,4.0,4.0,100.0,,,,,,,,,,,,,,,,,,,,,,,,,,,,,,,,,,,,,,,,,,,,,,,,,,,,,,,,,,,,,,,,,,,,,,,,,,,,,,,,,,,,,,,,,,,,,,,,,,,,,,,,,,,,,,,,,,,,,,,,,,,,,,,,,,,
1725716043.209789,1725716043.211506,160.0,0.0,4553.717773,4333.846191,4226.153809,4297.307617,4275.512695,4279.487305,4188.589844,4278.205078,4306.025879,4271.922852,4527.05127,4564.358887,4394.230957,4452.05127,3418.0,1.0,15.0,,,,0.0,4.0,4.0,4.0,4.0,4.0,4.0,4.0,4.0,4.0,4.0,4.0,4.0,4.0,4.0,100.0,,,,,,,,,,,,,,,,,,,,,,,,,,,,,,,,,,,,,,,,,,,,,,,,,,,,,,,,,,,,,,,,,,,,,,,,,,,,,,,,,,,,,,,,,,,,,,,,,,,,,,,,,,,,,,,,,,,,,,,,,,,,,,,,,,,
1725716043.213693,1725716043.215411,161.0,0.0,4548.333496,4335.384766,4221.794922,4297.692383,4276.153809,4279.487305,4187.179688,4278.717773,4306.666504,4268.974121,4526.410156,4558.974121,4390.897461,4446.666504,3817.0,1.0,15.0,,,,0.0,4.0,4.0,4.0,4.0,4.0,4.0,4.0,4.0,4.0,4.0,4.0,4.0,4.0,4.0,100.0,,,,,,,,,,,,,,,,,,,,,,,,,,,,,,,,,,,,,,,,,,,,,,,,,,,,,,,,,,,,,,,,,,,,,,,,,,,,,,,,,,,,,,,,,,,,,,,,,,,,,,,,,,,,,,,,,,,,,,,,,,,,,,,,,,,
1725716043.217597,1725716043.219315,162.0,0.0,4542.94873,4337.692383,4218.333496,4297.692383,4277.179688,4281.282227,4186.282227,4280.384766,4307.94873,4271.538574,4528.205078,4555.0,4390.512695,4444.615234,2880.0,1.0,15.0,,,,0.0,4.0,4.0,4.0,4.0,4.0,4.0,4.0,4.0,4.0,4.0,4.0,4.0,4.0,4.0,100.0,,,,,,,,,,,,,,,,,,,,,,,,,,,,,,,,,,,,,,,,,,,,,,,,,,,,,,,,,,,,,,,,,,,,,,,,,,,,,,,,,,,,,,,,,,,,,,,,,,,,,,,,,,,,,,,,,,,,,,,,,,,,,,,,,,,
1725716043.221501,1725716043.223119,163.0,0.0,4540.256348,4338.077148,4217.563965,4297.307617,4277.307617,4283.333496,4185.897461,4281.666504,4309.615234,4277.179688,4531.025879,4554.230957,4391.538574,4446.153809,3116.0,1.0,15.0,,,,0.0,4.0,4.0,4.0,4.0,4.0,4.0,4.0,4.0,4.0,4.0,4.0,4.0,4.0,4.0,100.0,,,,,,,,,,,,,,,,,,,,,,,,,,,,,,,,,,,,,,,,,,,,,,,,,,,,,,,,,,,,,,,,,,,,,,,,,,,,,,,,,,,,,,,,,,,,,,,,,,,,,,,,,,,,,,,,,,,,,,,,,,,,,,,,,,,
1725716043.225405,1725716043.227023,164.0,0.0,4540.512695,4335.256348,4218.717773,4296.794922,4276.282227,4284.102539,4185.769043,4282.05127,4310.384766,4281.025879,4532.436035,4555.641113,4391.282227,4448.589844,3418.0,1.0,15.0,,,,0.0,4.0,4.0,4.0,4.0,4.0,4.0,4.0,4.0,4.0,4.0,4.0,4.0,4.0,4.0,100.0,,,,,,,,,,,,,,,,,,,,,,,,,,,,,,,,,,,,,,,,,,,,,,,,,,,,,,,,0.0,0.0,1.0,0.0,1.0,0.0,,,,,,,,,,,,,,,,,,,,,,,,,,,,,,,,,,,,,,,,,,,,,,,,,,,,,,,,,,,,,,,,,,,,,,
1725716043.229309,1725716043.230927,165.0,0.0,4542.05127,4330.384766,4219.615234,4296.153809,4275.128418,4283.461426,4185.897461,4281.282227,4309.615234,4279.487305,4531.153809,4557.307617,4388.589844,4449.487305,3817.0,1.0,15.0,,,,0.0,4.0,4.0,4.0,4.0,4.0,4.0,4.0,4.0,4.0,4.0,4.0,4.0,4.0,4.0,100.0,,,,,,,,,,,,,,,,,,,,,,,,,,,,,,,,,,,,,,,,,,,,,,,,,,,,,,,,,,,,,,,,,,,,,,,,,,,,,,,,,,,,,,,,,,,,,,,,,,,,,,,,,,,,,,,,,,,,,,,,,,,,,,,,,,,
1725716043.233213,1725716043.234931,166.0,0.0,4542.307617,4326.538574,4218.846191,4295.769043,4274.615234,4281.794922,4185.897461,4280.0,4306.794922,4272.94873,4527.563965,4557.692383,4384.871582,4447.820313,2880.0,1.0,15.0,,,,0.0,4.0,4.0,4.0,4.0,4.0,4.0,4.0,4.0,4.0,4.0,4.0,4.0,4.0,4.0,100.0,,,,,,,,,,,,,,,,,,,,,,,,,,,,,,,,,,,,,,,,,,,,,,,,,,,,,,,,,,,,,,,,,,,,,,,,,,,,,,,,,,,,,,,,,,,,,,,,,,,,,,,,,,,,,,,,,,,,,,,,,,,,,,,,,,,
1725716043.237117,1725716043.238835,167.0,0.0,4539.102539,4325.641113,4217.179688,4295.769043,4275.256348,4280.256348,4185.769043,4278.974121,4302.820313,4265.384766,4523.717773,4556.538574,4382.05127,4445.0,3116.0,1.0,15.0,,,,0.0,4.0,4.0,4.0,4.0,4.0,4.0,4.0,4.0,4.0,4.0,4.0,4.0,4.0,4.0,100.0,,,,,,,,,,,,,,,,,,,,,,,,,,,,,,,,,,,,,,,,,,,,,,,,,,,,,,,,,,,,,,,,,,,,,,,,,,,,,,,,,,,,,,,,,,,,,,,,,,,,,,,,,,,,,,,,,,,,,,,,,,,,,,,,,,,
1725716043.241022,1725716043.242739,168.0,0.0,4533.205078,4328.205078,4216.153809,4296.025879,4276.410156,4280.0,4186.153809,4278.717773,4299.102539,4261.282227,4521.410156,4555.0,4381.153809,4442.307617,3418.0,1.0,15.0,,,,0.0,4.0,4.0,4.0,4.0,4.0,4.0,4.0,4.0,4.0,4.0,4.0,4.0,4.0,4.0,100.0,,,,,,,,,,,,,,,,,,,,,,,,,,,,,,,,,,,,,,,,,,,,,,,,,,,,,,,,,,,,,,,,,,,,,,,,,,,,,,,,,,,,,,,,,,,,,,,,,,,,,,,,,,,,,,,,,,,,,,,,,,,,,,,,,,,
1725716043.244926,1725716043.246643,169.0,0.0,4527.179688,4331.922852,4216.282227,4296.666504,4277.820313,4281.410156,4187.307617,4279.230957,4296.922852,4262.179688,4521.153809,4554.102539,4381.025879,4441.153809,3817.0,1.0,15.0,,,,0.0,4.0,4.0,4.0,4.0,4.0,4.0,4.0,4.0,4.0,4.0,4.0,4.0,4.0,4.0,100.0,,,,,,,,,,,,,,,,,,,,,,,,,,,,,,,,,,,,,,,,,,,,,,,,,,,,,,,,,,,,,,,,,,,,,,,,,,,,,,,,,,,,,,,,,,,,,,,,,,,,,,,,,,,,,,,,,,,,,,,,,,,,,,,,,,,
1725716043.24883,1725716043.250647,170.0,0.0,4523.461426,4333.846191,4217.179688,4297.307617,4279.230957,4284.358887,4188.589844,4280.0,4296.538574,4265.769043,4521.922852,4554.743652,4380.256348,4441.410156,2880.0,1.0,15.0,,,,0.0,4.0,4.0,4.0,4.0,4.0,4.0,4.0,4.0,4.0,4.0,4.0,4.0,4.0,4.0,100.0,,,,,,,,,,,,,,,,,,,,,,,,,,,,,,,,,,,,,,,,,,,,,,,,,,,,,,,,,,,,,,,,,,,,,,,,,,,,,,,,,,,,,,,,,,,,,,,,,,,,,,,,,,,,,,,,,,,,,,,,,,,,,,,,,,,
1725716043.252734,1725716043.254551,171.0,0.0,4522.820313,4332.563965,4217.94873,4297.436035,4280.0,4287.307617,4189.102539,4280.384766,4297.179688,4268.461426,4522.436035,4556.282227,4377.820313,4442.436035,3116.0,1.0,15.0,,,,0.0,4.0,4.0,4.0,4.0,4.0,4.0,4.0,4.0,4.0,4.0,4.0,4.0,4.0,4.0,100.0,,,,,,,,,,,,,,,,,,,,,,,,,,,,,,,,,,,,,,,,,,,,,,,,,,,,,,,,,,,,,,,,,,,,,,,,,,,,,,,,,,,,,,,,,,,,,,,,,,,,,,,,,,,,,,,,,,,,,,,,,,,,,,,,,,,
1725716043.256638,1725716043.258456,172.0,0.0,4523.846191,4328.846191,4218.333496,4296.922852,4279.358887,4288.205078,4188.461426,4279.871582,4297.307617,4267.94873,4522.563965,4557.820313,4375.384766,4443.333496,3418.0,1.0,15.0,,,,0.0,4.0,4.0,4.0,4.0,4.0,4.0,4.0,4.0,4.0,4.0,4.0,4.0,4.0,4.0,100.0,,,,,,,,,,,,,,,,,,,,,,,,,,,,,,,,,,,,,,,,,,,,,,,,,,,,,,,,0.0,0.0,1.0,0.0,1.0,0.0,,,,,,,,,,,,,,,,,,,,,,,,,,,,,,,,,,,,,,,,,,,,,,,,,,,,,,,,,,,,,,,,,,,,,,
1725716043.260542,1725716043.26236,173.0,0.0,4523.461426,4325.128418,4217.94873,4295.641113,4276.666504,4286.282227,4187.05127,4278.461426,4296.538574,4264.871582,4522.179688,4558.205078,4375.384766,4443.717773,3817.0,1.0,15.0,,,,0.0,4.0,4.0,4.0,4.0,4.0,4.0,4.0,4.0,4.0,4.0,4.0,4.0,4.0,4.0,100.0,,,,,,,,,,,,,,,,,,,,,,,,,,,,,,,,,,,,,,,,,,,,,,,,,,,,,,,,,,,,,,,,,,,,,,,,,,,,,,,,,,,,,,,,,,,,,,,,,,,,,,,,,,,,,,,,,,,,,,,,,,,,,,,,,,,
1725716043.264446,1725716043.266164,174.0,0.0,4520.128418,4322.94873,4217.436035,4293.589844,4272.563965,4282.563965,4185.384766,4276.922852,4295.0,4262.179688,4521.153809,4557.436035,4378.077148,4443.717773,2880.0,1.0,15.0,,,,0.0,4.0,4.0,4.0,4.0,4.0,4.0,4.0,4.0,4.0,4.0,4.0,4.0,4.0,4.0,100.0,,,,,,,,,,,,,,,,,,,,,,,,,,,,,,,,,,,,,,,,,,,,,,,,,,,,,,,,,,,,,,,,,,,,,,,,,,,,,,,,,,,,,,,,,,,,,,,,,,,,,,,,,,,,,,,,,,,,,,,,,,,,,,,,,,,
1725716043.26835,1725716043.270068,175.0,0.0,4514.487305,4322.820313,4216.922852,4291.794922,4268.333496,4279.358887,4184.358887,4276.025879,4293.846191,4262.05127,4519.230957,4556.025879,4381.282227,4443.974121,3116.0,1.0,15.0,,,,0.0,4.0,4.0,4.0,4.0,4.0,4.0,4.0,4.0,4.0,4.0,4.0,4.0,4.0,4.0,100.0,,,,,,,,,,,,,,,,,,,,,,,,,,,,,,,,,,,,,,,,,,,,,,,,,,,,,,,,,,,,,,,,,,,,,,,,,,,,,,,,,,,,,,,,,,,,,,,,,,,,,,,,,,,,,,,,,,,,,,,,,,,,,,,,,,,
1725716043.272254,1725716043.274072,176.0,0.0,4509.102539,4324.615234,4216.794922,4291.922852,4265.384766,4278.717773,4185.0,4276.666504,4293.846191,4264.230957,4516.153809,4555.0,4382.179688,4443.974121,3418.0,1.0,15.0,,,,0.0,4.0,4.0,4.0,4.0,4.0,4.0,4.0,4.0,4.0,4.0,4.0,4.0,4.0,4.0,100.0,,,,,,,,,,,,,,,,,,,,,,,,,,,,,,,,,,,,,,,,,,,,,,,,,,,,,,,,,,,,,,,,,,,,,,,,,,,,,,,,,,,,,,,,,,,,,,,,,,,,,,,,,,,,,,,,,,,,,,,,,,,,,,,,,,,
1725716043.276158,1725716043.277976,177.0,0.0,4506.153809,4327.563965,4217.179688,4294.487305,4265.0,4280.384766,4186.794922,4278.205078,4295.128418,4266.666504,4512.563965,4554.871582,4380.769043,4443.846191,3817.0,1.0,15.0,,,,0.0,4.0,4.0,4.0,4.0,4.0,4.0,4.0,4.0,4.0,4.0,4.0,4.0,4.0,4.0,100.0,,,,,,,,,,,,,,,,,,,,,,,,,,,,,,,,,,,,,,,,,,,,,,,,,,,,,,,,,,,,,,,,,,,,,,,,,,,,,,,,,,,,,,,,,,,,,,,,,,,,,,,,,,,,,,,,,,,,,,,,,,,,,,,,,,,
1725716043.280063,1725716043.28188,178.0,0.0,4506.025879,4330.256348,4217.94873,4298.461426,4266.410156,4282.436035,4187.94873,4279.230957,4296.666504,4267.820313,4510.256348,4555.384766,4379.871582,4443.461426,2880.0,1.0,15.0,,,,0.0,4.0,4.0,4.0,4.0,4.0,4.0,4.0,4.0,4.0,4.0,4.0,4.0,4.0,4.0,100.0,,,,,,,,,,,,,,,,,,,,,,,,,,,,,,,,,,,,,,,,,,,,,,,,,,,,,,,,,,,,,,,,,,,,,,,,,,,,,,,,,,,,,,,,,,,,,,,,,,,,,,,,,,,,,,,,,,,,,,,,,,,,,,,,,,,
1725716043.283967,1725716043.285784,179.0,0.0,4506.922852,4330.769043,4218.333496,4301.153809,4267.307617,4282.563965,4186.666504,4278.333496,4296.794922,4267.05127,4510.256348,4555.641113,4381.666504,4442.94873,3116.0,1.0,15.0,,,,0.0,4.0,4.0,4.0,4.0,4.0,4.0,4.0,4.0,4.0,4.0,4.0,4.0,4.0,4.0,100.0,,,,,,,,,,,,,,,,,,,,,,,,,,,,,,,,,,,,,,,,,,,,,,,,,,,,,,,,,,,,,,,,,,,,,,,,,,,,,,,,,,,,,,,,,,,,,,,,,,,,,,,,,,,,,,,,,,,,,,,,,,,,,,,,,,,
1725716043.287871,1725716043.289688,180.0,0.0,4506.538574,4328.205078,4217.307617,4299.743652,4266.153809,4280.0,4182.563965,4274.743652,4294.230957,4265.0,4511.794922,4554.102539,4385.512695,4441.666504,3418.0,1.0,15.0,,,,0.0,4.0,4.0,4.0,4.0,4.0,4.0,4.0,4.0,4.0,4.0,4.0,4.0,4.0,4.0,100.0,1.0,25.0,0.0,4.0,3.0,4.0,4.0,3.0,0.0,4.0,4.0,4.0,4.0,4.0,4.0,4.0,1.0,0.0,0.0,,,,,,,,,,,,,,,,,,,,,,,,,,,,,,,,,,,,,0.0,0.0,1.0,0.0,1.0,0.0,2.935013,1.441119,0.469709,0.216345,0.063906,1.066657,0.666208,0.319359,0.136245,0.064546,1.513629,1.256596,0.823552,0.217719,0.09928,0.889769,0.774711,0.296243,0.105065,0.06999,0.744362,0.299785,0.143334,0.098184,0.055239,0.12159,0.202078,0.220225,0.056733,0.052511,1.563547,0.549909,0.250487,0.116293,0.048239,0.443567,1.285595,0.651958,0.143943,0.121872,0.672736,1.241777,0.381726,0.185635,0.05677,1.348207,1.709316,0.516528,0.280314,0.119564,2.070628,2.140848,0.731385,0.302588,0.153662,2.287084,2.374125,0.920947,0.251273,0.089573,2.954967,1.897687,1.128142,0.310688,0.164592,2.130543,1.800661,0.644023,0.171987,0.074328
1725716043.291775,1725716043.293593,181.0,0.0,4503.589844,4323.205078,4214.102539,4293.589844,4263.846191,4276.282227,4176.922852,4269.615234,4289.230957,4262.563965,4512.563965,4549.615234,4387.692383,4438.589844,3817.0,1.0,15.0,,,,0.0,4.0,4.0,4.0,4.0,4.0,4.0,4.0,4.0,4.0,4.0,4.0,4.0,4.0,4.0,100.0,,,,,,,,,,,,,,,,,,,,,,,,,,,,,,,,,,,,,,,,,,,,,,,,,,,,,,,,,,,,,,,,,,,,,,,,,,,,,,,,,,,,,,,,,,,,,,,,,,,,,,,,,,,,,,,,,,,,,,,,,,,,,,,,,,,
1725716043.295679,1725716043.297397,182.0,0.0,4498.333496,4317.436035,4209.102539,4285.128418,4262.307617,4273.461426,4171.794922,4265.0,4283.461426,4260.641113,4511.153809,4543.077148,4385.0,4433.846191,2880.0,1.0,15.0,,,,0.0,4.0,4.0,4.0,4.0,4.0,4.0,4.0,4.0,4.0,4.0,4.0,4.0,4.0,4.0,100.0,,,,,,,,,,,,,,,,,,,,,,,,,,,,,,,,,,,,,,,,,,,,,,,,,,,,,,,,,,,,,,,,,,,,,,,,,,,,,,,,,,,,,,,,,,,,,,,,,,,,,,,,,,,,,,,,,,,,,,,,,,,,,,,,,,,
1725716043.299583,1725716043.301301,183.0,0.0,4492.179688,4312.94873,4204.102539,4278.717773,4262.820313,4272.563965,4168.333496,4262.692383,4279.487305,4259.871582,4507.94873,4537.563965,4377.94873,4429.230957,3116.0,1.0,15.0,,,,0.0,4.0,4.0,4.0,4.0,4.0,4.0,4.0,4.0,4.0,4.0,4.0,4.0,4.0,4.0,100.0,,,,,,,,,,,,,,,,,,,,,,,,,,,,,,,,,,,,,,,,,,,,,,,,,,,,,,,,,,,,,,,,,,,,,,,,,,,,,,,,,,,,,,,,,,,,,,,,,,,,,,,,,,,,,,,,,,,,,,,,,,,,,,,,,,,
1725716043.303487,1725716043.305205,184.0,0.0,4486.666504,4311.538574,4200.897461,4277.94873,4263.846191,4272.563965,4166.153809,4263.333496,4278.461426,4260.769043,4504.230957,4535.256348,4370.128418,4426.794922,3418.0,1.0,15.0,,,,0.0,4.0,4.0,4.0,4.0,4.0,4.0,4.0,4.0,4.0,4.0,4.0,4.0,4.0,4.0,100.0,,,,,,,,,,,,,,,,,,,,,,,,,,,,,,,,,,,,,,,,,,,,,,,,,,,,,,,,,,,,,,,,,,,,,,,,,,,,,,,,,,,,,,,,,,,,,,,,,,,,,,,,,,,,,,,,,,,,,,,,,,,,,,,,,,,
1725716043.307391,1725716043.309109,185.0,0.0,4482.05127,4313.077148,4200.256348,4282.563965,4262.692383,4271.922852,4163.846191,4265.384766,4280.512695,4262.563965,4500.641113,4536.410156,4365.0,4427.05127,3817.0,1.0,15.0,,,,0.0,4.0,4.0,4.0,4.0,4.0,4.0,4.0,4.0,4.0,4.0,4.0,4.0,4.0,4.0,100.0,,,,,,,,,,,,,,,,,,,,,,,,,,,,,,,,,,,,,,,,,,,,,,,,,,,,,,,,,,,,,,,,,,,,,,,,,,,,,,,,,,,,,,,,,,,,,,,,,,,,,,,,,,,,,,,,,,,,,,,,,,,,,,,,,,,
1725716043.311295,1725716043.312913,186.0,0.0,4478.333496,4315.128418,4200.897461,4288.589844,4258.589844,4269.743652,4160.641113,4267.05127,4284.230957,4263.461426,4497.436035,4538.333496,4364.230957,4428.461426,2880.0,1.0,15.0,,,,0.0,4.0,4.0,4.0,4.0,4.0,4.0,4.0,4.0,4.0,4.0,4.0,4.0,4.0,4.0,100.0,,,,,,,,,,,,,,,,,,,,,,,,,,,,,,,,,,,,,,,,,,,,,,,,,,,,,,,,,,,,,,,,,,,,,,,,,,,,,,,,,,,,,,,,,,,,,,,,,,,,,,,,,,,,,,,,,,,,,,,,,,,,,,,,,,,
1725716043.3152,1725716043.316817,187.0,0.0,4475.256348,4315.256348,4200.769043,4291.282227,4253.461426,4266.922852,4156.410156,4267.179688,4287.563965,4262.05127,4494.743652,4537.563965,4366.538574,4428.589844,3116.0,1.0,15.0,,,,0.0,4.0,4.0,4.0,4.0,4.0,4.0,4.0,4.0,4.0,4.0,4.0,4.0,4.0,4.0,100.0,,,,,,,,,,,,,,,,,,,,,,,,,,,,,,,,,,,,,,,,,,,,,,,,,,,,,,,,,,,,,,,,,,,,,,,,,,,,,,,,,,,,,,,,,,,,,,,,,,,,,,,,,,,,,,,,,,,,,,,,,,,,,,,,,,,
1725716043.319104,1725716043.320721,188.0,0.0,4473.589844,4312.94873,4199.487305,4288.461426,4250.512695,4264.871582,4152.820313,4265.897461,4288.589844,4258.077148,4493.077148,4533.461426,4368.846191,4426.282227,3418.0,1.0,15.0,,,,0.0,4.0,4.0,4.0,4.0,4.0,4.0,4.0,4.0,4.0,4.0,4.0,4.0,4.0,4.0,100.0,,,,,,,,,,,,,,,,,,,,,,,,,,,,,,,,,,,,,,,,,,,,,,,,,,,,,,,,0.0,0.0,1.0,0.0,1.0,0.0,,,,,,,,,,,,,,,,,,,,,,,,,,,,,,,,,,,,,,,,,,,,,,,,,,,,,,,,,,,,,,,,,,,,,,
1725716043.323008,1725716043.324626,189.0,0.0,4473.205078,4309.871582,4197.820313,4282.820313,4251.794922,4264.487305,4151.153809,4264.615234,4287.179688,4253.077148,4492.05127,4527.692383,4369.102539,4422.179688,3817.0,1.0,15.0,,,,0.0,4.0,4.0,4.0,4.0,4.0,4.0,4.0,4.0,4.0,4.0,4.0,4.0,4.0,4.0,100.0,,,,,,,,,,,,,,,,,,,,,,,,,,,,,,,,,,,,,,,,,,,,,,,,,,,,,,,,,,,,,,,,,,,,,,,,,,,,,,,,,,,,,,,,,,,,,,,,,,,,,,,,,,,,,,,,,,,,,,,,,,,,,,,,,,,
1725716043.326912,1725716043.32843,190.0,0.0,4473.077148,4308.717773,4197.307617,4278.974121,4255.769043,4265.641113,4151.538574,4264.230957,4284.743652,4249.615234,4490.769043,4523.205078,4367.307617,4417.820313,2880.0,1.0,15.0,,,,0.0,4.0,4.0,4.0,4.0,4.0,4.0,4.0,4.0,4.0,4.0,4.0,4.0,4.0,4.0,100.0,,,,,,,,,,,,,,,,,,,,,,,,,,,,,,,,,,,,,,,,,,,,,,,,,,,,,,,,,,,,,,,,,,,,,,,,,,,,,,,,,,,,,,,,,,,,,,,,,,,,,,,,,,,,,,,,,,,,,,,,,,,,,,,,,,,
1725716043.330816,1725716043.332334,191.0,0.0,4471.538574,4310.128418,4197.820313,4279.871582,4258.717773,4266.922852,4153.077148,4264.487305,4282.94873,4249.102539,4488.205078,4521.410156,4365.384766,4414.743652,3116.0,1.0,15.0,,,,0.0,4.0,4.0,4.0,4.0,4.0,4.0,4.0,4.0,4.0,4.0,4.0,4.0,4.0,4.0,100.0,,,,,,,,,,,,,,,,,,,,,,,,,,,,,,,,,,,,,,,,,,,,,,,,,,,,,,,,,,,,,,,,,,,,,,,,,,,,,,,,,,,,,,,,,,,,,,,,,,,,,,,,,,,,,,,,,,,,,,,,,,,,,,,,,,,
1725716043.33472,1725716043.336238,192.0,0.0,4467.436035,4312.692383,4198.205078,4284.615234,4258.333496,4267.05127,4153.717773,4264.743652,4282.563965,4251.538574,4483.846191,4521.538574,4364.743652,4412.820313,3418.0,1.0,15.0,,,,0.0,4.0,4.0,4.0,4.0,4.0,4.0,4.0,4.0,4.0,4.0,4.0,4.0,4.0,4.0,100.0,,,,,,,,,,,,,,,,,,,,,,,,,,,,,,,,,,,,,,,,,,,,,,,,,,,,,,,,,,,,,,,,,,,,,,,,,,,,,,,,,,,,,,,,,,,,,,,,,,,,,,,,,,,,,,,,,,,,,,,,,,,,,,,,,,,
1725716043.338624,1725716043.340242,193.0,0.0,4461.153809,4314.102539,4197.05127,4289.102539,4254.871582,4266.025879,4152.563965,4264.358887,4283.077148,4255.641113,4478.846191,4521.538574,4365.256348,4412.05127,3817.0,1.0,15.0,,,,0.0,4.0,4.0,4.0,4.0,4.0,4.0,4.0,4.0,4.0,4.0,4.0,4.0,4.0,4.0,100.0,,,,,,,,,,,,,,,,,,,,,,,,,,,,,,,,,,,,,,,,,,,,,,,,,,,,,,,,,,,,,,,,,,,,,,,,,,,,,,,,,,,,,,,,,,,,,,,,,,,,,,,,,,,,,,,,,,,,,,,,,,,,,,,,,,,
1725716043.342528,1725716043.344146,194.0,0.0,4453.846191,4313.461426,4194.102539,4290.128418,4250.897461,4265.128418,4150.769043,4263.974121,4283.333496,4259.871582,4475.256348,4521.282227,4365.128418,4412.307617,2880.0,1.0,15.0,,,,0.0,4.0,4.0,4.0,4.0,4.0,4.0,4.0,4.0,4.0,4.0,4.0,4.0,4.0,4.0,100.0,,,,,,,,,,,,,,,,,,,,,,,,,,,,,,,,,,,,,,,,,,,,,,,,,,,,,,,,,,,,,,,,,,,,,,,,,,,,,,,,,,,,,,,,,,,,,,,,,,,,,,,,,,,,,,,,,,,,,,,,,,,,,,,,,,,
1725716043.346432,1725716043.34805,195.0,0.0,4447.307617,4311.410156,4190.641113,4287.307617,4248.717773,4266.025879,4150.256348,4263.846191,4283.077148,4262.692383,4474.871582,4521.794922,4363.717773,4413.333496,3116.0,1.0,15.0,,,,0.0,4.0,4.0,4.0,4.0,4.0,4.0,4.0,4.0,4.0,4.0,4.0,4.0,4.0,4.0,100.0,,,,,,,,,,,,,,,,,,,,,,,,,,,,,,,,,,,,,,,,,,,,,,,,,,,,,,,,,,,,,,,,,,,,,,,,,,,,,,,,,,,,,,,,,,,,,,,,,,,,,,,,,,,,,,,,,,,,,,,,,,,,,,,,,,,
1725716043.350336,1725716043.352054,196.0,0.0,4441.922852,4309.487305,4188.077148,4284.102539,4248.846191,4268.974121,4151.153809,4263.461426,4282.563965,4262.94873,4477.307617,4523.077148,4361.282227,4413.974121,3418.0,1.0,15.0,,,,0.0,4.0,4.0,4.0,4.0,4.0,4.0,4.0,4.0,4.0,4.0,4.0,4.0,4.0,4.0,100.0,,,,,,,,,,,,,,,,,,,,,,,,,,,,,,,,,,,,,,,,,,,,,,,,,,,,,,,,0.0,0.0,1.0,0.0,1.0,0.0,,,,,,,,,,,,,,,,,,,,,,,,,,,,,,,,,,,,,,,,,,,,,,,,,,,,,,,,,,,,,,,,,,,,,,
1725716043.354241,1725716043.355958,197.0,0.0,4437.179688,4308.461426,4186.666504,4283.589844,4250.0,4272.307617,4152.179688,4262.05127,4281.922852,4260.512695,4479.743652,4523.461426,4359.230957,4413.077148,3817.0,1.0,15.0,,,,0.0,4.0,4.0,4.0,4.0,4.0,4.0,4.0,4.0,4.0,4.0,4.0,4.0,4.0,4.0,100.0,,,,,,,,,,,,,,,,,,,,,,,,,,,,,,,,,,,,,,,,,,,,,,,,,,,,,,,,,,,,,,,,,,,,,,,,,,,,,,,,,,,,,,,,,,,,,,,,,,,,,,,,,,,,,,,,,,,,,,,,,,,,,,,,,,,
1725716043.358145,1725716043.359862,198.0,0.0,4432.307617,4308.205078,4186.410156,4287.307617,4250.512695,4273.846191,4151.538574,4259.487305,4280.769043,4256.538574,4479.487305,4521.410156,4359.358887,4410.512695,2880.0,1.0,15.0,,,,0.0,4.0,4.0,4.0,4.0,4.0,4.0,4.0,4.0,4.0,4.0,4.0,4.0,4.0,4.0,100.0,,,,,,,,,,,,,,,,,,,,,,,,,,,,,,,,,,,,,,,,,,,,,,,,,,,,,,,,,,,,,,,,,,,,,,,,,,,,,,,,,,,,,,,,,,,,,,,,,,,,,,,,,,,,,,,,,,,,,,,,,,,,,,,,,,,
1725716043.362049,1725716043.363766,199.0,0.0,4427.563965,4308.717773,4187.563965,4293.077148,4249.871582,4272.436035,4148.717773,4256.025879,4278.846191,4252.94873,4476.666504,4517.563965,4361.922852,4407.563965,3116.0,1.0,15.0,,,,0.0,4.0,4.0,4.0,4.0,4.0,4.0,4.0,4.0,4.0,4.0,4.0,4.0,4.0,4.0,100.0,,,,,,,,,,,,,,,,,,,,,,,,,,,,,,,,,,,,,,,,,,,,,,,,,,,,,,,,,,,,,,,,,,,,,,,,,,,,,,,,,,,,,,,,,,,,,,,,,,,,,,,,,,,,,,,,,,,,,,,,,,,,,,,,,,,
1725716043.365953,1725716043.36777,200.0,0.0,4423.589844,4310.128418,4189.743652,4297.94873,4249.358887,4269.230957,4145.0,4252.307617,4275.897461,4250.897461,4473.974121,4514.487305,4364.871582,4405.897461,3418.0,1.0,15.0,,,,0.0,4.0,4.0,4.0,4.0,4.0,4.0,4.0,4.0,4.0,4.0,4.0,4.0,4.0,4.0,100.0,,,,,,,,,,,,,,,,,,,,,,,,,,,,,,,,,,,,,,,,,,,,,,,,,,,,,,,,,,,,,,,,,,,,,,,,,,,,,,,,,,,,,,,,,,,,,,,,,,,,,,,,,,,,,,,,,,,,,,,,,,,,,,,,,,,
1725716043.369857,1725716043.371675,201.0,0.0,4420.769043,4312.05127,4192.563965,4299.743652,4250.0,4266.538574,4141.794922,4248.846191,4271.794922,4249.743652,4473.333496,4513.974121,4365.128418,4406.538574,3817.0,1.0,15.0,,,,0.0,4.0,4.0,4.0,4.0,4.0,4.0,4.0,4.0,4.0,4.0,4.0,4.0,4.0,4.0,100.0,,,,,,,,,,,,,,,,,,,,,,,,,,,,,,,,,,,,,,,,,,,,,,,,,,,,,,,,,,,,,,,,,,,,,,,,,,,,,,,,,,,,,,,,,,,,,,,,,,,,,,,,,,,,,,,,,,,,,,,,,,,,,,,,,,,
1725716043.373761,1725716043.375579,202.0,0.0,4418.333496,4313.589844,4194.615234,4298.717773,4251.282227,4265.512695,4140.256348,4246.794922,4267.436035,4248.333496,4474.615234,4516.025879,4361.025879,4409.358887,2880.0,1.0,15.0,,,,0.0,4.0,4.0,4.0,4.0,4.0,4.0,4.0,4.0,4.0,4.0,4.0,4.0,4.0,4.0,100.0,,,,,,,,,,,,,,,,,,,,,,,,,,,,,,,,,,,,,,,,,,,,,,,,,,,,,,,,,,,,,,,,,,,,,,,,,,,,,,,,,,,,,,,,,,,,,,,,,,,,,,,,,,,,,,,,,,,,,,,,,,,,,,,,,,,
1725716043.377665,1725716043.379483,203.0,0.0,4415.512695,4314.102539,4195.256348,4296.922852,4251.666504,4265.897461,4140.256348,4246.666504,4264.230957,4245.512695,4476.025879,4518.846191,4353.974121,4412.94873,3116.0,1.0,15.0,,,,0.0,4.0,4.0,4.0,4.0,4.0,4.0,4.0,4.0,4.0,4.0,4.0,4.0,4.0,4.0,100.0,,,,,,,,,,,,,,,,,,,,,,,,,,,,,,,,,,,,,,,,,,,,,,,,,,,,,,,,,,,,,,,,,,,,,,,,,,,,,,,,,,,,,,,,,,,,,,,,,,,,,,,,,,,,,,,,,,,,,,,,,,,,,,,,,,,
1725716043.381569,1725716043.383487,204.0,0.0,4411.538574,4313.589844,4194.358887,4296.153809,4250.512695,4266.410156,4141.153809,4248.461426,4263.333496,4241.282227,4475.641113,4519.615234,4348.077148,4415.0,3418.0,1.0,15.0,,,,0.0,4.0,4.0,4.0,4.0,4.0,4.0,4.0,4.0,4.0,4.0,4.0,4.0,4.0,4.0,100.0,,,,,,,,,,,,,,,,,,,,,,,,,,,,,,,,,,,,,,,,,,,,,,,,,,,,,,,,0.0,0.0,1.0,0.0,1.0,0.0,,,,,,,,,,,,,,,,,,,,,,,,,,,,,,,,,,,,,,,,,,,,,,,,,,,,,,,,,,,,,,,,,,,,,,
1725716043.385473,1725716043.387391,205.0,0.0,4406.538574,4312.436035,4192.563965,4296.666504,4249.102539,4266.538574,4141.538574,4250.384766,4263.974121,4236.794922,4472.563965,4516.666504,4345.641113,4413.846191,3817.0,1.0,15.0,,,,0.0,4.0,4.0,4.0,4.0,4.0,4.0,4.0,4.0,4.0,4.0,4.0,4.0,4.0,4.0,100.0,,,,,,,,,,,,,,,,,,,,,,,,,,,,,,,,,,,,,,,,,,,,,,,,,,,,,,,,,,,,,,,,,,,,,,,,,,,,,,,,,,,,,,,,,,,,,,,,,,,,,,,,,,,,,,,,,,,,,,,,,,,,,,,,,,,
1725716043.389377,1725716043.391295,206.0,0.0,4401.153809,4311.153809,4190.512695,4297.563965,4248.846191,4266.025879,4139.615234,4249.871582,4263.589844,4233.461426,4467.820313,4510.769043,4346.666504,4409.615234,2880.0,1.0,15.0,,,,0.0,4.0,4.0,4.0,4.0,4.0,4.0,4.0,4.0,4.0,4.0,4.0,4.0,4.0,4.0,100.0,,,,,,,,,,,,,,,,,,,,,,,,,,,,,,,,,,,,,,,,,,,,,,,,,,,,,,,,,,,,,,,,,,,,,,,,,,,,,,,,,,,,,,,,,,,,,,,,,,,,,,,,,,,,,,,,,,,,,,,,,,,,,,,,,,,
1725716043.393281,1725716043.395199,207.0,0.0,4395.897461,4310.128418,4189.358887,4297.94873,4250.0,4265.128418,4134.871582,4245.512695,4260.256348,4232.436035,4463.205078,4503.974121,4348.077148,4404.102539,3116.0,1.0,15.0,,,,0.0,4.0,4.0,4.0,4.0,4.0,4.0,4.0,4.0,4.0,4.0,4.0,4.0,4.0,4.0,100.0,,,,,,,,,,,,,,,,,,,,,,,,,,,,,,,,,,,,,,,,,,,,,,,,,,,,,,,,,,,,,,,,,,,,,,,,,,,,,,,,,,,,,,,,,,,,,,,,,,,,,,,,,,,,,,,,,,,,,,,,,,,,,,,,,,,
1725716043.397185,1725716043.399103,208.0,0.0,4391.282227,4310.0,4189.230957,4297.692383,4251.153809,4264.102539,4128.333496,4238.589844,4254.871582,4233.333496,4459.487305,4498.717773,4347.179688,4399.743652,3418.0,1.0,15.0,,,,0.0,4.0,4.0,4.0,4.0,4.0,4.0,4.0,4.0,4.0,4.0,4.0,4.0,4.0,4.0,100.0,,,,,,,,,,,,,,,,,,,,,,,,,,,,,,,,,,,,,,,,,,,,,,,,,,,,,,,,,,,,,,,,,,,,,,,,,,,,,,,,,,,,,,,,,,,,,,,,,,,,,,,,,,,,,,,,,,,,,,,,,,,,,,,,,,,
1725716043.40109,1725716043.402907,209.0,0.0,4386.410156,4310.769043,4189.615234,4297.179688,4250.897461,4262.94873,4122.179688,4232.307617,4250.0,4235.0,4457.307617,4495.512695,4343.846191,4397.563965,3817.0,1.0,15.0,,,,0.0,4.0,4.0,4.0,4.0,4.0,4.0,4.0,4.0,4.0,4.0,4.0,4.0,4.0,4.0,100.0,,,,,,,,,,,,,,,,,,,,,,,,,,,,,,,,,,,,,,,,,,,,,,,,,,,,,,,,,,,,,,,,,,,,,,,,,,,,,,,,,,,,,,,,,,,,,,,,,,,,,,,,,,,,,,,,,,,,,,,,,,,,,,,,,,,
1725716043.404994,1725716043.406812,210.0,0.0,4380.641113,4311.538574,4189.487305,4297.05127,4249.230957,4262.05127,4117.563965,4229.871582,4248.461426,4236.153809,4456.922852,4493.461426,4340.384766,4396.666504,2880.0,1.0,15.0,,,,0.0,4.0,4.0,4.0,4.0,4.0,4.0,4.0,4.0,4.0,4.0,4.0,4.0,4.0,4.0,100.0,,,,,,,,,,,,,,,,,,,,,,,,,,,,,,,,,,,,,,,,,,,,,,,,,,,,,,,,,,,,,,,,,,,,,,,,,,,,,,,,,,,,,,,,,,,,,,,,,,,,,,,,,,,,,,,,,,,,,,,,,,,,,,,,,,,
1725716043.408898,1725716043.410716,211.0,0.0,4373.589844,4310.769043,4188.333496,4297.05127,4247.563965,4261.666504,4114.358887,4232.563965,4250.897461,4236.025879,4457.94873,4491.538574,4339.487305,4396.025879,3116.0,1.0,15.0,,,,0.0,4.0,4.0,4.0,4.0,4.0,4.0,4.0,4.0,4.0,4.0,4.0,4.0,4.0,4.0,100.0,,,,,,,,,,,,,,,,,,,,,,,,,,,,,,,,,,,,,,,,,,,,,,,,,,,,,,,,,,,,,,,,,,,,,,,,,,,,,,,,,,,,,,,,,,,,,,,,,,,,,,,,,,,,,,,,,,,,,,,,,,,,,,,,,,,
1725716043.412802,1725716043.41462,212.0,0.0,4366.282227,4307.820313,4186.410156,4297.05127,4246.922852,4261.282227,4111.666504,4238.974121,4255.769043,4235.128418,4459.230957,4489.871582,4341.025879,4394.743652,3418.0,1.0,15.0,,,,0.0,4.0,4.0,4.0,4.0,4.0,4.0,4.0,4.0,4.0,4.0,4.0,4.0,4.0,4.0,100.0,,,,,,,,,,,,,,,,,1.0,0.0,0.0,,,,,,,,,,,,,,,,,,,,,,,,,,,,,,,,,,,,,0.0,0.0,1.0,0.0,1.0,0.0,3.221523,1.74935,0.415019,0.27862,0.058041,1.246466,0.765784,0.249125,0.147505,0.057707,3.056036,1.841768,0.911571,0.291848,0.1251,0.988237,0.866505,0.314136,0.138176,0.074447,0.613516,0.307981,0.150212,0.089071,0.05546,0.092026,0.2222,0.293823,0.068329,0.057226,1.660416,0.457852,0.256111,0.128506,0.051402,0.632305,1.185502,0.722797,0.157646,0.131256,0.82425,0.975528,0.448186,0.198883,0.059696,1.55558,1.615283,0.515809,0.320467,0.115272,2.801812,2.334263,0.752961,0.34645,0.164614,2.677447,2.305377,0.908442,0.292069,0.098664,3.43553,2.173273,1.155009,0.339497,0.191317,2.653572,1.841825,0.524204,0.229293,0.087488
1725716043.416706,1725716043.418424,213.0,0.0,4359.743652,4303.077148,4184.871582,4297.05127,4247.307617,4260.897461,4109.358887,4245.641113,4259.615234,4234.615234,4459.487305,4489.358887,4342.307617,4393.077148,3817.0,1.0,15.0,,,,0.0,4.0,4.0,4.0,4.0,4.0,4.0,4.0,4.0,4.0,4.0,4.0,4.0,4.0,4.0,100.0,,,,,,,,,,,,,,,,,,,,,,,,,,,,,,,,,,,,,,,,,,,,,,,,,,,,,,,,,,,,,,,,,,,,,,,,,,,,,,,,,,,,,,,,,,,,,,,,,,,,,,,,,,,,,,,,,,,,,,,,,,,,,,,,,,,
1725716043.42061,1725716043.422328,214.0,0.0,4354.615234,4298.461426,4183.974121,4297.05127,4247.436035,4260.384766,4108.333496,4249.615234,4260.769043,4234.871582,4458.205078,4490.128418,4340.512695,4391.025879,2880.0,1.0,15.0,,,,0.0,4.0,4.0,4.0,4.0,4.0,4.0,4.0,4.0,4.0,4.0,4.0,4.0,4.0,4.0,100.0,,,,,,,,,,,,,,,,,,,,,,,,,,,,,,,,,,,,,,,,,,,,,,,,,,,,,,,,,,,,,,,,,,,,,,,,,,,,,,,,,,,,,,,,,,,,,,,,,,,,,,,,,,,,,,,,,,,,,,,,,,,,,,,,,,,
1725716043.424514,1725716043.426232,215.0,0.0,4350.512695,4295.384766,4183.974121,4297.05127,4245.256348,4260.384766,4109.102539,4249.743652,4259.358887,4234.743652,4455.0,4491.922852,4335.256348,4388.205078,3116.0,1.0,15.0,,,,0.0,4.0,4.0,4.0,4.0,4.0,4.0,4.0,4.0,4.0,4.0,4.0,4.0,4.0,4.0,100.0,,,,,,,,,,,,,,,,,,,,,,,,,,,,,,,,,,,,,,,,,,,,,,,,,,,,,,,,,,,,,,,,,,,,,,,,,,,,,,,,,,,,,,,,,,,,,,,,,,,,,,,,,,,,,,,,,,,,,,,,,,,,,,,,,,,
1725716043.428418,1725716043.430136,216.0,0.0,4346.794922,4294.358887,4184.487305,4297.05127,4240.769043,4260.641113,4111.666504,4248.205078,4257.94873,4233.846191,4451.025879,4493.333496,4328.974121,4385.0,3418.0,1.0,15.0,,,,0.0,4.0,4.0,4.0,4.0,4.0,4.0,4.0,4.0,4.0,4.0,4.0,4.0,4.0,4.0,100.0,,,,,,,,,,,,,,,,,,,,,,,,,,,,,,,,,,,,,,,,,,,,,,,,,,,,,,,,,,,,,,,,,,,,,,,,,,,,,,,,,,,,,,,,,,,,,,,,,,,,,,,,,,,,,,,,,,,,,,,,,,,,,,,,,,,
1725716043.432322,1725716043.43394,217.0,0.0,4342.94873,4295.128418,4185.256348,4297.05127,4235.384766,4260.769043,4115.0,4248.205078,4258.333496,4232.563965,4447.563965,4493.846191,4324.743652,4382.179688,3817.0,1.0,15.0,,,,0.0,4.0,4.0,4.0,4.0,4.0,4.0,4.0,4.0,4.0,4.0,4.0,4.0,4.0,4.0,100.0,,,,,,,,,,,,,,,,,,,,,,,,,,,,,,,,,,,,,,,,,,,,,,,,,,,,,,,,,,,,,,,,,,,,,,,,,,,,,,,,,,,,,,,,,,,,,,,,,,,,,,,,,,,,,,,,,,,,,,,,,,,,,,,,,,,
1725716043.436226,1725716043.437845,218.0,0.0,4339.743652,4296.538574,4186.538574,4297.05127,4231.666504,4260.256348,4117.94873,4250.897461,4260.512695,4231.794922,4445.512695,4493.846191,4323.974121,4380.512695,2880.0,1.0,15.0,,,,0.0,4.0,4.0,4.0,4.0,4.0,4.0,4.0,4.0,4.0,4.0,4.0,4.0,4.0,4.0,100.0,,,,,,,,,,,,,,,,,,,,,,,,,,,,,,,,,,,,,,,,,,,,,,,,,,,,,,,,,,,,,,,,,,,,,,,,,,,,,,,,,,,,,,,,,,,,,,,,,,,,,,,,,,,,,,,,,,,,,,,,,,,,,,,,,,,
1725716043.440131,1725716043.441749,219.0,0.0,4337.820313,4297.436035,4187.692383,4296.922852,4231.666504,4259.871582,4119.871582,4253.846191,4262.05127,4232.179688,4445.0,4493.717773,4325.128418,4380.512695,3116.0,1.0,15.0,,,,0.0,4.0,4.0,4.0,4.0,4.0,4.0,4.0,4.0,4.0,4.0,4.0,4.0,4.0,4.0,100.0,,,,,,,,,,,,,,,,,,,,,,,,,,,,,,,,,,,,,,,,,,,,,,,,,,,,,,,,,,,,,,,,,,,,,,,,,,,,,,,,,,,,,,,,,,,,,,,,,,,,,,,,,,,,,,,,,,,,,,,,,,,,,,,,,,,
1725716043.444035,1725716043.445753,220.0,0.0,4337.05127,4297.307617,4188.205078,4296.794922,4235.256348,4260.256348,4121.282227,4253.077148,4260.897461,4232.692383,4444.615234,4493.205078,4325.384766,4381.666504,3418.0,1.0,15.0,,,,0.0,4.0,4.0,4.0,4.0,4.0,4.0,4.0,4.0,4.0,4.0,4.0,4.0,4.0,4.0,100.0,,,,,,,,,,,,,,,,,,,,,,,,,,,,,,,,,,,,,,,,,,,,,,,,,,,,,,,,0.0,0.0,1.0,0.0,1.0,0.0,,,,,,,,,,,,,,,,,,,,,,,,,,,,,,,,,,,,,,,,,,,,,,,,,,,,,,,,,,,,,,,,,,,,,,
1725716043.447939,1725716043.449657,221.0,0.0,4336.538574,4296.410156,4187.94873,4296.922852,4239.487305,4260.897461,4122.820313,4247.563965,4256.666504,4232.563965,4443.077148,4491.666504,4322.563965,4383.077148,3817.0,1.0,15.0,,,,0.0,4.0,4.0,4.0,4.0,4.0,4.0,4.0,4.0,4.0,4.0,4.0,4.0,4.0,4.0,100.0,,,,,,,,,,,,,,,,,,,,,,,,,,,,,,,,,,,,,,,,,,,,,,,,,,,,,,,,,,,,,,,,,,,,,,,,,,,,,,,,,,,,,,,,,,,,,,,,,,,,,,,,,,,,,,,,,,,,,,,,,,,,,,,,,,,
1725716043.451843,1725716043.453561,222.0,0.0,4335.512695,4295.384766,4187.05127,4297.307617,4241.538574,4260.769043,4124.358887,4240.0,4251.666504,4231.794922,4439.871582,4490.128418,4317.436035,4383.589844,2880.0,1.0,15.0,,,,0.0,4.0,4.0,4.0,4.0,4.0,4.0,4.0,4.0,4.0,4.0,4.0,4.0,4.0,4.0,100.0,,,,,,,,,,,,,,,,,,,,,,,,,,,,,,,,,,,,,,,,,,,,,,,,,,,,,,,,,,,,,,,,,,,,,,,,,,,,,,,,,,,,,,,,,,,,,,,,,,,,,,,,,,,,,,,,,,,,,,,,,,,,,,,,,,,
1725716043.455747,1725716043.457565,223.0,0.0,4333.717773,4294.871582,4186.025879,4297.563965,4240.128418,4258.846191,4125.256348,4234.487305,4248.461426,4231.282227,4436.410156,4489.487305,4312.307617,4382.692383,3116.0,1.0,15.0,,,,0.0,4.0,4.0,4.0,4.0,4.0,4.0,4.0,4.0,4.0,4.0,4.0,4.0,4.0,4.0,100.0,,,,,,,,,,,,,,,,,,,,,,,,,,,,,,,,,,,,,,,,,,,,,,,,,,,,,,,,,,,,,,,,,,,,,,,,,,,,,,,,,,,,,,,,,,,,,,,,,,,,,,,,,,,,,,,,,,,,,,,,,,,,,,,,,,,
1725716043.459651,1725716043.461469,224.0,0.0,4331.153809,4295.0,4185.256348,4297.307617,4236.410156,4256.025879,4125.128418,4233.589844,4248.077148,4231.153809,4434.230957,4489.743652,4310.0,4380.897461,3418.0,1.0,15.0,,,,0.0,4.0,4.0,4.0,4.0,4.0,4.0,4.0,4.0,4.0,4.0,4.0,4.0,4.0,4.0,100.0,,,,,,,,,,,,,,,,,,,,,,,,,,,,,,,,,,,,,,,,,,,,,,,,,,,,,,,,,,,,,,,,,,,,,,,,,,,,,,,,,,,,,,,,,,,,,,,,,,,,,,,,,,,,,,,,,,,,,,,,,,,,,,,,,,,
1725716043.463555,1725716043.465373,225.0,0.0,4327.94873,4294.871582,4185.128418,4296.666504,4233.205078,4253.974121,4124.487305,4236.282227,4248.846191,4231.025879,4433.974121,4490.384766,4310.641113,4379.102539,3817.0,1.0,15.0,,,,0.0,4.0,4.0,4.0,4.0,4.0,4.0,4.0,4.0,4.0,4.0,4.0,4.0,4.0,4.0,100.0,,,,,,,,,,,,,,,,,,,,,,,,,,,,,,,,,,,,,,,,,,,,,,,,,,,,,,,,,,,,,,,,,,,,,,,,,,,,,,,,,,,,,,,,,,,,,,,,,,,,,,,,,,,,,,,,,,,,,,,,,,,,,,,,,,,
1725716043.467459,1725716043.469277,226.0,0.0,4323.717773,4294.102539,4186.025879,4296.282227,4232.94873,4253.461426,4124.871582,4239.358887,4248.846191,4230.256348,4434.615234,4490.512695,4313.077148,4378.717773,2880.0,1.0,15.0,,,,0.0,4.0,4.0,4.0,4.0,4.0,4.0,4.0,4.0,4.0,4.0,4.0,4.0,4.0,4.0,100.0,,,,,,,,,,,,,,,,,,,,,,,,,,,,,,,,,,,,,,,,,,,,,,,,,,,,,,,,,,,,,,,,,,,,,,,,,,,,,,,,,,,,,,,,,,,,,,,,,,,,,,,,,,,,,,,,,,,,,,,,,,,,,,,,,,,
1725716043.471363,1725716043.473281,227.0,0.0,4319.230957,4293.077148,4188.077148,4296.922852,4236.282227,4254.487305,4127.436035,4239.871582,4247.563965,4229.615234,4434.743652,4490.256348,4315.256348,4380.256348,3116.0,1.0,15.0,,,,0.0,4.0,4.0,4.0,4.0,4.0,4.0,4.0,4.0,4.0,4.0,4.0,4.0,4.0,4.0,100.0,,,,,,,,,,,,,,,,,,,,,,,,,,,,,,,,,,,,,,,,,,,,,,,,,,,,,,,,,,,,,,,,,,,,,,,,,,,,,,,,,,,,,,,,,,,,,,,,,,,,,,,,,,,,,,,,,,,,,,,,,,,,,,,,,,,
1725716043.475268,1725716043.477185,228.0,0.0,4315.512695,4292.94873,4190.256348,4298.333496,4241.666504,4256.025879,4132.179688,4237.692383,4246.025879,4229.615234,4433.461426,4490.512695,4316.153809,4382.692383,3418.0,1.0,15.0,,,,0.0,4.0,4.0,4.0,4.0,4.0,4.0,4.0,4.0,4.0,4.0,4.0,4.0,4.0,4.0,100.0,,,,,,,,,,,,,,,,,,,,,,,,,,,,,,,,,,,,,,,,,,,,,,,,,,,,,,,,0.0,0.0,1.0,0.0,1.0,0.0,,,,,,,,,,,,,,,,,,,,,,,,,,,,,,,,,,,,,,,,,,,,,,,,,,,,,,,,,,,,,,,,,,,,,,
1725716043.479172,1725716043.481089,229.0,0.0,4313.589844,4294.230957,4190.897461,4299.743652,4246.153809,4256.666504,4137.05127,4234.487305,4245.128418,4230.0,4431.282227,4491.410156,4315.384766,4384.743652,3817.0,1.0,15.0,,,,0.0,4.0,4.0,4.0,4.0,4.0,4.0,4.0,4.0,4.0,4.0,4.0,4.0,4.0,4.0,100.0,,,,,,,,,,,,,,,,,,,,,,,,,,,,,,,,,,,,,,,,,,,,,,,,,,,,,,,,,,,,,,,,,,,,,,,,,,,,,,,,,,,,,,,,,,,,,,,,,,,,,,,,,,,,,,,,,,,,,,,,,,,,,,,,,,,
1725716043.483076,1725716043.484994,230.0,0.0,4313.077148,4295.641113,4189.230957,4300.128418,4247.436035,4255.512695,4139.743652,4232.692383,4245.512695,4230.256348,4429.358887,4492.563965,4313.461426,4385.128418,2880.0,1.0,15.0,,,,0.0,4.0,4.0,4.0,4.0,4.0,4.0,4.0,4.0,4.0,4.0,4.0,4.0,4.0,4.0,100.0,,,,,,,,,,,,,,,,,,,,,,,,,,,,,,,,,,,,,,,,,,,,,,,,,,,,,,,,,,,,,,,,,,,,,,,,,,,,,,,,,,,,,,,,,,,,,,,,,,,,,,,,,,,,,,,,,,,,,,,,,,,,,,,,,,,
1725716043.48698,1725716043.488998,231.0,0.0,4312.692383,4295.897461,4186.538574,4299.102539,4245.128418,4252.436035,4139.487305,4233.461426,4246.922852,4229.230957,4428.205078,4493.077148,4310.769043,4383.717773,3116.0,1.0,15.0,,,,0.0,4.0,4.0,4.0,4.0,4.0,4.0,4.0,4.0,4.0,4.0,4.0,4.0,4.0,4.0,100.0,,,,,,,,,,,,,,,,,,,,,,,,,,,,,,,,,,,,,,,,,,,,,,,,,,,,,,,,,,,,,,,,,,,,,,,,,,,,,,,,,,,,,,,,,,,,,,,,,,,,,,,,,,,,,,,,,,,,,,,,,,,,,,,,,,,
1725716043.490884,1725716043.492902,232.0,0.0,4310.897461,4293.461426,4184.358887,4297.179688,4240.641113,4248.974121,4138.077148,4235.769043,4248.333496,4226.538574,4427.820313,4492.05127,4307.692383,4380.897461,3418.0,1.0,15.0,,,,0.0,4.0,4.0,4.0,4.0,4.0,4.0,4.0,4.0,4.0,4.0,4.0,4.0,4.0,4.0,100.0,,,,,,,,,,,,,,,,,,,,,,,,,,,,,,,,,,,,,,,,,,,,,,,,,,,,,,,,,,,,,,,,,,,,,,,,,,,,,,,,,,,,,,,,,,,,,,,,,,,,,,,,,,,,,,,,,,,,,,,,,,,,,,,,,,,
1725716043.494788,1725716043.496806,233.0,0.0,4307.307617,4288.846191,4183.461426,4295.641113,4236.282227,4247.179688,4137.94873,4237.94873,4248.717773,4222.563965,4427.692383,4489.358887,4304.230957,4377.307617,3817.0,1.0,15.0,,,,0.0,4.0,4.0,4.0,4.0,4.0,4.0,4.0,4.0,4.0,4.0,4.0,4.0,4.0,4.0,100.0,,,,,,,,,,,,,,,,,,,,,,,,,,,,,,,,,,,,,,,,,,,,,,,,,,,,,,,,,,,,,,,,,,,,,,,,,,,,,,,,,,,,,,,,,,,,,,,,,,,,,,,,,,,,,,,,,,,,,,,,,,,,,,,,,,,
1725716043.498692,1725716043.50071,234.0,0.0,4302.563965,4283.461426,4182.94873,4295.256348,4233.846191,4248.205078,4139.358887,4238.461426,4247.820313,4219.102539,4427.179688,4485.384766,4301.025879,4373.846191,2880.0,1.0,15.0,,,,0.0,4.0,4.0,4.0,4.0,4.0,4.0,4.0,4.0,4.0,4.0,4.0,4.0,4.0,4.0,100.0,,,,,,,,,,,,,,,,,,,,,,,,,,,,,,,,,,,,,,,,,,,,,,,,,,,,,,,,,,,,,,,,,,,,,,,,,,,,,,,,,,,,,,,,,,,,,,,,,,,,,,,,,,,,,,,,,,,,,,,,,,,,,,,,,,,
1725716043.502596,1725716043.504614,235.0,0.0,4298.333496,4279.487305,4181.025879,4295.512695,4233.461426,4250.769043,4140.769043,4237.563965,4246.922852,4217.307617,4426.025879,4481.153809,4298.461426,4371.538574,3116.0,1.0,15.0,,,,0.0,4.0,4.0,4.0,4.0,4.0,4.0,4.0,4.0,4.0,4.0,4.0,4.0,4.0,4.0,100.0,,,,,,,,,,,,,,,,,,,,,,,,,,,,,,,,,,,,,,,,,,,,,,,,,,,,,,,,,,,,,,,,,,,,,,,,,,,,,,,,,,,,,,,,,,,,,,,,,,,,,,,,,,,,,,,,,,,,,,,,,,,,,,,,,,,
1725716043.5065,1725716043.508418,236.0,0.0,4295.256348,4278.333496,4177.692383,4295.0,4234.230957,4252.563965,4140.769043,4236.282227,4247.436035,4217.563965,4424.102539,4477.563965,4297.05127,4371.025879,3418.0,1.0,15.0,,,,0.0,4.0,4.0,4.0,4.0,4.0,4.0,4.0,4.0,4.0,4.0,4.0,4.0,4.0,4.0,100.0,,,,,,,,,,,,,,,,,,,,,,,,,,,,,,,,,,,,,,,,,,,,,,,,,,,,,,,,0.0,0.0,1.0,0.0,1.0,0.0,,,,,,,,,,,,,,,,,,,,,,,,,,,,,,,,,,,,,,,,,,,,,,,,,,,,,,,,,,,,,,,,,,,,,,
1725716043.510404,1725716043.512322,237.0,0.0,4292.692383,4279.230957,4173.589844,4293.333496,4234.871582,4252.179688,4139.871582,4235.641113,4248.846191,4218.974121,4421.538574,4475.384766,4296.538574,4371.794922,3817.0,1.0,15.0,,,,0.0,4.0,4.0,4.0,4.0,4.0,4.0,4.0,4.0,4.0,4.0,4.0,4.0,4.0,4.0,100.0,,,,,,,,,,,,,,,,,,,,,,,,,,,,,,,,,,,,,,,,,,,,,,,,,,,,,,,,,,,,,,,,,,,,,,,,,,,,,,,,,,,,,,,,,,,,,,,,,,,,,,,,,,,,,,,,,,,,,,,,,,,,,,,,,,,
1725716043.514309,1725716043.516226,238.0,0.0,4289.230957,4280.384766,4170.256348,4291.410156,4235.256348,4250.128418,4140.256348,4235.256348,4249.230957,4219.871582,4418.461426,4474.615234,4296.282227,4372.692383,2880.0,1.0,15.0,,,,0.0,4.0,4.0,4.0,4.0,4.0,4.0,4.0,4.0,4.0,4.0,4.0,4.0,4.0,4.0,100.0,,,,,,,,,,,,,,,,,,,,,,,,,,,,,,,,,,,,,,,,,,,,,,,,,,,,,,,,,,,,,,,,,,,,,,,,,,,,,,,,,,,,,,,,,,,,,,,,,,,,,,,,,,,,,,,,,,,,,,,,,,,,,,,,,,,
1725716043.518213,1725716043.52013,239.0,0.0,4283.974121,4280.641113,4168.717773,4290.384766,4235.384766,4248.205078,4143.333496,4234.230957,4247.307617,4219.230957,4415.769043,4475.256348,4296.025879,4372.307617,3116.0,1.0,15.0,,,,0.0,4.0,4.0,4.0,4.0,4.0,4.0,4.0,4.0,4.0,4.0,4.0,4.0,4.0,4.0,100.0,,,,,,,,,,,,,,,,,,,,,,,,,,,,,,,,,,,,,,,,,,,,,,,,,,,,,,,,,,,,,,,,,,,,,,,,,,,,,,,,,,,,,,,,,,,,,,,,,,,,,,,,,,,,,,,,,,,,,,,,,,,,,,,,,,,
1725716043.522117,1725716043.523935,240.0,0.0,4277.563965,4279.871582,4168.846191,4291.025879,4235.512695,4247.692383,4148.589844,4232.307617,4243.205078,4217.436035,4414.358887,4476.410156,4296.025879,4370.512695,3418.0,1.0,15.0,,,,0.0,4.0,4.0,4.0,4.0,4.0,4.0,4.0,4.0,4.0,4.0,4.0,4.0,4.0,4.0,100.0,,,,,,,,,,,,,,,,,,,,,,,,,,,,,,,,,,,,,,,,,,,,,,,,,,,,,,,,,,,,,,,,,,,,,,,,,,,,,,,,,,,,,,,,,,,,,,,,,,,,,,,,,,,,,,,,,,,,,,,,,,,,,,,,,,,
1725716043.526021,1725716043.527839,241.0,0.0,4271.666504,4279.230957,4170.0,4292.94873,4235.512695,4248.077148,4153.717773,4230.384766,4238.333496,4215.769043,4414.487305,4476.922852,4296.153809,4367.563965,3817.0,1.0,15.0,,,,0.0,4.0,4.0,4.0,4.0,4.0,4.0,4.0,4.0,4.0,4.0,4.0,4.0,4.0,4.0,100.0,,,,,,,,,,,,,,,,,,,,,,,,,,,,,,,,,,,,,,,,,,,,,,,,,,,,,,,,,,,,,,,,,,,,,,,,,,,,,,,,,,,,,,,,,,,,,,,,,,,,,,,,,,,,,,,,,,,,,,,,,,,,,,,,,,,
1725716043.529925,1725716043.531743,242.0,0.0,4267.436035,4279.487305,4171.538574,4294.615234,4235.128418,4248.333496,4155.641113,4229.615234,4234.487305,4215.256348,4414.743652,4475.641113,4296.282227,4364.615234,2880.0,1.0,15.0,,,,0.0,4.0,4.0,4.0,4.0,4.0,4.0,4.0,4.0,4.0,4.0,4.0,4.0,4.0,4.0,100.0,,,,,,,,,,,,,,,,,,,,,,,,,,,,,,,,,,,,,,,,,,,,,,,,,,,,,,,,,,,,,,,,,,,,,,,,,,,,,,,,,,,,,,,,,,,,,,,,,,,,,,,,,,,,,,,,,,,,,,,,,,,,,,,,,,,
1725716043.533829,1725716043.535647,243.0,0.0,4264.230957,4280.641113,4173.717773,4295.256348,4234.102539,4248.333496,4153.846191,4229.743652,4232.307617,4215.769043,4413.974121,4472.94873,4295.897461,4362.820313,3116.0,1.0,15.0,,,,0.0,4.0,4.0,4.0,4.0,4.0,4.0,4.0,4.0,4.0,4.0,4.0,4.0,4.0,4.0,100.0,,,,,,,,,,,,,,,,,,,,,,,,,,,,,,,,,,,,,,,,,,,,,,,,,,,,,,,,,,,,,,,,,,,,,,,,,,,,,,,,,,,,,,,,,,,,,,,,,,,,,,,,,,,,,,,,,,,,,,,,,,,,,,,,,,,
1725716043.537733,1725716043.539451,244.0,0.0,4260.512695,4282.307617,4176.922852,4295.0,4232.94873,4248.333496,4150.384766,4230.256348,4231.922852,4216.666504,4412.179688,4470.512695,4295.128418,4363.205078,3418.0,1.0,15.0,,,,0.0,4.0,4.0,4.0,4.0,4.0,4.0,4.0,4.0,4.0,4.0,4.0,4.0,4.0,4.0,100.0,,,,,,,,,,,,,,,,,1.0,0.0,0.0,,,,,,,,,,,,,,,,,,,,,,,,,,,,,,,,,,,,,0.0,0.0,1.0,0.0,1.0,0.0,3.816482,2.247832,0.406336,0.353467,0.059378,1.58891,0.958113,0.214239,0.185629,0.057799,5.110902,2.669029,1.146915,0.400494,0.162517,1.144012,0.94952,0.346096,0.179454,0.082525,0.557562,0.343351,0.183211,0.086427,0.053117,0.118838,0.227784,0.374593,0.086073,0.064919,1.783858,0.402545,0.285925,0.150321,0.059544,0.898244,1.093939,0.737487,0.180994,0.140239,1.152457,0.875998,0.521607,0.239985,0.064472,1.993569,1.826701,0.566134,0.384669,0.110256,3.804094,2.843057,0.848749,0.426357,0.189711,3.287313,2.620619,0.994999,0.375375,0.121372,4.193672,2.75158,1.301295,0.40335,0.224479,3.37785,2.231649,0.505791,0.306704,0.109478
1725716043.541637,1725716043.543355,245.0,0.0,4255.256348,4283.077148,4180.897461,4295.128418,4232.436035,4248.717773,4148.974121,4230.512695,4233.333496,4216.922852,4411.153809,4470.897461,4294.743652,4365.641113,3817.0,1.0,15.0,,,,0.0,4.0,4.0,4.0,4.0,4.0,4.0,4.0,4.0,4.0,4.0,4.0,4.0,4.0,4.0,100.0,,,,,,,,,,,,,,,,,,,,,,,,,,,,,,,,,,,,,,,,,,,,,,,,,,,,,,,,,,,,,,,,,,,,,,,,,,,,,,,,,,,,,,,,,,,,,,,,,,,,,,,,,,,,,,,,,,,,,,,,,,,,,,,,,,,
1725716043.545541,1725716043.547259,246.0,0.0,4248.846191,4282.436035,4184.358887,4296.666504,4233.077148,4249.871582,4152.05127,4230.897461,4236.153809,4216.922852,4412.563965,4474.871582,4295.897461,4368.846191,2880.0,1.0,15.0,,,,0.0,4.0,4.0,4.0,4.0,4.0,4.0,4.0,4.0,4.0,4.0,4.0,4.0,4.0,4.0,100.0,,,,,,,,,,,,,,,,,,,,,,,,,,,,,,,,,,,,,,,,,,,,,,,,,,,,,,,,,,,,,,,,,,,,,,,,,,,,,,,,,,,,,,,,,,,,,,,,,,,,,,,,,,,,,,,,,,,,,,,,,,,,,,,,,,,
1725716043.549446,1725716043.551064,247.0,0.0,4242.05127,4281.282227,4186.153809,4298.717773,4234.871582,4251.922852,4158.589844,4232.436035,4239.615234,4217.563965,4417.307617,4481.025879,4298.974121,4371.282227,3116.0,1.0,15.0,,,,0.0,4.0,4.0,4.0,4.0,4.0,4.0,4.0,4.0,4.0,4.0,4.0,4.0,4.0,4.0,100.0,,,,,,,,,,,,,,,,,,,,,,,,,,,,,,,,,,,,,,,,,,,,,,,,,,,,,,,,,,,,,,,,,,,,,,,,,,,,,,,,,,,,,,,,,,,,,,,,,,,,,,,,,,,,,,,,,,,,,,,,,,,,,,,,,,,
1725716043.55335,1725716043.554968,248.0,0.0,4235.641113,4280.384766,4186.025879,4300.128418,4236.794922,4254.487305,4165.0,4235.512695,4243.077148,4219.230957,4423.461426,4486.794922,4303.077148,4371.794922,3418.0,1.0,15.0,,,,0.0,4.0,4.0,4.0,4.0,4.0,4.0,4.0,4.0,4.0,4.0,4.0,4.0,4.0,4.0,100.0,,,,,,,,,,,,,,,,,,,,,,,,,,,,,,,,,,,,,,,,,,,,,,,,,,,,,,,,,,,,,,,,,,,,,,,,,,,,,,,,,,,,,,,,,,,,,,,,,,,,,,,,,,,,,,,,,,,,,,,,,,,,,,,,,,,
1725716043.557254,1725716043.558872,249.0,0.0,4228.461426,4280.384766,4185.384766,4299.743652,4237.820313,4256.666504,4168.333496,4239.871582,4245.897461,4221.538574,4428.205078,4489.871582,4306.282227,4370.512695,3817.0,1.0,15.0,,,,0.0,4.0,4.0,4.0,4.0,4.0,4.0,4.0,4.0,4.0,4.0,4.0,4.0,4.0,4.0,100.0,,,,,,,,,,,,,,,,,,,,,,,,,,,,,,,,,,,,,,,,,,,,,,,,,,,,,,,,,,,,,,,,,,,,,,,,,,,,,,,,,,,,,,,,,,,,,,,,,,,,,,,,,,,,,,,,,,,,,,,,,,,,,,,,,,,
1725716043.561158,1725716043.562876,250.0,0.0,4219.487305,4280.769043,4186.282227,4298.077148,4237.436035,4257.692383,4168.846191,4244.102539,4247.94873,4223.717773,4429.102539,4490.256348,4307.179688,4368.846191,2880.0,1.0,15.0,,,,0.0,4.0,4.0,4.0,4.0,4.0,4.0,4.0,4.0,4.0,4.0,4.0,4.0,4.0,4.0,100.0,,,,,,,,,,,,,,,,,,,,,,,,,,,,,,,,,,,,,,,,,,,,,,,,,,,,,,,,,,,,,,,,,,,,,,,,,,,,,,,,,,,,,,,,,,,,,,,,,,,,,,,,,,,,,,,,,,,,,,,,,,,,,,,,,,,
1725716043.565062,1725716043.56678,251.0,0.0,4208.846191,4280.641113,4189.871582,4296.282227,4236.025879,4258.333496,4168.589844,4247.179688,4249.230957,4225.512695,4426.794922,4489.743652,4305.769043,4368.846191,3116.0,1.0,15.0,,,,0.0,4.0,4.0,4.0,4.0,4.0,4.0,4.0,4.0,4.0,4.0,4.0,4.0,4.0,4.0,100.0,,,,,,,,,,,,,,,,,,,,,,,,,,,,,,,,,,,,,,,,,,,,,,,,,,,,,,,,,,,,,,,,,,,,,,,,,,,,,,,,,,,,,,,,,,,,,,,,,,,,,,,,,,,,,,,,,,,,,,,,,,,,,,,,,,,
1725716043.568966,1725716043.570684,252.0,0.0,4197.820313,4279.743652,4194.871582,4296.153809,4234.230957,4259.102539,4169.615234,4249.102539,4249.871582,4226.922852,4423.846191,4490.128418,4303.717773,4371.153809,3418.0,1.0,15.0,,,,0.0,4.0,4.0,4.0,4.0,4.0,4.0,4.0,4.0,4.0,4.0,4.0,4.0,4.0,4.0,100.0,,,,,,,,,,,,,,,,,,,,,,,,,,,,,,,,,,,,,,,,,,,,,,,,,,,,,,,,0.0,0.0,1.0,0.0,1.0,0.0,,,,,,,,,,,,,,,,,,,,,,,,,,,,,,,,,,,,,,,,,,,,,,,,,,,,,,,,,,,,,,,,,,,,,,
1725716043.57287,1725716043.574588,253.0,0.0,4187.820313,4278.205078,4198.717773,4298.077148,4232.820313,4259.871582,4172.307617,4249.743652,4249.871582,4228.205078,4423.333496,4491.538574,4302.820313,4374.615234,3817.0,1.0,15.0,,,,0.0,4.0,4.0,4.0,4.0,4.0,4.0,4.0,4.0,4.0,4.0,4.0,4.0,4.0,4.0,100.0,,,,,,,,,,,,,,,,,,,,,,,,,,,,,,,,,,,,,,,,,,,,,,,,,,,,,,,,,,,,,,,,,,,,,,,,,,,,,,,,,,,,,,,,,,,,,,,,,,,,,,,,,,,,,,,,,,,,,,,,,,,,,,,,,,,
1725716043.576774,1725716043.578592,254.0,0.0,4178.589844,4276.538574,4199.871582,4301.025879,4232.307617,4259.615234,4176.538574,4249.358887,4249.358887,4229.615234,4425.641113,4492.94873,4303.589844,4376.538574,2880.0,1.0,15.0,,,,0.0,4.0,4.0,4.0,4.0,4.0,4.0,4.0,4.0,4.0,4.0,4.0,4.0,4.0,4.0,100.0,,,,,,,,,,,,,,,,,,,,,,,,,,,,,,,,,,,,,,,,,,,,,,,,,,,,,,,,,,,,,,,,,,,,,,,,,,,,,,,,,,,,,,,,,,,,,,,,,,,,,,,,,,,,,,,,,,,,,,,,,,,,,,,,,,,
1725716043.580678,1725716043.582496,255.0,0.0,4168.717773,4275.769043,4199.102539,4303.461426,4232.94873,4258.077148,4181.410156,4247.820313,4249.230957,4230.769043,4428.717773,4493.589844,4304.743652,4375.256348,15.0,1.0,15.0,,,,0.0,4.0,4.0,4.0,4.0,4.0,4.0,4.0,4.0,4.0,4.0,4.0,4.0,4.0,4.0,100.0,,,,,,,,,,,,,,,,,,,,,,,,,,,,,,,,,,,,,,,,,,,,,,,,,,,,,,,,,,,,,,,,,,,,,,,,,,,,,,,,,,,,,,,,,,,,,,,,,,,,,,,,,,,,,,,,,,,,,,,,,,,,,,,,,,,
1725716043.584582,1725716043.5864,0.0,0.0,4157.563965,4276.410156,4198.333496,4304.743652,4234.487305,4256.025879,4186.666504,4245.0,4249.615234,4231.025879,4429.358887,4493.205078,4305.0,4371.410156,2683.0,1.0,15.0,,,,0.0,4.0,4.0,4.0,4.0,4.0,4.0,4.0,4.0,4.0,4.0,4.0,4.0,4.0,4.0,100.0,,,,,,,,,,,,,,,,,,,,,,,,,,,,,,,,,,,,,,,,,,,,,,,,,,,,,,,,,,,,,,,,,,,,,,,,,,,,,,,,,,,,,,,,,,,,,,,,,,,,,,,,,,,,,,,,,,,,,,,,,,,,,,,,,,,
1725716043.588487,1725716043.590304,1.0,0.0,4145.0,4278.077148,4198.717773,4305.128418,4235.897461,4254.487305,4191.410156,4240.897461,4250.641113,4229.487305,4426.153809,4492.563965,4303.717773,4367.563965,2571.0,1.0,15.0,,,,0.0,4.0,4.0,4.0,4.0,4.0,4.0,4.0,4.0,4.0,4.0,4.0,4.0,4.0,4.0,100.0,,,,,,,,,,,,,,,,,,,,,,,,,,,,,,,,,,,,,,,,,,,,,,,,,,,,,,,,,,,,,,,,,,,,,,,,,,,,,,,,,,,,,,,,,,,,,,,,,,,,,,,,,,,,,,,,,,,,,,,,,,,,,,,,,,,
1725716043.592391,1725716043.594308,2.0,0.0,4132.436035,4280.0,4200.0,4305.897461,4236.282227,4253.846191,4195.512695,4236.538574,4251.025879,4225.897461,4420.512695,4491.666504,4301.153809,4366.538574,2516.0,1.0,15.0,,,,0.0,4.0,4.0,4.0,4.0,4.0,4.0,4.0,4.0,4.0,4.0,4.0,4.0,4.0,4.0,100.0,,,,,,,,,,,,,,,,,,,,,,,,,,,,,,,,,,,,,,,,,,,,,,,,,,,,,,,,,,,,,,,,,,,,,,,,,,,,,,,,,,,,,,,,,,,,,,,,,,,,,,,,,,,,,,,,,,,,,,,,,,,,,,,,,,,
1725716043.596295,1725716043.598213,3.0,0.0,4120.897461,4281.282227,4201.153809,4307.307617,4235.384766,4253.846191,4199.230957,4233.461426,4249.871582,4221.410156,4415.384766,4489.615234,4298.205078,4368.846191,2453.0,1.0,15.0,,,,0.0,4.0,4.0,4.0,4.0,4.0,4.0,4.0,4.0,4.0,4.0,4.0,4.0,4.0,4.0,100.0,,,,,,,,,,,,,,,,,,,,,,,,,,,,,,,,,,,,,,,,,,,,,,,,,,,,,,,,,,,,,,,,,,,,,,,,,,,,,,,,,,,,,,,,,,,,,,,,,,,,,,,,,,,,,,,,,,,,,,,,,,,,,,,,,,,
1725716043.600199,1725716043.602117,4.0,0.0,4110.512695,4281.794922,4202.05127,4309.102539,4233.974121,4254.102539,4203.333496,4232.820313,4246.282227,4217.94873,4412.94873,4486.025879,4296.282227,4372.563965,2434.0,1.0,15.0,,,,0.0,4.0,4.0,4.0,4.0,4.0,4.0,4.0,4.0,4.0,4.0,4.0,4.0,4.0,4.0,100.0,,,,,,,,,,,,,,,,,,,,,,,,,,,,,,,,,,,,,,,,,,,,,,,,,,,,,,,,0.0,0.0,1.0,0.0,1.0,0.0,,,,,,,,,,,,,,,,,,,,,,,,,,,,,,,,,,,,,,,,,,,,,,,,,,,,,,,,,,,,,,,,,,,,,,
1725716043.604103,1725716043.606021,5.0,0.0,4100.641113,4282.179688,4202.563965,4310.769043,4233.846191,4254.487305,4209.102539,4233.589844,4240.769043,4216.794922,4412.94873,4481.153809,4296.282227,4374.743652,2389.0,1.0,15.0,,,,0.0,4.0,4.0,4.0,4.0,4.0,4.0,4.0,4.0,4.0,4.0,4.0,4.0,4.0,4.0,100.0,,,,,,,,,,,,,,,,,,,,,,,,,,,,,,,,,,,,,,,,,,,,,,,,,,,,,,,,,,,,,,,,,,,,,,,,,,,,,,,,,,,,,,,,,,,,,,,,,,,,,,,,,,,,,,,,,,,,,,,,,,,,,,,,,,,
1725716043.608007,1725716043.609925,6.0,0.0,4090.128174,4283.077148,4203.846191,4311.794922,4236.282227,4255.256348,4216.410156,4233.461426,4235.256348,4217.820313,4413.846191,4477.05127,4297.179688,4373.846191,2414.0,1.0,15.0,,,,0.0,4.0,4.0,4.0,4.0,4.0,4.0,4.0,4.0,4.0,4.0,4.0,4.0,4.0,4.0,100.0,,,,,,,,,,,,,,,,,,,,,,,,,,,,,,,,,,,,,,,,,,,,,,,,,,,,,,,,,,,,,,,,,,,,,,,,,,,,,,,,,,,,,,,,,,,,,,,,,,,,,,,,,,,,,,,,,,,,,,,,,,,,,,,,,,,
1725716043.611911,1725716043.613729,7.0,0.0,4078.589844,4284.230957,4206.922852,4311.794922,4240.384766,4256.794922,4224.487305,4230.256348,4231.666504,4219.358887,4413.846191,4475.384766,4297.179688,4370.256348,2489.0,1.0,15.0,,,,0.0,4.0,4.0,4.0,4.0,4.0,4.0,4.0,4.0,4.0,4.0,4.0,4.0,4.0,4.0,100.0,,,,,,,,,,,,,,,,,,,,,,,,,,,,,,,,,,,,,,,,,,,,,,,,,,,,,,,,,,,,,,,,,,,,,,,,,,,,,,,,,,,,,,,,,,,,,,,,,,,,,,,,,,,,,,,,,,,,,,,,,,,,,,,,,,,
1725716043.615815,1725716043.617633,8.0,0.0,4066.025635,4285.128418,4211.922852,4311.153809,4243.589844,4259.102539,4231.666504,4224.871582,4230.897461,4219.230957,4412.179688,4476.282227,4295.0,4365.897461,2463.0,1.0,15.0,,,,0.0,4.0,4.0,4.0,4.0,4.0,4.0,4.0,4.0,4.0,4.0,4.0,4.0,4.0,4.0,100.0,,,,,,,,,,,,,,,,,,,,,,,,,,,,,,,,,,,,,,,,,,,,,,,,,,,,,,,,,,,,,,,,,,,,,,,,,,,,,,,,,,,,,,,,,,,,,,,,,,,,,,,,,,,,,,,,,,,,,,,,,,,,,,,,,,,
1725716043.619719,1725716043.621537,9.0,0.0,4052.435791,4285.128418,4216.538574,4310.128418,4243.589844,4261.282227,4236.794922,4219.871582,4231.666504,4216.282227,4407.94873,4477.179688,4291.538574,4362.563965,2563.0,1.0,15.0,,,,0.0,4.0,4.0,4.0,4.0,4.0,4.0,4.0,4.0,4.0,4.0,4.0,4.0,4.0,4.0,100.0,,,,,,,,,,,,,,,,,,,,,,,,,,,,,,,,,,,,,,,,,,,,,,,,,,,,,,,,,,,,,,,,,,,,,,,,,,,,,,,,,,,,,,,,,,,,,,,,,,,,,,,,,,,,,,,,,,,,,,,,,,,,,,,,,,,
1725716043.623623,1725716043.625441,10.0,0.0,4037.179443,4284.615234,4218.333496,4309.487305,4240.256348,4262.179688,4240.256348,4217.563965,4231.153809,4210.256348,4401.794922,4475.256348,4287.94873,4360.128418,2880.0,1.0,15.0,,,,0.0,4.0,4.0,4.0,4.0,4.0,4.0,4.0,4.0,4.0,4.0,4.0,4.0,4.0,4.0,100.0,,,,,,,,,,,,,,,,,,,,,,,,,,,,,,,,,,,,,,,,,,,,,,,,,,,,,,,,,,,,,,,,,,,,,,,,,,,,,,,,,,,,,,,,,,,,,,,,,,,,,,,,,,,,,,,,,,,,,,,,,,,,,,,,,,,
1725716043.627527,1725716043.629246,11.0,0.0,4019.230713,4283.205078,4215.641113,4308.974121,4236.025879,4261.282227,4243.333496,4217.05127,4227.05127,4202.692383,4394.487305,4468.846191,4284.615234,4357.307617,3116.0,1.0,15.0,,,,0.0,4.0,4.0,4.0,4.0,4.0,4.0,4.0,4.0,4.0,4.0,4.0,4.0,4.0,4.0,100.0,,,,,,,,,,,,,,,,,,,,,,,,,,,,,,,,,,,,,,,,,,,,,,,,,,,,,,,,,,,,,,,,,,,,,,,,,,,,,,,,,,,,,,,,,,,,,,,,,,,,,,,,,,,,,,,,,,,,,,,,,,,,,,,,,,,
1725716043.631431,1725716043.63315,12.0,0.0,3998.076904,4280.897461,4209.871582,4307.820313,4233.589844,4259.487305,4247.307617,4215.641113,4219.615234,4195.128418,4387.179688,4458.846191,4280.256348,4352.307617,3418.0,1.0,15.0,,,,0.0,4.0,4.0,4.0,4.0,4.0,4.0,4.0,4.0,4.0,4.0,4.0,4.0,4.0,4.0,100.0,,,,,,,,,,,,,,,,,,,,,,,,,,,,,,,,,,,,,,,,,,,,,,,,,,,,,,,,0.0,0.0,1.0,0.0,1.0,0.0,,,,,,,,,,,,,,,,,,,,,,,,,,,,,,,,,,,,,,,,,,,,,,,,,,,,,,,,,,,,,,,,,,,,,,
1725716043.635336,1725716043.637054,13.0,0.0,3974.615479,4277.307617,4203.974121,4304.102539,4233.205078,4258.461426,4252.692383,4211.794922,4211.538574,4188.846191,4380.128418,4447.179688,4272.94873,4344.615234,3815.0,1.0,15.0,,,,0.0,4.0,4.0,4.0,4.0,4.0,4.0,4.0,4.0,4.0,4.0,4.0,4.0,4.0,4.0,100.0,,,,,,,,,,,,,,,,,,,,,,,,,,,,,,,,,,,,,,,,,,,,,,,,,,,,,,,,,,,,,,,,,,,,,,,,,,,,,,,,,,,,,,,,,,,,,,,,,,,,,,,,,,,,,,,,,,,,,,,,,,,,,,,,,,,
1725716043.63924,1725716043.640958,14.0,0.0,3950.641113,4272.307617,4200.128418,4296.922852,4232.820313,4259.358887,4258.974121,4206.538574,4206.153809,4183.974121,4372.692383,4436.153809,4262.179688,4334.871582,2880.0,1.0,15.0,,,,0.0,4.0,4.0,4.0,4.0,4.0,4.0,4.0,4.0,4.0,4.0,4.0,4.0,4.0,4.0,100.0,,,,,,,,,,,,,,,,,,,,,,,,,,,,,,,,,,,,,,,,,,,,,,,,,,,,,,,,,,,,,,,,,,,,,,,,,,,,,,,,,,,,,,,,,,,,,,,,,,,,,,,,,,,,,,,,,,,,,,,,,,,,,,,,,,,
1725716043.643144,1725716043.644762,15.0,0.0,3928.205078,4266.025879,4198.589844,4287.692383,4230.384766,4261.666504,4265.128418,4202.563965,4205.256348,4180.512695,4365.512695,4427.307617,4250.769043,4325.384766,3116.0,1.0,15.0,,,,0.0,4.0,4.0,4.0,4.0,4.0,4.0,4.0,4.0,4.0,4.0,4.0,4.0,4.0,4.0,100.0,,,,,,,,,,,,,,,,,,,,,,,,,,,,,,,,,,,,,,,,,,,,,,,,,,,,,,,,,,,,,,,,,,,,,,,,,,,,,,,,,,,,,,,,,,,,,,,,,,,,,,,,,,,,,,,,,,,,,,,,,,,,,,,,,,,
1725716043.647048,1725716043.648666,16.0,0.0,3908.461426,4260.128418,4197.820313,4279.358887,4226.025879,4263.333496,4271.153809,4201.794922,4207.94873,4178.461426,4361.025879,4422.179688,4243.333496,4319.358887,3418.0,1.0,15.0,,,,0.0,4.0,4.0,4.0,4.0,4.0,4.0,4.0,4.0,4.0,4.0,4.0,4.0,4.0,4.0,100.0,,,,,,,,,,,,,,,,,,,,,,,,,,,,,,,,,,,,,,,,,,,,,,,,,,,,,,,,,,,,,,,,,,,,,,,,,,,,,,,,,,,,,,,,,,,,,,,,,,,,,,,,,,,,,,,,,,,,,,,,,,,,,,,,,,,
1725716043.650952,1725716043.65257,17.0,0.0,3892.05127,4256.538574,4196.922852,4275.256348,4221.794922,4263.205078,4278.333496,4204.743652,4212.436035,4178.846191,4361.282227,4422.05127,4243.974121,4319.230957,3815.0,1.0,15.0,,,,0.0,4.0,4.0,4.0,4.0,4.0,4.0,4.0,4.0,4.0,4.0,4.0,4.0,4.0,4.0,100.0,,,,,,,,,,,,,,,,,,,,,,,,,,,,,,,,,,,,,,,,,,,,,,,,,,,,,,,,,,,,,,,,,,,,,,,,,,,,,,,,,,,,,,,,,,,,,,,,,,,,,,,,,,,,,,,,,,,,,,,,,,,,,,,,,,,
1725716043.654856,1725716043.656375,18.0,0.0,3879.230713,4256.666504,4195.897461,4276.538574,4220.0,4262.179688,4287.820313,4210.0,4217.179688,4182.820313,4366.666504,4427.94873,4252.820313,4325.256348,2880.0,1.0,15.0,,,,0.0,4.0,4.0,4.0,4.0,4.0,4.0,4.0,4.0,4.0,4.0,4.0,4.0,4.0,4.0,100.0,,,,,,,,,,,,,,,,,,,,,,,,,,,,,,,,,,,,,,,,,,,,,,,,,,,,,,,,,,,,,,,,,,,,,,,,,,,,,,,,,,,,,,,,,,,,,,,,,,,,,,,,,,,,,,,,,,,,,,,,,,,,,,,,,,,
1725716043.65876,1725716043.660279,19.0,0.0,3869.743652,4260.512695,4196.282227,4282.307617,4221.922852,4262.820313,4299.487305,4216.410156,4222.94873,4190.769043,4375.769043,4438.717773,4266.666504,4335.769043,3116.0,1.0,15.0,,,,0.0,4.0,4.0,4.0,4.0,4.0,4.0,4.0,4.0,4.0,4.0,4.0,4.0,4.0,4.0,100.0,,,,,,,,,,,,,,,,,,,,,,,,,,,,,,,,,,,,,,,,,,,,,,,,,,,,,,,,,,,,,,,,,,,,,,,,,,,,,,,,,,,,,,,,,,,,,,,,,,,,,,,,,,,,,,,,,,,,,,,,,,,,,,,,,,,
1725716043.662664,1725716043.664183,20.0,0.0,3863.333252,4266.410156,4200.0,4289.871582,4226.922852,4266.025879,4312.05127,4223.205078,4230.512695,4201.538574,4386.538574,4451.025879,4280.256348,4347.05127,3418.0,1.0,15.0,,,,0.0,4.0,4.0,4.0,4.0,4.0,4.0,4.0,4.0,4.0,4.0,4.0,4.0,4.0,4.0,100.0,,,,,,,,,,,,,,,,,1.0,0.0,0.0,,,,,,,,,,,,,,,,,,,,,,,,,,,,,,,,,,,,,0.0,0.0,64.0,0.608229,1.0,0.0,4.292489,2.701706,0.416916,0.416392,0.067772,1.975807,1.153831,0.204283,0.235819,0.066755,7.209357,3.493709,1.426656,0.514794,0.2022,1.296871,0.983908,0.367351,0.216422,0.093583,0.585881,0.3806,0.226579,0.088418,0.049801,0.206482,0.218679,0.435745,0.102853,0.072704,1.694194,0.399556,0.327525,0.174837,0.073862,1.18803,0.985836,0.692498,0.204471,0.147826,1.594274,0.902834,0.573922,0.288343,0.071064,2.571401,2.188814,0.638541,0.44353,0.107414,4.756424,3.411735,0.952417,0.510918,0.226217,3.905274,3.07885,1.103403,0.461647,0.157239,5.009306,3.381132,1.463386,0.472948,0.25962,4.127265,2.745751,0.538828,0.376969,0.140354
1725716043.666568,1725716043.668187,21.0,0.0,3858.205078,4272.820313,4207.307617,4296.666504,4232.563965,4270.897461,4324.358887,4229.615234,4239.487305,4212.307617,4396.922852,4460.641113,4290.128418,4355.897461,3815.0,1.0,15.0,,,,0.0,4.0,4.0,4.0,4.0,4.0,4.0,4.0,4.0,4.0,4.0,4.0,4.0,4.0,4.0,100.0,,,,,,,,,,,,,,,,,,,,,,,,,,,,,,,,,,,,,,,,,,,,,,,,,,,,,,,,,,,,,,,,,,,,,,,,,,,,,,,,,,,,,,,,,,,,,,,,,,,,,,,,,,,,,,,,,,,,,,,,,,,,,,,,,,,
