Timestamp,OriginalTimestamp,EEG.Counter,EEG.Interpolated,EEG.AF3,EEG.F7,EEG.F3,EEG.FC5,EEG.T7,EEG.P7,EEG.O1,EEG.O2,EEG.P8,EEG.T8,EEG.FC6,EEG.F4,EEG.F8,EEG.AF4,EEG.RawCq,EEG.Battery,EEG.BatteryPercent,MarkerIndex,MarkerType,MarkerValueInt,EEG.MarkerHardware,CQ.AF3,CQ.F7,CQ.F3,CQ.FC5,CQ.T7,CQ.P7,CQ.O1,CQ.O2,CQ.P8,CQ.T8,CQ.FC6,CQ.F4,CQ.F8,CQ.AF4,CQ.Overall,EQ.SampleRateQuality,EQ.OVERALL,EQ.AF3,EQ.F7,EQ.F3,EQ.FC5,EQ.T7,EQ.P7,EQ.O1,EQ.O2,EQ.P8,EQ.T8,EQ.FC6,EQ.F4,EQ.F8,EQ.AF4,MC.Action,MC.ActionPower,MC.IsActive,PM.Attention.IsActive,PM.Attention.Scaled,PM.Attention.Raw,PM.Attention.Min,PM.Attention.Max,PM.Engagement.IsActive,PM.Engagement.Scaled,PM.Engagement.Raw,PM.Engagement.Min,PM.Engagement.Max,PM.Excitement.IsActive,PM.Excitement.Scaled,PM.Excitement.Raw,PM.Excitement.Min,PM.Excitement.Max,PM.LongTermExcitement,PM.Stress.IsActive,PM.Stress.Scaled,PM.Stress.Raw,PM.Stress.Min,PM.Stress.Max,PM.Relaxation.IsActive,PM.Relaxation.Scaled,PM.Relaxation.Raw,PM.Relaxation.Min,PM.Relaxation.Max,PM.Interest.IsActive,PM.Interest.Scaled,PM.Interest.Raw,PM.Interest.Min,PM.Interest.Max,PM.Focus.IsActive,PM.Focus.Scaled,PM.Focus.Raw,PM.Focus.Min,PM.Focus.Max,FE.BlinkWink,FE.HorizontalEyesDirection,FE.UpperFaceAction,FE.UpperFaceActionPower,FE.LowerFaceAction,FE.LowerFaceActionPower,POW.AF3.Theta,POW.AF3.Alpha,POW.AF3.BetaL,POW.AF3.BetaH,POW.AF3.Gamma,POW.F7.Theta,POW.F7.Alpha,POW.F7.BetaL,POW.F7.BetaH,POW.F7.Gamma,POW.F3.Theta,POW.F3.Alpha,POW.F3.BetaL,POW.F3.BetaH,POW.F3.Gamma,POW.FC5.Theta,POW.FC5.Alpha,POW.FC5.BetaL,POW.FC5.BetaH,POW.FC5.Gamma,POW.T7.Theta,POW.T7.Alpha,POW.T7.BetaL,POW.T7.BetaH,POW.T7.Gamma,POW.P7.Theta,POW.P7.Alpha,POW.P7.BetaL,POW.P7.BetaH,POW.P7.Gamma,POW.O1.Theta,POW.O1.Alpha,POW.O1.BetaL,POW.O1.BetaH,POW.O1.Gamma,POW.O2.Theta,POW.O2.Alpha,POW.O2.BetaL,POW.O2.BetaH,POW.O2.Gamma,POW.P8.Theta,POW.P8.Alpha,POW.P8.BetaL,POW.P8.BetaH,POW.P8.Gamma,POW.T8.Theta,POW.T8.Alpha,POW.T8.BetaL,POW.T8.BetaH,POW.T8.Gamma,POW.FC6.Theta,POW.FC6.Alpha,POW.FC6.BetaL,POW.FC6.BetaH,POW.FC6.Gamma,POW.F4.Theta,POW.F4.Alpha,POW.F4.BetaL,POW.F4.BetaH,POW.F4.Gamma,POW.F8.Theta,POW.F8.Alpha,POW.F8.BetaL,POW.F8.BetaH,POW.F8.Gamma,POW.AF4.Theta,POW.AF4.Alpha,POW.AF4.BetaL,POW.AF4.BetaH,POW.AF4.Gamma
1725618276.253234,1725618276.253236,70.0,0.0,4263.333496,4245.384766,4293.205078,4279.102539,4216.410156,4218.333496,4140.0,4231.410156,4217.436035,4220.0,4538.846191,4541.538574,4366.025879,4464.102539,0.0,2.0,35.0,19.0,1.0,1.0,0.0,4.0,4.0,4.0,4.0,4.0,4.0,4.0,4.0,4.0,4.0,4.0,4.0,4.0,4.0,100.0,,,,,,,,,,,,,,,,,,,,,,,,,,,,,,,,,,,,,,,,,,,,,,,,,,,,,,,,,,,,,,,,,,,,,,,,,,,,,,,,,,,,,,,,,,,,,,,,,,,,,,,,,,,,,,,,,,,,,,,,,,,,,,,,,,,
1725618276.257138,1725618276.25714,71.0,0.0,4265.0,4245.256348,4293.205078,4280.0,4216.410156,4218.077148,4140.384766,4231.922852,4218.589844,4220.384766,4541.282227,4541.666504,4366.794922,4465.641113,0.0,2.0,35.0,,,,0.0,4.0,4.0,4.0,4.0,4.0,4.0,4.0,4.0,4.0,4.0,4.0,4.0,4.0,4.0,100.0,,,,,,,,,,,,,,,,,,,,,,,,,,,,,,,,,,,,,,,,,,,,,,,,,,,,,,,,,,,,,,,,,,,,,,,,,,,,,,,,,,,,,,,,,,,,,,,,,,,,,,,,,,,,,,,,,,,,,,,,,,,,,,,,,,,
1725618276.261042,1725618276.261144,72.0,0.0,4265.256348,4243.974121,4292.436035,4281.538574,4216.794922,4217.94873,4140.256348,4231.794922,4219.487305,4220.512695,4541.922852,4542.563965,4370.384766,4465.512695,0.0,2.0,35.0,,,,0.0,4.0,4.0,4.0,4.0,4.0,4.0,4.0,4.0,4.0,4.0,4.0,4.0,4.0,4.0,100.0,,,,,,,,,,,,,,,,,,,,,,,,,,,,,,,,,,,,,,,,,,,,,,,,,,,,,,,,,,,,,,,,,,,,,,,,,,,,,,,,,,,,,,,,,,,,,,,,,,,,,,,,,,,,,,,,,,,,,,,,,,,,,,,,,,,
1725618276.264946,1725618276.265049,73.0,0.0,4263.846191,4242.563965,4292.436035,4282.563965,4217.179688,4218.205078,4140.0,4232.307617,4220.897461,4220.512695,4540.769043,4544.615234,4375.641113,4464.102539,0.0,2.0,35.0,,,,0.0,4.0,4.0,4.0,4.0,4.0,4.0,4.0,4.0,4.0,4.0,4.0,4.0,4.0,4.0,100.0,,,,,,,,,,,,,,,,,,,,,,,,,,,,,,,,,,,,,,,,,,,,,,,,,,,,,,,,,,,,,,,,,,,,,,,,,,,,,,,,,,,,,,,,,,,,,,,,,,,,,,,,,,,,,,,,,,,,,,,,,,,,,,,,,,,
1725618276.26885,1725618276.268953,74.0,0.0,4261.410156,4241.153809,4293.589844,4282.179688,4217.307617,4218.846191,4139.871582,4233.333496,4223.589844,4221.153809,4539.743652,4547.436035,4379.743652,4462.563965,0.0,2.0,35.0,,,,0.0,4.0,4.0,4.0,4.0,4.0,4.0,4.0,4.0,4.0,4.0,4.0,4.0,4.0,4.0,100.0,,,,,,,,,,,,,,,,,,,,,,,,,,,,,,,,,,,,,,,,,,,,,,,,,,,,,,,,0.0,0.0,1.0,0.0,1.0,0.0,,,,,,,,,,,,,,,,,,,,,,,,,,,,,,,,,,,,,,,,,,,,,,,,,,,,,,,,,,,,,,,,,,,,,,
1725618276.272754,1725618276.272857,75.0,0.0,4258.077148,4239.230957,4295.0,4280.512695,4217.179688,4219.487305,4140.512695,4234.102539,4227.436035,4223.077148,4540.641113,4549.615234,4380.641113,4461.282227,0.0,2.0,35.0,,,,0.0,4.0,4.0,4.0,4.0,4.0,4.0,4.0,4.0,4.0,4.0,4.0,4.0,4.0,4.0,100.0,,,,,,,,,,,,,,,,,,,,,,,,,,,,,,,,,,,,,,,,,,,,,,,,,,,,,,,,,,,,,,,,,,,,,,,,,,,,,,,,,,,,,,,,,,,,,,,,,,,,,,,,,,,,,,,,,,,,,,,,,,,,,,,,,,,
1725618276.276658,1725618276.276861,76.0,0.0,4255.128418,4236.538574,4295.512695,4278.333496,4216.922852,4219.871582,4142.436035,4233.846191,4231.282227,4226.153809,4543.461426,4550.128418,4378.077148,4460.512695,0.0,2.0,35.0,,,,0.0,4.0,4.0,4.0,4.0,4.0,4.0,4.0,4.0,4.0,4.0,4.0,4.0,4.0,4.0,100.0,,,,,,,,,,,,,,,,,,,,,,,,,,,,,,,,,,,,,,,,,,,,,,,,,,,,,,,,,,,,,,,,,,,,,,,,,,,,,,,,,,,,,,,,,,,,,,,,,,,,,,,,,,,,,,,,,,,,,,,,,,,,,,,,,,,
1725618276.280563,1725618276.280765,77.0,0.0,4253.974121,4234.230957,4294.743652,4277.179688,4216.922852,4219.871582,4145.769043,4233.461426,4232.94873,4229.487305,4546.153809,4548.717773,4374.487305,4460.384766,0.0,2.0,35.0,,,,0.0,4.0,4.0,4.0,4.0,4.0,4.0,4.0,4.0,4.0,4.0,4.0,4.0,4.0,4.0,100.0,,,,,,,,,,,,,,,,,,,,,,,,,,,,,,,,,,,,,,,,,,,,,,,,,,,,,,,,,,,,,,,,,,,,,,,,,,,,,,,,,,,,,,,,,,,,,,,,,,,,,,,,,,,,,,,,,,,,,,,,,,,,,,,,,,,
1725618276.284467,1725618276.284669,78.0,0.0,4255.0,4233.717773,4292.94873,4277.563965,4217.05127,4219.487305,4149.615234,4233.846191,4231.153809,4231.922852,4546.922852,4546.794922,4373.205078,4460.897461,0.0,2.0,35.0,,,,0.0,4.0,4.0,4.0,4.0,4.0,4.0,4.0,4.0,4.0,4.0,4.0,4.0,4.0,4.0,100.0,,,,,,,,,,,,,,,,,,,,,,,,,,,,,,,,,,,,,,,,,,,,,,,,,,,,,,,,,,,,,,,,,,,,,,,,,,,,,,,,,,,,,,,,,,,,,,,,,,,,,,,,,,,,,,,,,,,,,,,,,,,,,,,,,,,
1725618276.288371,1725618276.288573,79.0,0.0,4257.692383,4235.384766,4291.410156,4278.974121,4217.563965,4219.102539,4152.563965,4234.743652,4226.794922,4232.436035,4545.769043,4545.0,4375.128418,4461.794922,0.0,2.0,35.0,,,,0.0,4.0,4.0,4.0,4.0,4.0,4.0,4.0,4.0,4.0,4.0,4.0,4.0,4.0,4.0,100.0,,,,,,,,,,,,,,,,,,,,,,,,,,,,,,,,,,,,,,,,,,,,,,,,,,,,,,,,,,,,,,,,,,,,,,,,,,,,,,,,,,,,,,,,,,,,,,,,,,,,,,,,,,,,,,,,,,,,,,,,,,,,,,,,,,,
1725618276.292275,1725618276.292577,80.0,0.0,4260.512695,4237.563965,4291.025879,4280.128418,4217.94873,4218.589844,4152.820313,4235.641113,4222.692383,4231.538574,4543.846191,4543.077148,4378.589844,4462.563965,0.0,2.0,35.0,,,,0.0,4.0,4.0,4.0,4.0,4.0,4.0,4.0,4.0,4.0,4.0,4.0,4.0,4.0,4.0,100.0,,,,,,,,,,,,,,,,,,,,,,,,,,,,,,,,,,,,,,,,,,,,,,,,,,,,,,,,,,,,,,,,,,,,,,,,,,,,,,,,,,,,,,,,,,,,,,,,,,,,,,,,,,,,,,,,,,,,,,,,,,,,,,,,,,,
1725618276.296179,1725618276.296481,81.0,0.0,4261.538574,4238.077148,4291.922852,4280.384766,4217.692383,4218.077148,4150.0,4235.641113,4221.410156,4229.743652,4542.94873,4540.769043,4380.897461,4462.692383,0.0,2.0,35.0,,,,0.0,4.0,4.0,4.0,4.0,4.0,4.0,4.0,4.0,4.0,4.0,4.0,4.0,4.0,4.0,100.0,,,,,,,,,,,,,,,,,,,,,,,,,,,,,,,,,,,,,,,,,,,,,,,,,,,,,,,,,,,,,,,,,,,,,,,,,,,,,,,,,,,,,,,,,,,,,,,,,,,,,,,,,,,,,,,,,,,,,,,,,,,,,,,,,,,
1725618276.300083,1725618276.300385,82.0,0.0,4260.128418,4236.410156,4293.333496,4279.743652,4216.538574,4217.436035,4145.769043,4235.128418,4223.333496,4228.461426,4543.717773,4539.102539,4380.897461,4462.307617,0.0,2.0,35.0,,,,0.0,4.0,4.0,4.0,4.0,4.0,4.0,4.0,4.0,4.0,4.0,4.0,4.0,4.0,4.0,100.0,,,,,,,,,,,,,,,,,,,,,,,,,,,,,,,,,,,,,,,,,,,,,,,,,,,,,,,,0.0,0.0,1.0,0.0,1.0,0.0,,,,,,,,,,,,,,,,,,,,,,,,,,,,,,,,,,,,,,,,,,,,,,,,,,,,,,,,,,,,,,,,,,,,,,
1725618276.303987,1725618276.304289,83.0,0.0,4258.589844,4233.974121,4294.871582,4278.333496,4215.0,4216.794922,4142.179688,4235.0,4227.05127,4228.589844,4545.641113,4540.0,4380.128418,4462.179688,0.0,2.0,35.0,,,,0.0,4.0,4.0,4.0,4.0,4.0,4.0,4.0,4.0,4.0,4.0,4.0,4.0,4.0,4.0,100.0,,,,,,,,,,,,,,,,,,,,,,,,,,,,,,,,,,,,,,,,,,,,,,,,,,,,,,,,,,,,,,,,,,,,,,,,,,,,,,,,,,,,,,,,,,,,,,,,,,,,,,,,,,,,,,,,,,,,,,,,,,,,,,,,,,,
1725618276.307891,1725618276.308193,84.0,0.0,4259.358887,4232.563965,4295.641113,4276.922852,4214.358887,4216.410156,4141.025879,4234.871582,4229.615234,4230.256348,4547.179688,4544.102539,4380.256348,4462.307617,0.0,2.0,35.0,,,,0.0,4.0,4.0,4.0,4.0,4.0,4.0,4.0,4.0,4.0,4.0,4.0,4.0,4.0,4.0,100.0,,,,,,,,,,,,,,,,,,,,,,,,,,,,,,,,,,,,,,,,,,,,,,,,,,,,,,,,,,,,,,,,,,,,,,,,,,,,,,,,,,,,,,,,,,,,,,,,,,,,,,,,,,,,,,,,,,,,,,,,,,,,,,,,,,,
1725618276.311795,1725618276.311998,85.0,0.0,4262.307617,4232.436035,4295.769043,4276.666504,4214.615234,4216.538574,4142.05127,4234.230957,4228.589844,4232.307617,4546.025879,4549.615234,4381.282227,4462.94873,0.0,2.0,35.0,,,,0.0,4.0,4.0,4.0,4.0,4.0,4.0,4.0,4.0,4.0,4.0,4.0,4.0,4.0,4.0,100.0,,,,,,,,,,,,,,,,,,,,,,,,,,,,,,,,,,,,,,,,,,,,,,,,,,,,,,,,,,,,,,,,,,,,,,,,,,,,,,,,,,,,,,,,,,,,,,,,,,,,,,,,,,,,,,,,,,,,,,,,,,,,,,,,,,,
1725618276.315699,1725618276.315902,86.0,0.0,4265.128418,4232.820313,4295.256348,4278.077148,4215.0,4216.922852,4143.846191,4233.077148,4224.230957,4232.94873,4542.05127,4553.589844,4381.410156,4463.461426,0.0,2.0,35.0,,,,0.0,4.0,4.0,4.0,4.0,4.0,4.0,4.0,4.0,4.0,4.0,4.0,4.0,4.0,4.0,100.0,,,,,,,,,,,,,,,,,,,,,,,,,,,,,,,,,,,,,,,,,,,,,,,,,,,,,,,,,,,,,,,,,,,,,,,,,,,,,,,,,,,,,,,,,,,,,,,,,,,,,,,,,,,,,,,,,,,,,,,,,,,,,,,,,,,
1725618276.319604,1725618276.319806,87.0,0.0,4264.615234,4233.077148,4293.974121,4280.384766,4213.974121,4217.307617,4144.743652,4232.436035,4219.102539,4230.897461,4537.692383,4553.846191,4378.974121,4463.461426,0.0,2.0,35.0,,,,0.0,4.0,4.0,4.0,4.0,4.0,4.0,4.0,4.0,4.0,4.0,4.0,4.0,4.0,4.0,100.0,,,,,,,,,,,,,,,,,,,,,,,,,,,,,,,,,,,,,,,,,,,,,,,,,,,,,,,,,,,,,,,,,,,,,,,,,,,,,,,,,,,,,,,,,,,,,,,,,,,,,,,,,,,,,,,,,,,,,,,,,,,,,,,,,,,
1725618276.323508,1725618276.32361,88.0,0.0,4260.384766,4232.820313,4292.307617,4281.794922,4211.025879,4217.307617,4144.743652,4233.333496,4216.025879,4226.410156,4535.769043,4550.0,4373.846191,4462.436035,0.0,2.0,35.0,,,,0.0,4.0,4.0,4.0,4.0,4.0,4.0,4.0,4.0,4.0,4.0,4.0,4.0,4.0,4.0,100.0,,,,,,,,,,,,,,,,,,,,,,,,,,,,,,,,,,,,,,,,,,,,,,,,,,,,,,,,,,,,,,,,,,,,,,,,,,,,,,,,,,,,,,,,,,,,,,,,,,,,,,,,,,,,,,,,,,,,,,,,,,,,,,,,,,,
1725618276.327412,1725618276.327514,89.0,0.0,4253.846191,4232.307617,4290.384766,4280.769043,4207.05127,4216.666504,4145.0,4234.743652,4216.282227,4221.282227,4537.563965,4543.846191,4368.461426,4460.128418,0.0,2.0,35.0,,,,0.0,4.0,4.0,4.0,4.0,4.0,4.0,4.0,4.0,4.0,4.0,4.0,4.0,4.0,4.0,100.0,,,,,,,,,,,,,,,,,,,,,,,,,,,,,,,,,,,,,,,,,,,,,,,,,,,,,,,,,,,,,,,,,,,,,,,,,,,,,,,,,,,,,,,,,,,,,,,,,,,,,,,,,,,,,,,,,,,,,,,,,,,,,,,,,,,
1725618276.331316,1725618276.331418,90.0,0.0,4248.077148,4231.410156,4288.717773,4276.666504,4203.589844,4215.897461,4146.922852,4235.0,4218.077148,4217.692383,4540.897461,4538.205078,4365.0,4456.794922,0.0,2.0,35.0,,,,0.0,4.0,4.0,4.0,4.0,4.0,4.0,4.0,4.0,4.0,4.0,4.0,4.0,4.0,4.0,100.0,,,,,,,,,,,,,,,,,,,,,,,,,,,,,,,,,,,,,,,,,,,,,,,,,,,,,,,,0.0,0.0,1.0,0.0,1.0,0.0,,,,,,,,,,,,,,,,,,,,,,,,,,,,,,,,,,,,,,,,,,,,,,,,,,,,,,,,,,,,,,,,,,,,,,
1725618276.33522,1725618276.335322,91.0,0.0,4245.0,4229.487305,4286.666504,4270.641113,4202.05127,4215.769043,4150.256348,4232.307617,4218.205078,4216.922852,4542.307617,4534.230957,4364.615234,4452.436035,0.0,2.0,35.0,,,,0.0,4.0,4.0,4.0,4.0,4.0,4.0,4.0,4.0,4.0,4.0,4.0,4.0,4.0,4.0,100.0,,,,,,,,,,,,,,,,,,,,,,,,,,,,,,,,,,,,,,,,,,,,,,,,,,,,,,,,,,,,,,,,,,,,,,,,,,,,,,,,,,,,,,,,,,,,,,,,,,,,,,,,,,,,,,,,,,,,,,,,,,,,,,,,,,,
1725618276.339124,1725618276.339127,92.0,0.0,4245.128418,4226.538574,4283.333496,4264.743652,4202.05127,4216.538574,4152.692383,4226.410156,4215.0,4218.077148,4539.102539,4531.538574,4365.128418,4447.94873,0.0,2.0,35.0,,,,0.0,4.0,4.0,4.0,4.0,4.0,4.0,4.0,4.0,4.0,4.0,4.0,4.0,4.0,4.0,100.0,,,,,,,,,,,,,,,,,,,,,,,,,,,,,,,,,,,,,,,,,,,,,,,,,,,,,,,,,,,,,,,,,,,,,,,,,,,,,,,,,,,,,,,,,,,,,,,,,,,,,,,,,,,,,,,,,,,,,,,,,,,,,,,,,,,
1725618276.343028,1725618276.343031,93.0,0.0,4247.05127,4223.077148,4278.461426,4261.153809,4202.563965,4217.307617,4152.05127,4218.974121,4208.974121,4217.820313,4531.666504,4527.820313,4363.974121,4443.974121,0.0,2.0,35.0,,,,0.0,4.0,4.0,4.0,4.0,4.0,4.0,4.0,4.0,4.0,4.0,4.0,4.0,4.0,4.0,100.0,,,,,,,,,,,,,,,,,,,,,,,,,,,,,,,,,,,,,,,,,,,,,,,,,,,,,,,,,,,,,,,,,,,,,,,,,,,,,,,,,,,,,,,,,,,,,,,,,,,,,,,,,,,,,,,,,,,,,,,,,,,,,,,,,,,
1725618276.346932,1725618276.346935,94.0,0.0,4247.820313,4220.256348,4272.436035,4260.512695,4202.307617,4216.538574,4147.820313,4212.563965,4202.307617,4214.102539,4522.692383,4522.05127,4359.743652,4441.282227,0.0,2.0,35.0,,,,0.0,4.0,4.0,4.0,4.0,4.0,4.0,4.0,4.0,4.0,4.0,4.0,4.0,4.0,4.0,100.0,,,,,,,,,,,,,,,,,,,,,,,,,,,,,,,,,,,,,,,,,,,,,,,,,,,,,,,,,,,,,,,,,,,,,,,,,,,,,,,,,,,,,,,,,,,,,,,,,,,,,,,,,,,,,,,,,,,,,,,,,,,,,,,,,,,
1725618276.350836,1725618276.350839,95.0,0.0,4245.384766,4218.461426,4267.05127,4261.282227,4201.153809,4213.589844,4142.436035,4209.487305,4197.436035,4207.692383,4515.384766,4515.0,4353.974121,4439.871582,0.0,2.0,35.0,,,,0.0,4.0,4.0,4.0,4.0,4.0,4.0,4.0,4.0,4.0,4.0,4.0,4.0,4.0,4.0,100.0,,,,,,,,,,,,,,,,,,,,,,,,,,,,,,,,,,,,,,,,,,,,,,,,,,,,,,,,,,,,,,,,,,,,,,,,,,,,,,,,,,,,,,,,,,,,,,,,,,,,,,,,,,,,,,,,,,,,,,,,,,,,,,,,,,,
1725618276.354741,1725618276.354643,96.0,0.0,4240.0,4218.205078,4263.846191,4261.025879,4199.615234,4208.974121,4139.102539,4210.384766,4195.897461,4202.05127,4511.922852,4508.974121,4349.615234,4439.743652,0.0,2.0,35.0,,,,0.0,4.0,4.0,4.0,4.0,4.0,4.0,4.0,4.0,4.0,4.0,4.0,4.0,4.0,4.0,100.0,,,,,,,,,,,,,,,,,,,,,,,,,,,,,,,,,,,,,,,,,,,,,,,,,,,,,,,,,,,,,,,,,,,,,,,,,,,,,,,,,,,,,,,,,,,,,,,,,,,,,,,,,,,,,,,,,,,,,,,,,,,,,,,,,,,
1725618276.358645,1725618276.358547,97.0,0.0,4234.743652,4218.846191,4263.589844,4258.333496,4198.974121,4205.512695,4139.871582,4213.589844,4197.820313,4200.384766,4512.436035,4506.153809,4348.589844,4440.128418,0.0,2.0,35.0,,,,0.0,4.0,4.0,4.0,4.0,4.0,4.0,4.0,4.0,4.0,4.0,4.0,4.0,4.0,4.0,100.0,,,,,,,,,,,,,,,,,,,,,,,,,,,,,,,,,,,,,,,,,,,,,,,,,,,,,,,,,,,,,,,,,,,,,,,,,,,,,,,,,,,,,,,,,,,,,,,,,,,,,,,,,,,,,,,,,,,,,,,,,,,,,,,,,,,
1725618276.362549,1725618276.362451,98.0,0.0,4232.563965,4219.871582,4265.128418,4254.230957,4199.615234,4205.128418,4143.974121,4216.794922,4201.922852,4203.717773,4515.512695,4507.179688,4351.025879,4440.512695,0.0,2.0,35.0,,,,0.0,4.0,4.0,4.0,4.0,4.0,4.0,4.0,4.0,4.0,4.0,4.0,4.0,4.0,4.0,100.0,,,,,,,,,,,,,,,,,1.0,0.0,0.0,,,,,,,,,,,,,,,,,,,,,,,,,,,,,,,,,,,,,0.0,0.0,1.0,0.0,1.0,0.0,2.596902,2.422655,0.593289,0.423162,0.29296,2.081195,1.441865,0.809674,0.474382,0.247665,2.232587,2.412471,1.067564,0.292965,0.354185,2.403367,1.63902,0.706673,0.389465,0.28606,0.847471,0.59344,0.682506,0.272784,0.203078,0.221153,0.180307,0.22719,0.066753,0.170102,0.729473,0.33375,0.431541,0.191245,0.174261,0.905354,1.765114,1.521131,0.448494,0.259256,1.205211,1.957218,1.813763,0.29383,0.345254,1.859959,1.624498,1.222898,0.423909,0.399059,4.532531,3.001691,2.030264,0.715652,0.45255,3.771793,3.270535,2.319577,0.548958,0.583653,3.55041,2.888865,1.866318,0.448223,0.424193,3.124957,3.216634,1.192554,0.546137,0.403174
1725618276.366453,1725618276.366455,99.0,0.0,4234.487305,4221.410156,4266.538574,4251.282227,4200.897461,4208.205078,4148.846191,4218.077148,4206.025879,4209.871582,4519.230957,4510.0,4355.512695,4440.256348,0.0,2.0,35.0,,,,0.0,4.0,4.0,4.0,4.0,4.0,4.0,4.0,4.0,4.0,4.0,4.0,4.0,4.0,4.0,100.0,,,,,,,,,,,,,,,,,,,,,,,,,,,,,,,,,,,,,,,,,,,,,,,,,,,,,,,,,,,,,,,,,,,,,,,,,,,,,,,,,,,,,,,,,,,,,,,,,,,,,,,,,,,,,,,,,,,,,,,,,,,,,,,,,,,
1725618276.370357,1725618276.370359,100.0,0.0,4238.846191,4223.205078,4266.153809,4251.666504,4202.05127,4213.077148,4152.179688,4217.563965,4208.589844,4215.512695,4521.794922,4512.307617,4360.256348,4439.743652,0.0,2.0,35.0,,,,0.0,4.0,4.0,4.0,4.0,4.0,4.0,4.0,4.0,4.0,4.0,4.0,4.0,4.0,4.0,100.0,,,,,,,,,,,,,,,,,,,,,,,,,,,,,,,,,,,,,,,,,,,,,,,,,,,,,,,,,,,,,,,,,,,,,,,,,,,,,,,,,,,,,,,,,,,,,,,,,,,,,,,,,,,,,,,,,,,,,,,,,,,,,,,,,,,
1725618276.374261,1725618276.374264,101.0,0.0,4242.563965,4225.256348,4264.615234,4255.641113,4202.436035,4216.922852,4153.205078,4217.05127,4209.487305,4217.94873,4522.307617,4513.461426,4363.717773,4439.743652,0.0,2.0,35.0,,,,0.0,4.0,4.0,4.0,4.0,4.0,4.0,4.0,4.0,4.0,4.0,4.0,4.0,4.0,4.0,100.0,,,,,,,,,,,,,,,,,,,,,,,,,,,,,,,,,,,,,,,,,,,,,,,,,,,,,,,,,,,,,,,,,,,,,,,,,,,,,,,,,,,,,,,,,,,,,,,,,,,,,,,,,,,,,,,,,,,,,,,,,,,,,,,,,,,
1725618276.378165,1725618276.378168,102.0,0.0,4243.974121,4227.307617,4263.589844,4261.282227,4202.179688,4217.94873,4152.436035,4218.077148,4209.615234,4217.307617,4521.538574,4514.102539,4365.384766,4440.512695,0.0,2.0,35.0,,,,0.0,4.0,4.0,4.0,4.0,4.0,4.0,4.0,4.0,4.0,4.0,4.0,4.0,4.0,4.0,100.0,,,,,,,,,,,,,,,,,,,,,,,,,,,,,,,,,,,,,,,,,,,,,,,,,,,,,,,,,,,,,,,,,,,,,,,,,,,,,,,,,,,,,,,,,,,,,,,,,,,,,,,,,,,,,,,,,,,,,,,,,,,,,,,,,,,
1725618276.382069,1725618276.382172,103.0,0.0,4243.846191,4228.717773,4264.871582,4265.769043,4202.179688,4216.538574,4151.410156,4221.538574,4210.384766,4215.897461,4520.769043,4515.641113,4365.512695,4441.538574,0.0,2.0,35.0,,,,0.0,4.0,4.0,4.0,4.0,4.0,4.0,4.0,4.0,4.0,4.0,4.0,4.0,4.0,4.0,100.0,,,,,,,,,,,,,,,,,,,,,,,,,,,,,,,,,,,,,,,,,,,,,,,,,,,,,,,,,,,,,,,,,,,,,,,,,,,,,,,,,,,,,,,,,,,,,,,,,,,,,,,,,,,,,,,,,,,,,,,,,,,,,,,,,,,
1725618276.385973,1725618276.386076,104.0,0.0,4243.717773,4229.487305,4268.974121,4267.94873,4202.563965,4214.230957,4151.153809,4226.538574,4212.179688,4215.897461,4521.153809,4518.077148,4365.128418,4442.563965,0.0,2.0,35.0,,,,0.0,4.0,4.0,4.0,4.0,4.0,4.0,4.0,4.0,4.0,4.0,4.0,4.0,4.0,4.0,100.0,,,,,,,,,,,,,,,,,,,,,,,,,,,,,,,,,,,,,,,,,,,,,,,,,,,,,,,,,,,,,,,,,,,,,,,,,,,,,,,,,,,,,,,,,,,,,,,,,,,,,,,,,,,,,,,,,,,,,,,,,,,,,,,,,,,
1725618276.389877,1725618276.38998,105.0,0.0,4244.487305,4229.358887,4274.487305,4267.692383,4203.333496,4212.94873,4152.307617,4231.666504,4214.743652,4218.205078,4522.94873,4521.025879,4365.256348,4443.846191,0.0,2.0,35.0,,,,0.0,4.0,4.0,4.0,4.0,4.0,4.0,4.0,4.0,4.0,4.0,4.0,4.0,4.0,4.0,100.0,,,,,,,,,,,,,,,,,,,,,,,,,,,,,,,,,,,,,,,,,,,,,,,,,,,,,,,,,,,,,,,,,,,,,,,,,,,,,,,,,,,,,,,,,,,,,,,,,,,,,,,,,,,,,,,,,,,,,,,,,,,,,,,,,,,
1725618276.393782,1725618276.393884,106.0,0.0,4246.666504,4229.102539,4279.230957,4266.410156,4203.974121,4213.589844,4154.230957,4235.769043,4216.922852,4220.641113,4525.512695,4524.102539,4366.666504,4446.282227,0.0,2.0,35.0,,,,0.0,4.0,4.0,4.0,4.0,4.0,4.0,4.0,4.0,4.0,4.0,4.0,4.0,4.0,4.0,100.0,,,,,,,,,,,,,,,,,,,,,,,,,,,,,,,,,,,,,,,,,,,,,,,,,,,,,,,,0.0,0.0,1.0,0.0,1.0,0.0,,,,,,,,,,,,,,,,,,,,,,,,,,,,,,,,,,,,,,,,,,,,,,,,,,,,,,,,,,,,,,,,,,,,,,
1725618276.397686,1725618276.397888,107.0,0.0,4248.846191,4229.615234,4281.153809,4265.0,4204.487305,4215.384766,4156.025879,4238.077148,4218.205078,4221.153809,4527.436035,4526.794922,4368.846191,4450.0,0.0,2.0,35.0,,,,0.0,4.0,4.0,4.0,4.0,4.0,4.0,4.0,4.0,4.0,4.0,4.0,4.0,4.0,4.0,100.0,,,,,,,,,,,,,,,,,,,,,,,,,,,,,,,,,,,,,,,,,,,,,,,,,,,,,,,,,,,,,,,,,,,,,,,,,,,,,,,,,,,,,,,,,,,,,,,,,,,,,,,,,,,,,,,,,,,,,,,,,,,,,,,,,,,
1725618276.40159,1725618276.401792,108.0,0.0,4249.743652,4231.025879,4280.384766,4264.230957,4205.0,4217.179688,4156.538574,4238.205078,4218.205078,4219.871582,4528.717773,4528.461426,4370.512695,4454.487305,0.0,2.0,35.0,,,,0.0,4.0,4.0,4.0,4.0,4.0,4.0,4.0,4.0,4.0,4.0,4.0,4.0,4.0,4.0,100.0,,,,,,,,,,,,,,,,,,,,,,,,,,,,,,,,,,,,,,,,,,,,,,,,,,,,,,,,,,,,,,,,,,,,,,,,,,,,,,,,,,,,,,,,,,,,,,,,,,,,,,,,,,,,,,,,,,,,,,,,,,,,,,,,,,,
1725618276.405494,1725618276.405696,109.0,0.0,4248.589844,4232.179688,4278.717773,4264.358887,4205.0,4218.077148,4156.025879,4236.153809,4217.179688,4219.102539,4530.512695,4529.487305,4371.025879,4458.077148,0.0,2.0,35.0,,,,0.0,4.0,4.0,4.0,4.0,4.0,4.0,4.0,4.0,4.0,4.0,4.0,4.0,4.0,4.0,100.0,,,,,,,,,,,,,,,,,,,,,,,,,,,,,,,,,,,,,,,,,,,,,,,,,,,,,,,,,,,,,,,,,,,,,,,,,,,,,,,,,,,,,,,,,,,,,,,,,,,,,,,,,,,,,,,,,,,,,,,,,,,,,,,,,,,
1725618276.409398,1725618276.4096,110.0,0.0,4246.666504,4232.820313,4278.077148,4265.384766,4204.102539,4218.333496,4155.384766,4232.692383,4216.153809,4221.025879,4534.230957,4530.0,4371.025879,4459.615234,0.0,2.0,35.0,,,,0.0,4.0,4.0,4.0,4.0,4.0,4.0,4.0,4.0,4.0,4.0,4.0,4.0,4.0,4.0,100.0,,,,,,,,,,,,,,,,,,,,,,,,,,,,,,,,,,,,,,,,,,,,,,,,,,,,,,,,,,,,,,,,,,,,,,,,,,,,,,,,,,,,,,,,,,,,,,,,,,,,,,,,,,,,,,,,,,,,,,,,,,,,,,,,,,,
1725618276.413302,1725618276.413405,111.0,0.0,4246.153809,4232.94873,4278.717773,4266.538574,4202.820313,4218.333496,4155.897461,4228.589844,4216.025879,4225.512695,4539.102539,4530.256348,4371.922852,4458.589844,0.0,2.0,35.0,,,,0.0,4.0,4.0,4.0,4.0,4.0,4.0,4.0,4.0,4.0,4.0,4.0,4.0,4.0,4.0,100.0,,,,,,,,,,,,,,,,,,,,,,,,,,,,,,,,,,,,,,,,,,,,,,,,,,,,,,,,,,,,,,,,,,,,,,,,,,,,,,,,,,,,,,,,,,,,,,,,,,,,,,,,,,,,,,,,,,,,,,,,,,,,,,,,,,,
1725618276.417206,1725618276.417309,112.0,0.0,4247.436035,4232.94873,4279.743652,4267.436035,4201.666504,4217.820313,4158.077148,4224.487305,4216.794922,4229.615234,4541.794922,4529.358887,4374.230957,4456.538574,0.0,2.0,35.0,,,,0.0,4.0,4.0,4.0,4.0,4.0,4.0,4.0,4.0,4.0,4.0,4.0,4.0,4.0,4.0,100.0,,,,,,,,,,,,,,,,,,,,,,,,,,,,,,,,,,,,,,,,,,,,,,,,,,,,,,,,,,,,,,,,,,,,,,,,,,,,,,,,,,,,,,,,,,,,,,,,,,,,,,,,,,,,,,,,,,,,,,,,,,,,,,,,,,,
1725618276.42111,1725618276.421213,113.0,0.0,4249.743652,4232.94873,4280.512695,4267.94873,4201.282227,4217.05127,4161.410156,4220.641113,4217.307617,4230.256348,4540.256348,4527.436035,4377.179688,4454.871582,0.0,2.0,35.0,,,,0.0,4.0,4.0,4.0,4.0,4.0,4.0,4.0,4.0,4.0,4.0,4.0,4.0,4.0,4.0,100.0,,,,,,,,,,,,,,,,,,,,,,,,,,,,,,,,,,,,,,,,,,,,,,,,,,,,,,,,,,,,,,,,,,,,,,,,,,,,,,,,,,,,,,,,,,,,,,,,,,,,,,,,,,,,,,,,,,,,,,,,,,,,,,,,,,,
1725618276.425014,1725618276.425117,114.0,0.0,4251.282227,4233.333496,4280.897461,4267.94873,4201.666504,4215.897461,4165.0,4217.94873,4216.794922,4226.794922,4534.871582,4525.641113,4379.615234,4454.615234,0.0,2.0,35.0,,,,0.0,4.0,4.0,4.0,4.0,4.0,4.0,4.0,4.0,4.0,4.0,4.0,4.0,4.0,4.0,100.0,,,,,,,,,,,,,,,,,,,,,,,,,,,,,,,,,,,,,,,,,,,,,,,,,,,,,,,,0.0,0.0,1.0,0.0,1.0,0.0,,,,,,,,,,,,,,,,,,,,,,,,,,,,,,,,,,,,,,,,,,,,,,,,,,,,,,,,,,,,,,,,,,,,,,
1725618276.428918,1725618276.428921,115.0,0.0,4251.794922,4234.230957,4280.512695,4267.179688,4202.563965,4214.743652,4167.563965,4217.436035,4215.641113,4221.410156,4529.102539,4525.0,4380.128418,4455.0,0.0,2.0,35.0,,,,0.0,4.0,4.0,4.0,4.0,4.0,4.0,4.0,4.0,4.0,4.0,4.0,4.0,4.0,4.0,100.0,,,,,,,,,,,,,,,,,,,,,,,,,,,,,,,,,,,,,,,,,,,,,,,,,,,,,,,,,,,,,,,,,,,,,,,,,,,,,,,,,,,,,,,,,,,,,,,,,,,,,,,,,,,,,,,,,,,,,,,,,,,,,,,,,,,
1725618276.432823,1725618276.432825,116.0,0.0,4251.538574,4235.384766,4279.487305,4266.282227,4203.333496,4213.717773,4168.589844,4219.230957,4214.615234,4217.05127,4526.410156,4525.769043,4378.333496,4455.128418,0.0,2.0,35.0,,,,0.0,4.0,4.0,4.0,4.0,4.0,4.0,4.0,4.0,4.0,4.0,4.0,4.0,4.0,4.0,100.0,,,,,,,,,,,,,,,,,,,,,,,,,,,,,,,,,,,,,,,,,,,,,,,,,,,,,,,,,,,,,,,,,,,,,,,,,,,,,,,,,,,,,,,,,,,,,,,,,,,,,,,,,,,,,,,,,,,,,,,,,,,,,,,,,,,
1725618276.436727,1725618276.436729,117.0,0.0,4251.282227,4236.538574,4278.333496,4266.153809,4203.589844,4212.692383,4168.333496,4221.922852,4213.846191,4215.0,4528.461426,4526.153809,4375.384766,4453.589844,0.0,2.0,35.0,,,,0.0,4.0,4.0,4.0,4.0,4.0,4.0,4.0,4.0,4.0,4.0,4.0,4.0,4.0,4.0,100.0,,,,,,,,,,,,,,,,,,,,,,,,,,,,,,,,,,,,,,,,,,,,,,,,,,,,,,,,,,,,,,,,,,,,,,,,,,,,,,,,,,,,,,,,,,,,,,,,,,,,,,,,,,,,,,,,,,,,,,,,,,,,,,,,,,,
1725618276.440631,1725618276.440633,118.0,0.0,4251.282227,4237.436035,4277.436035,4266.666504,4203.589844,4212.05127,4168.077148,4223.717773,4213.461426,4215.256348,4534.358887,4525.128418,4373.589844,4450.641113,0.0,2.0,35.0,,,,0.0,4.0,4.0,4.0,4.0,4.0,4.0,4.0,4.0,4.0,4.0,4.0,4.0,4.0,4.0,100.0,,,,,,,,,,,,,,,,,,,,,,,,,,,,,,,,,,,,,,,,,,,,,,,,,,,,,,,,,,,,,,,,,,,,,,,,,,,,,,,,,,,,,,,,,,,,,,,,,,,,,,,,,,,,,,,,,,,,,,,,,,,,,,,,,,,
1725618276.444535,1725618276.444438,119.0,0.0,4251.538574,4237.563965,4277.179688,4267.692383,4203.333496,4211.922852,4168.974121,4224.230957,4214.230957,4216.922852,4540.512695,4523.589844,4374.102539,4447.436035,0.0,2.0,35.0,,,,0.0,4.0,4.0,4.0,4.0,4.0,4.0,4.0,4.0,4.0,4.0,4.0,4.0,4.0,4.0,100.0,,,,,,,,,,,,,,,,,,,,,,,,,,,,,,,,,,,,,,,,,,,,,,,,,,,,,,,,,,,,,,,,,,,,,,,,,,,,,,,,,,,,,,,,,,,,,,,,,,,,,,,,,,,,,,,,,,,,,,,,,,,,,,,,,,,
1725618276.448439,1725618276.448342,120.0,0.0,4251.794922,4236.666504,4277.179688,4268.461426,4203.077148,4212.692383,4171.025879,4224.487305,4216.282227,4219.230957,4543.461426,4523.205078,4375.769043,4445.897461,0.0,2.0,35.0,,,,0.0,4.0,4.0,4.0,4.0,4.0,4.0,4.0,4.0,4.0,4.0,4.0,4.0,4.0,4.0,100.0,,,,,,,,,,,,,,,,,,,,,,,,,,,,,,,,,,,,,,,,,,,,,,,,,,,,,,,,,,,,,,,,,,,,,,,,,,,,,,,,,,,,,,,,,,,,,,,,,,,,,,,,,,,,,,,,,,,,,,,,,,,,,,,,,,,
1725618276.452343,1725618276.452246,121.0,0.0,4251.794922,4235.256348,4276.538574,4268.461426,4202.94873,4213.974121,4173.205078,4225.512695,4218.717773,4221.153809,4541.538574,4524.358887,4376.538574,4446.410156,0.0,2.0,35.0,,,,0.0,4.0,4.0,4.0,4.0,4.0,4.0,4.0,4.0,4.0,4.0,4.0,4.0,4.0,4.0,100.0,,,,,,,,,,,,,,,,,,,,,,,,,,,,,,,,,,,,,,,,,,,,,,,,,,,,,,,,,,,,,,,,,,,,,,,,,,,,,,,,,,,,,,,,,,,,,,,,,,,,,,,,,,,,,,,,,,,,,,,,,,,,,,,,,,,
1725618276.456247,1725618276.45615,122.0,0.0,4250.897461,4233.846191,4274.871582,4267.820313,4203.205078,4215.384766,4173.717773,4226.922852,4219.743652,4221.153809,4535.256348,4525.897461,4374.615234,4447.692383,0.0,2.0,35.0,,,,0.0,4.0,4.0,4.0,4.0,4.0,4.0,4.0,4.0,4.0,4.0,4.0,4.0,4.0,4.0,100.0,,,,,,,,,,,,,,,,,,,,,,,,,,,,,,,,,,,,,,,,,,,,,,,,,,,,,,,,0.0,0.0,1.0,0.0,1.0,0.0,,,,,,,,,,,,,,,,,,,,,,,,,,,,,,,,,,,,,,,,,,,,,,,,,,,,,,,,,,,,,,,,,,,,,,
1725618276.460151,1725618276.459954,123.0,0.0,4248.461426,4232.94873,4272.05127,4266.794922,4203.717773,4216.282227,4172.307617,4227.179688,4217.94873,4218.333496,4527.179688,4525.256348,4369.615234,4447.307617,0.0,2.0,35.0,,,,0.0,4.0,4.0,4.0,4.0,4.0,4.0,4.0,4.0,4.0,4.0,4.0,4.0,4.0,4.0,100.0,,,,,,,,,,,,,,,,,,,,,,,,,,,,,,,,,,,,,,,,,,,,,,,,,,,,,,,,,,,,,,,,,,,,,,,,,,,,,,,,,,,,,,,,,,,,,,,,,,,,,,,,,,,,,,,,,,,,,,,,,,,,,,,,,,,
1725618276.464055,1725618276.463858,124.0,0.0,4244.615234,4232.692383,4268.717773,4265.512695,4204.230957,4216.282227,4170.512695,4225.256348,4213.077148,4212.820313,4519.358887,4521.025879,4362.179688,4443.846191,0.0,2.0,35.0,,,,0.0,4.0,4.0,4.0,4.0,4.0,4.0,4.0,4.0,4.0,4.0,4.0,4.0,4.0,4.0,100.0,,,,,,,,,,,,,,,,,,,,,,,,,,,,,,,,,,,,,,,,,,,,,,,,,,,,,,,,,,,,,,,,,,,,,,,,,,,,,,,,,,,,,,,,,,,,,,,,,,,,,,,,,,,,,,,,,,,,,,,,,,,,,,,,,,,
1725618276.46796,1725618276.467762,125.0,0.0,4240.0,4231.794922,4264.743652,4263.333496,4203.846191,4215.0,4169.871582,4222.05127,4206.538574,4205.512695,4512.563965,4513.846191,4353.974121,4437.563965,0.0,2.0,35.0,,,,0.0,4.0,4.0,4.0,4.0,4.0,4.0,4.0,4.0,4.0,4.0,4.0,4.0,4.0,4.0,100.0,,,,,,,,,,,,,,,,,,,,,,,,,,,,,,,,,,,,,,,,,,,,,,,,,,,,,,,,,,,,,,,,,,,,,,,,,,,,,,,,,,,,,,,,,,,,,,,,,,,,,,,,,,,,,,,,,,,,,,,,,,,,,,,,,,,
1725618276.471864,1725618276.471766,126.0,0.0,4234.358887,4228.461426,4259.743652,4259.102539,4201.922852,4212.692383,4170.384766,4218.974121,4199.487305,4197.179688,4505.769043,4505.128418,4345.512695,4429.230957,0.0,2.0,35.0,,,,0.0,4.0,4.0,4.0,4.0,4.0,4.0,4.0,4.0,4.0,4.0,4.0,4.0,4.0,4.0,100.0,,,,,,,,,,,,,,,,,,,,,,,,,,,,,,,,,,,,,,,,,,,,,,,,,,,,,,,,,,,,,,,,,,,,,,,,,,,,,,,,,,,,,,,,,,,,,,,,,,,,,,,,,,,,,,,,,,,,,,,,,,,,,,,,,,,
1725618276.475768,1725618276.47567,127.0,0.0,4227.179688,4220.641113,4252.307617,4251.794922,4197.692383,4210.384766,4169.743652,4216.282227,4193.077148,4188.589844,4496.922852,4495.256348,4335.769043,4419.358887,0.0,2.0,35.0,,,,0.0,4.0,4.0,4.0,4.0,4.0,4.0,4.0,4.0,4.0,4.0,4.0,4.0,4.0,4.0,100.0,,,,,,,,,,,,,,,,,,,,,,,,,,,,,,,,,,,,,,,,,,,,,,,,,,,,,,,,,,,,,,,,,,,,,,,,,,,,,,,,,,,,,,,,,,,,,,,,,,,,,,,,,,,,,,,,,,,,,,,,,,,,,,,,,,,
1725618276.479672,1725618276.479574,128.0,0.0,4217.820313,4208.461426,4242.692383,4241.666504,4191.538574,4209.102539,4166.153809,4213.717773,4187.436035,4180.512695,4485.0,4484.230957,4323.589844,4408.205078,2616.0,2.0,35.0,,,,0.0,4.0,4.0,4.0,4.0,4.0,4.0,4.0,4.0,4.0,4.0,4.0,4.0,4.0,4.0,100.0,,,,,,,,,,,,,,,,,,,,,,,,,,,,,,,,,,,,,,,,,,,,,,,,,,,,,,,,,,,,,,,,,,,,,,,,,,,,,,,,,,,,,,,,,,,,,,,,,,,,,,,,,,,,,,,,,,,,,,,,,,,,,,,,,,,
1725618276.483576,1725618276.483479,129.0,0.0,4207.436035,4194.743652,4232.820313,4231.282227,4185.128418,4209.615234,4160.0,4211.538574,4183.077148,4173.717773,4471.922852,4473.461426,4310.384766,4397.307617,2566.0,2.0,35.0,,,,0.0,4.0,4.0,4.0,4.0,4.0,4.0,4.0,4.0,4.0,4.0,4.0,4.0,4.0,4.0,100.0,,,,,,,,,,,,,,,,,,,,,,,,,,,,,,,,,,,,,,,,,,,,,,,,,,,,,,,,,,,,,,,,,,,,,,,,,,,,,,,,,,,,,,,,,,,,,,,,,,,,,,,,,,,,,,,,,,,,,,,,,,,,,,,,,,,
1725618276.48748,1725618276.487483,130.0,0.0,4198.974121,4184.487305,4227.179688,4224.358887,4180.897461,4211.538574,4155.128418,4211.794922,4181.538574,4169.871582,4463.205078,4466.410156,4300.0,4389.871582,2444.0,2.0,35.0,,,,0.0,4.0,4.0,4.0,4.0,4.0,4.0,4.0,4.0,4.0,4.0,4.0,4.0,4.0,4.0,100.0,,,,,,,,,,,,,,,,,1.0,0.0,0.0,,,,,,,,,,,,,,,,,,,,,,,,,,,,,,,,,,,,,0.0,0.0,1.0,0.0,1024.0,0.014519,2.793064,2.662848,0.629258,0.460593,0.229011,2.105638,1.626448,0.919383,0.509881,0.207294,2.427959,2.68319,1.183928,0.299395,0.317358,2.490301,1.744998,0.778485,0.42282,0.219574,0.813901,0.659947,0.799441,0.258304,0.162739,0.229124,0.210339,0.179486,0.059546,0.120084,0.712837,0.381936,0.471169,0.183683,0.14773,1.037576,1.632991,1.636211,0.48793,0.211484,1.250287,1.495693,1.702587,0.311061,0.305254,1.853758,1.570187,1.145808,0.427265,0.294999,4.745227,3.288144,2.322559,0.821672,0.356747,4.144823,3.53963,2.628991,0.603197,0.457766,3.700115,3.213501,2.179761,0.491084,0.354248,3.394346,3.571012,1.332664,0.600442,0.304985
1725618276.491384,1725618276.491387,131.0,0.0,4196.794922,4182.05127,4229.487305,4224.615234,4180.512695,4214.230957,4155.384766,4216.794922,4184.358887,4170.769043,4464.102539,4467.179688,4298.205078,4390.0,2463.0,2.0,35.0,,,,0.0,4.0,4.0,4.0,4.0,4.0,4.0,4.0,4.0,4.0,4.0,4.0,4.0,4.0,4.0,100.0,,,,,,,,,,,,,,,,,,,,,,,,,,,,,,,,,,,,,,,,,,,,,,,,,,,,,,,,,,,,,,,,,,,,,,,,,,,,,,,,,,,,,,,,,,,,,,,,,,,,,,,,,,,,,,,,,,,,,,,,,,,,,,,,,,,
1725618276.495288,1725618276.495291,132.0,0.0,4203.589844,4188.077148,4240.512695,4233.205078,4184.615234,4216.666504,4161.922852,4226.538574,4192.563965,4178.333496,4476.794922,4478.461426,4308.077148,4400.256348,2423.0,2.0,35.0,,,,0.0,4.0,4.0,4.0,4.0,4.0,4.0,4.0,4.0,4.0,4.0,4.0,4.0,4.0,4.0,100.0,,,,,,,,,,,,,,,,,,,,,,,,,,,,,,,,,,,,,,,,,,,,,,,,,,,,,,,,,,,,,,,,,,,,,,,,,,,,,,,,,,,,,,,,,,,,,,,,,,,,,,,,,,,,,,,,,,,,,,,,,,,,,,,,,,,
1725618276.499192,1725618276.499195,133.0,0.0,4219.102539,4200.0,4257.05127,4247.94873,4192.179688,4218.461426,4172.563965,4237.94873,4205.128418,4192.179688,4497.94873,4498.846191,4327.820313,4419.230957,2399.0,2.0,35.0,,,,0.0,4.0,4.0,4.0,4.0,4.0,4.0,4.0,4.0,4.0,4.0,4.0,4.0,4.0,4.0,100.0,,,,,,,,,,,,,,,,,,,,,,,,,,,,,,,,,,,,,,,,,,,,,,,,,,,,,,,,,,,,,,,,,,,,,,,,,,,,,,,,,,,,,,,,,,,,,,,,,,,,,,,,,,,,,,,,,,,,,,,,,,,,,,,,,,,
1725618276.503096,1725618276.503199,134.0,0.0,4238.461426,4213.846191,4273.717773,4263.846191,4200.897461,4220.128418,4182.692383,4247.05127,4218.589844,4209.358887,4520.384766,4522.94873,4351.282227,4441.922852,2176.0,2.0,35.0,,,,0.0,4.0,4.0,4.0,4.0,4.0,4.0,4.0,4.0,4.0,4.0,4.0,4.0,4.0,4.0,100.0,,,,,,,,,,,,,,,,,,,,,,,,,,,,,,,,,,,,,,,,,,,,,,,,,,,,,,,,,,,,,,,,,,,,,,,,,,,,,,,,,,,,,,,,,,,,,,,,,,,,,,,,,,,,,,,,,,,,,,,,,,,,,,,,,,,
1725618276.507001,1725618276.507103,135.0,0.0,4255.384766,4226.666504,4285.897461,4276.282227,4208.461426,4222.05127,4189.358887,4251.282227,4228.974121,4224.487305,4536.922852,4543.077148,4370.769043,4461.666504,2484.0,2.0,35.0,,,,0.0,4.0,4.0,4.0,4.0,4.0,4.0,4.0,4.0,4.0,4.0,4.0,4.0,4.0,4.0,100.0,,,,,,,,,,,,,,,,,,,,,,,,,,,,,,,,,,,,,,,,,,,,,,,,,,,,,,,,,,,,,,,,,,,,,,,,,,,,,,,,,,,,,,,,,,,,,,,,,,,,,,,,,,,,,,,,,,,,,,,,,,,,,,,,,,,
1725618276.510905,1725618276.511007,136.0,0.0,4265.384766,4237.05127,4292.179688,4282.563965,4213.461426,4224.102539,4192.307617,4250.641113,4233.589844,4233.333496,4545.0,4553.974121,4381.538574,4473.846191,2466.0,2.0,35.0,,,,0.0,4.0,4.0,4.0,4.0,4.0,4.0,4.0,4.0,4.0,4.0,4.0,4.0,4.0,4.0,100.0,,,,,,,,,,,,,,,,,,,,,,,,,,,,,,,,,,,,,,,,,,,,,,,,,,,,,,,,,,,,,,,,,,,,,,,,,,,,,,,,,,,,,,,,,,,,,,,,,,,,,,,,,,,,,,,,,,,,,,,,,,,,,,,,,,,
1725618276.514809,1725618276.514911,137.0,0.0,4268.077148,4244.487305,4294.358887,4283.589844,4215.897461,4226.282227,4194.102539,4247.692383,4232.94873,4235.256348,4547.436035,4554.871582,4383.846191,4478.077148,2556.0,2.0,35.0,,,,0.0,4.0,4.0,4.0,4.0,4.0,4.0,4.0,4.0,4.0,4.0,4.0,4.0,4.0,4.0,100.0,,,,,,,,,,,,,,,,,,,,,,,,,,,,,,,,,,,,,,,,,,,,,,,,,,,,,,,,,,,,,,,,,,,,,,,,,,,,,,,,,,,,,,,,,,,,,,,,,,,,,,,,,,,,,,,,,,,,,,,,,,,,,,,,,,,
1725618276.518713,1725618276.518715,138.0,0.0,4266.794922,4248.461426,4295.384766,4282.307617,4216.538574,4227.94873,4196.794922,4245.256348,4230.384766,4233.333496,4547.94873,4550.0,4382.179688,4477.307617,2892.0,2.0,35.0,,,,0.0,4.0,4.0,4.0,4.0,4.0,4.0,4.0,4.0,4.0,4.0,4.0,4.0,4.0,4.0,100.0,,,,,,,,,,,,,,,,,,,,,,,,,,,,,,,,,,,,,,,,,,,,,,,,,,,,,,,,0.0,0.0,1.0,0.0,1024.0,0.014519,,,,,,,,,,,,,,,,,,,,,,,,,,,,,,,,,,,,,,,,,,,,,,,,,,,,,,,,,,,,,,,,,,,,,,
1725618276.522617,1725618276.52262,139.0,0.0,4265.0,4248.589844,4296.666504,4281.153809,4216.922852,4228.846191,4200.512695,4244.358887,4229.487305,4231.410156,4548.589844,4545.0,4380.641113,4475.0,3066.0,2.0,35.0,,,,0.0,4.0,4.0,4.0,4.0,4.0,4.0,4.0,4.0,4.0,4.0,4.0,4.0,4.0,4.0,100.0,,,,,,,,,,,,,,,,,,,,,,,,,,,,,,,,,,,,,,,,,,,,,,,,,,,,,,,,,,,,,,,,,,,,,,,,,,,,,,,,,,,,,,,,,,,,,,,,,,,,,,,,,,,,,,,,,,,,,,,,,,,,,,,,,,,
1725618276.526521,1725618276.526524,140.0,0.0,4264.230957,4245.384766,4297.563965,4281.666504,4217.307617,4228.461426,4203.717773,4243.589844,4230.769043,4231.153809,4548.333496,4542.692383,4380.641113,4473.205078,3416.0,2.0,35.0,,,,0.0,4.0,4.0,4.0,4.0,4.0,4.0,4.0,4.0,4.0,4.0,4.0,4.0,4.0,4.0,100.0,,,,,,,,,,,,,,,,,,,,,,,,,,,,,,,,,,,,,,,,,,,,,,,,,,,,,,,,,,,,,,,,,,,,,,,,,,,,,,,,,,,,,,,,,,,,,,,,,,,,,,,,,,,,,,,,,,,,,,,,,,,,,,,,,,,
1725618276.530425,1725618276.530428,141.0,0.0,4264.230957,4240.641113,4297.563965,4283.077148,4217.94873,4227.05127,4204.615234,4240.897461,4232.94873,4231.538574,4546.282227,4542.94873,4380.897461,4471.538574,3889.0,2.0,35.0,,,,0.0,4.0,4.0,4.0,4.0,4.0,4.0,4.0,4.0,4.0,4.0,4.0,4.0,4.0,4.0,100.0,,,,,,,,,,,,,,,,,,,,,,,,,,,,,,,,,,,,,,,,,,,,,,,,,,,,,,,,,,,,,,,,,,,,,,,,,,,,,,,,,,,,,,,,,,,,,,,,,,,,,,,,,,,,,,,,,,,,,,,,,,,,,,,,,,,
1725618276.53433,1725618276.534232,142.0,0.0,4263.974121,4236.410156,4296.282227,4284.102539,4218.205078,4224.871582,4203.717773,4236.153809,4233.846191,4231.282227,4543.205078,4543.333496,4378.974121,4469.102539,2892.0,2.0,35.0,,,,0.0,4.0,4.0,4.0,4.0,4.0,4.0,4.0,4.0,4.0,4.0,4.0,4.0,4.0,4.0,100.0,,,,,,,,,,,,,,,,,,,,,,,,,,,,,,,,,,,,,,,,,,,,,,,,,,,,,,,,,,,,,,,,,,,,,,,,,,,,,,,,,,,,,,,,,,,,,,,,,,,,,,,,,,,,,,,,,,,,,,,,,,,,,,,,,,,
1725618276.538234,1725618276.538136,143.0,0.0,4263.077148,4234.487305,4295.0,4283.846191,4217.692383,4222.436035,4203.205078,4231.282227,4232.436035,4230.256348,4540.384766,4542.436035,4374.615234,4465.769043,3066.0,2.0,35.0,,,,0.0,4.0,4.0,4.0,4.0,4.0,4.0,4.0,4.0,4.0,4.0,4.0,4.0,4.0,4.0,100.0,,,,,,,,,,,,,,,,,,,,,,,,,,,,,,,,,,,,,,,,,,,,,,,,,,,,,,,,,,,,,,,,,,,,,,,,,,,,,,,,,,,,,,,,,,,,,,,,,,,,,,,,,,,,,,,,,,,,,,,,,,,,,,,,,,,
1725618276.542138,1725618276.54204,144.0,0.0,4261.538574,4234.871582,4294.615234,4282.179688,4216.410156,4220.256348,4204.871582,4228.717773,4229.102539,4229.743652,4538.461426,4540.641113,4369.743652,4462.94873,3416.0,2.0,35.0,,,,0.0,4.0,4.0,4.0,4.0,4.0,4.0,4.0,4.0,4.0,4.0,4.0,4.0,4.0,4.0,100.0,,,,,,,,,,,,,,,,,,,,,,,,,,,,,,,,,,,,,,,,,,,,,,,,,,,,,,,,,,,,,,,,,,,,,,,,,,,,,,,,,,,,,,,,,,,,,,,,,,,,,,,,,,,,,,,,,,,,,,,,,,,,,,,,,,,
1725618276.546042,1725618276.545944,145.0,0.0,4259.358887,4236.794922,4295.128418,4280.256348,4215.128418,4218.974121,4208.205078,4229.102539,4226.282227,4230.128418,4536.666504,4539.102539,4366.794922,4461.666504,3889.0,2.0,35.0,,,,0.0,4.0,4.0,4.0,4.0,4.0,4.0,4.0,4.0,4.0,4.0,4.0,4.0,4.0,4.0,100.0,,,,,,,,,,,,,,,,,,,,,,,,,,,,,,,,,,,,,,,,,,,,,,,,,,,,,,,,,,,,,,,,,,,,,,,,,,,,,,,,,,,,,,,,,,,,,,,,,,,,,,,,,,,,,,,,,,,,,,,,,,,,,,,,,,,
1725618276.549946,1725618276.549748,146.0,0.0,4256.794922,4237.820313,4295.512695,4278.717773,4214.743652,4218.974121,4211.282227,4230.897461,4226.153809,4231.153809,4533.974121,4538.846191,4367.05127,4462.05127,2892.0,2.0,35.0,,,,0.0,4.0,4.0,4.0,4.0,4.0,4.0,4.0,4.0,4.0,4.0,4.0,4.0,4.0,4.0,100.0,,,,,,,,,,,,,,,,,,,,,,,,,,,,,,,,,,,,,,,,,,,,,,,,,,,,,,,,0.0,0.0,1.0,0.0,1024.0,0.014519,,,,,,,,,,,,,,,,,,,,,,,,,,,,,,,,,,,,,,,,,,,,,,,,,,,,,,,,,,,,,,,,,,,,,,
1725618276.55385,1725618276.553653,147.0,0.0,4254.615234,4236.794922,4295.256348,4277.692383,4215.384766,4219.871582,4212.692383,4232.307617,4228.846191,4231.666504,4530.641113,4539.487305,4369.615234,4462.563965,3066.0,2.0,35.0,,,,0.0,4.0,4.0,4.0,4.0,4.0,4.0,4.0,4.0,4.0,4.0,4.0,4.0,4.0,4.0,100.0,,,,,,,,,,,,,,,,,,,,,,,,,,,,,,,,,,,,,,,,,,,,,,,,,,,,,,,,,,,,,,,,,,,,,,,,,,,,,,,,,,,,,,,,,,,,,,,,,,,,,,,,,,,,,,,,,,,,,,,,,,,,,,,,,,,
1725618276.557754,1725618276.557557,148.0,0.0,4254.102539,4234.358887,4294.487305,4277.436035,4216.282227,4220.897461,4212.692383,4232.307617,4232.179688,4231.282227,4528.461426,4540.512695,4372.94873,4462.820313,3416.0,2.0,35.0,,,,0.0,4.0,4.0,4.0,4.0,4.0,4.0,4.0,4.0,4.0,4.0,4.0,4.0,4.0,4.0,100.0,,,,,,,,,,,,,,,,,,,,,,,,,,,,,,,,,,,,,,,,,,,,,,,,,,,,,,,,,,,,,,,,,,,,,,,,,,,,,,,,,,,,,,,,,,,,,,,,,,,,,,,,,,,,,,,,,,,,,,,,,,,,,,,,,,,
1725618276.561658,1725618276.561461,149.0,0.0,4255.769043,4232.820313,4294.102539,4278.461426,4216.794922,4220.897461,4212.820313,4231.794922,4232.692383,4230.384766,4529.358887,4541.282227,4376.025879,4462.692383,3889.0,2.0,35.0,,,,0.0,4.0,4.0,4.0,4.0,4.0,4.0,4.0,4.0,4.0,4.0,4.0,4.0,4.0,4.0,100.0,,,,,,,,,,,,,,,,,,,,,,,,,,,,,,,,,,,,,,,,,,,,,,,,,,,,,,,,,,,,,,,,,,,,,,,,,,,,,,,,,,,,,,,,,,,,,,,,,,,,,,,,,,,,,,,,,,,,,,,,,,,,,,,,,,,
1725618276.565562,1725618276.565265,150.0,0.0,4258.333496,4233.589844,4293.717773,4280.128418,4216.282227,4220.128418,4213.846191,4231.153809,4228.589844,4229.102539,4533.333496,4540.769043,4378.205078,4462.692383,2892.0,2.0,35.0,,,,0.0,4.0,4.0,4.0,4.0,4.0,4.0,4.0,4.0,4.0,4.0,4.0,4.0,4.0,4.0,100.0,,,,,,,,,,,,,,,,,,,,,,,,,,,,,,,,,,,,,,,,,,,,,,,,,,,,,,,,,,,,,,,,,,,,,,,,,,,,,,,,,,,,,,,,,,,,,,,,,,,,,,,,,,,,,,,,,,,,,,,,,,,,,,,,,,,
1725618276.569466,1725618276.569169,151.0,0.0,4259.487305,4236.025879,4292.563965,4281.282227,4215.128418,4218.974121,4215.256348,4230.512695,4221.282227,4227.692383,4537.563965,4538.974121,4378.846191,4462.563965,3066.0,2.0,35.0,,,,0.0,4.0,4.0,4.0,4.0,4.0,4.0,4.0,4.0,4.0,4.0,4.0,4.0,4.0,4.0,100.0,,,,,,,,,,,,,,,,,,,,,,,,,,,,,,,,,,,,,,,,,,,,,,,,,,,,,,,,,,,,,,,,,,,,,,,,,,,,,,,,,,,,,,,,,,,,,,,,,,,,,,,,,,,,,,,,,,,,,,,,,,,,,,,,,,,
1725618276.573371,1725618276.573073,152.0,0.0,4257.94873,4237.692383,4289.487305,4280.512695,4214.358887,4218.077148,4216.153809,4229.871582,4215.256348,4227.436035,4539.358887,4536.922852,4377.94873,4462.307617,3416.0,2.0,35.0,,,,0.0,4.0,4.0,4.0,4.0,4.0,4.0,4.0,4.0,4.0,4.0,4.0,4.0,4.0,4.0,100.0,,,,,,,,,,,,,,,,,,,,,,,,,,,,,,,,,,,,,,,,,,,,,,,,,,,,,,,,,,,,,,,,,,,,,,,,,,,,,,,,,,,,,,,,,,,,,,,,,,,,,,,,,,,,,,,,,,,,,,,,,,,,,,,,,,,
1725618276.577275,1725618276.577077,153.0,0.0,4254.230957,4236.025879,4284.871582,4277.179688,4214.615234,4217.94873,4216.282227,4229.743652,4215.256348,4228.974121,4538.589844,4537.05127,4376.410156,4461.922852,3889.0,2.0,35.0,,,,0.0,4.0,4.0,4.0,4.0,4.0,4.0,4.0,4.0,4.0,4.0,4.0,4.0,4.0,4.0,100.0,,,,,,,,,,,,,,,,,,,,,,,,,,,,,,,,,,,,,,,,,,,,,,,,,,,,,,,,,,,,,,,,,,,,,,,,,,,,,,,,,,,,,,,,,,,,,,,,,,,,,,,,,,,,,,,,,,,,,,,,,,,,,,,,,,,
1725618276.581179,1725618276.580981,154.0,0.0,4250.128418,4231.153809,4280.256348,4272.563965,4215.256348,4218.333496,4216.282227,4231.410156,4221.666504,4231.794922,4537.179688,4539.743652,4374.743652,4461.538574,2892.0,2.0,35.0,,,,0.0,4.0,4.0,4.0,4.0,4.0,4.0,4.0,4.0,4.0,4.0,4.0,4.0,4.0,4.0,100.0,,,,,,,,,,,,,,,,,,,,,,,,,,,,,,,,,,,,,,,,,,,,,,,,,,,,,,,,0.0,0.0,1.0,0.0,1024.0,0.014519,,,,,,,,,,,,,,,,,,,,,,,,,,,,,,,,,,,,,,,,,,,,,,,,,,,,,,,,,,,,,,,,,,,,,,
1725618276.585083,1725618276.584885,155.0,0.0,4247.179688,4224.871582,4277.563965,4268.077148,4215.0,4218.589844,4216.410156,4233.974121,4229.871582,4233.077148,4537.179688,4542.179688,4373.461426,4461.025879,3066.0,2.0,35.0,,,,0.0,4.0,4.0,4.0,4.0,4.0,4.0,4.0,4.0,4.0,4.0,4.0,4.0,4.0,4.0,100.0,,,,,,,,,,,,,,,,,,,,,,,,,,,,,,,,,,,,,,,,,,,,,,,,,,,,,,,,,,,,,,,,,,,,,,,,,,,,,,,,,,,,,,,,,,,,,,,,,,,,,,,,,,,,,,,,,,,,,,,,,,,,,,,,,,,
1725618276.588987,1725618276.588889,156.0,0.0,4245.641113,4219.615234,4277.05127,4265.256348,4212.563965,4218.333496,4216.666504,4235.769043,4233.589844,4231.410156,4538.077148,4541.025879,4372.179688,4460.128418,3416.0,2.0,35.0,,,,0.0,4.0,4.0,4.0,4.0,4.0,4.0,4.0,4.0,4.0,4.0,4.0,4.0,4.0,4.0,100.0,,,,,,,,,,,,,,,,,,,,,,,,,,,,,,,,,,,,,,,,,,,,,,,,,,,,,,,,,,,,,,,,,,,,,,,,,,,,,,,,,,,,,,,,,,,,,,,,,,,,,,,,,,,,,,,,,,,,,,,,,,,,,,,,,,,
1725618276.592891,1725618276.592794,157.0,0.0,4244.871582,4217.05127,4277.692383,4264.358887,4208.333496,4217.563965,4216.794922,4234.743652,4230.128418,4227.692383,4538.461426,4535.641113,4370.897461,4458.589844,3889.0,2.0,35.0,,,,0.0,4.0,4.0,4.0,4.0,4.0,4.0,4.0,4.0,4.0,4.0,4.0,4.0,4.0,4.0,100.0,,,,,,,,,,,,,,,,,,,,,,,,,,,,,,,,,,,,,,,,,,,,,,,,,,,,,,,,,,,,,,,,,,,,,,,,,,,,,,,,,,,,,,,,,,,,,,,,,,,,,,,,,,,,,,,,,,,,,,,,,,,,,,,,,,,
1725618276.596795,1725618276.596698,158.0,0.0,4244.230957,4217.307617,4278.333496,4265.0,4203.974121,4217.179688,4216.922852,4232.307617,4222.94873,4224.871582,4537.94873,4529.230957,4370.769043,4456.666504,2892.0,2.0,35.0,,,,0.0,4.0,4.0,4.0,4.0,4.0,4.0,4.0,4.0,4.0,4.0,4.0,4.0,4.0,4.0,100.0,,,,,,,,,,,,,,,,,,,,,,,,,,,,,,,,,,,,,,,,,,,,,,,,,,,,,,,,,,,,,,,,,,,,,,,,,,,,,,,,,,,,,,,,,,,,,,,,,,,,,,,,,,,,,,,,,,,,,,,,,,,,,,,,,,,
1725618276.600699,1725618276.600602,159.0,0.0,4243.589844,4219.102539,4278.205078,4265.897461,4201.538574,4217.436035,4217.436035,4231.666504,4218.077148,4224.743652,4537.179688,4525.897461,4372.179688,4455.641113,3066.0,2.0,35.0,,,,0.0,4.0,4.0,4.0,4.0,4.0,4.0,4.0,4.0,4.0,4.0,4.0,4.0,4.0,4.0,100.0,,,,,,,,,,,,,,,,,,,,,,,,,,,,,,,,,,,,,,,,,,,,,,,,,,,,,,,,,,,,,,,,,,,,,,,,,,,,,,,,,,,,,,,,,,,,,,,,,,,,,,,,,,,,,,,,,,,,,,,,,,,,,,,,,,,
1725618276.604603,1725618276.604506,160.0,0.0,4242.820313,4220.512695,4277.307617,4266.410156,4201.922852,4218.846191,4218.077148,4235.256348,4219.230957,4227.307617,4536.794922,4527.563965,4374.615234,4455.897461,3416.0,2.0,35.0,,,,0.0,4.0,4.0,4.0,4.0,4.0,4.0,4.0,4.0,4.0,4.0,4.0,4.0,4.0,4.0,100.0,,,,,,,,,,,,,,,,,,,,,,,,,,,,,,,,,,,,,,,,,,,,,,,,,,,,,,,,,,,,,,,,,,,,,,,,,,,,,,,,,,,,,,,,,,,,,,,,,,,,,,,,,,,,,,,,,,,,,,,,,,,,,,,,,,,
1725618276.608508,1725618276.60841,161.0,0.0,4242.179688,4220.256348,4275.769043,4266.025879,4204.102539,4220.641113,4218.589844,4241.666504,4225.0,4229.615234,4536.666504,4532.436035,4376.410156,4457.05127,3889.0,2.0,35.0,,,,0.0,4.0,4.0,4.0,4.0,4.0,4.0,4.0,4.0,4.0,4.0,4.0,4.0,4.0,4.0,100.0,,,,,,,,,,,,,,,,,,,,,,,,,,,,,,,,,,,,,,,,,,,,,,,,,,,,,,,,,,,,,,,,,,,,,,,,,,,,,,,,,,,,,,,,,,,,,,,,,,,,,,,,,,,,,,,,,,,,,,,,,,,,,,,,,,,
1725618276.612412,1725618276.612314,162.0,0.0,4241.153809,4218.461426,4273.589844,4264.743652,4206.025879,4221.410156,4218.589844,4245.641113,4230.256348,4229.358887,4535.512695,4535.897461,4376.282227,4457.436035,2892.0,2.0,35.0,,,,0.0,4.0,4.0,4.0,4.0,4.0,4.0,4.0,4.0,4.0,4.0,4.0,4.0,4.0,4.0,100.0,,,,,,,,,,,,,,,,,1.0,0.0,0.0,,,,,,,,,,,,,,,,,,,,,,,,,,,,,,,,,,,,,0.0,0.0,1.0,0.0,1024.0,0.00534,2.813377,2.709904,0.655764,0.466879,0.171944,2.043123,1.675172,0.943145,0.514686,0.16996,2.56319,2.742748,1.202438,0.292417,0.272438,2.425736,1.734873,0.791515,0.431938,0.159884,0.748203,0.670851,0.830258,0.228796,0.128187,0.242088,0.239349,0.145641,0.059744,0.07632,0.654912,0.402637,0.470789,0.171054,0.123472,1.199137,1.555191,1.63669,0.515378,0.175244,1.365713,1.246889,1.547622,0.323272,0.2605,1.877238,1.546473,1.081675,0.423827,0.203073,4.579604,3.385106,2.436665,0.860398,0.277392,4.371687,3.664182,2.735853,0.60968,0.340025,3.68885,3.301631,2.304724,0.500731,0.29195,3.446361,3.677092,1.378807,0.606255,0.215797
1725618276.616316,1725618276.616218,163.0,0.0,4239.102539,4216.666504,4271.410156,4263.205078,4206.025879,4220.128418,4218.461426,4242.692383,4230.641113,4225.256348,4532.563965,4534.102539,4374.230957,4455.512695,3066.0,2.0,35.0,,,,0.0,4.0,4.0,4.0,4.0,4.0,4.0,4.0,4.0,4.0,4.0,4.0,4.0,4.0,4.0,100.0,,,,,,,,,,,,,,,,,,,,,,,,,,,,,,,,,,,,,,,,,,,,,,,,,,,,,,,,,,,,,,,,,,,,,,,,,,,,,,,,,,,,,,,,,,,,,,,,,,,,,,,,,,,,,,,,,,,,,,,,,,,,,,,,,,,
1725618276.62022,1725618276.620122,164.0,0.0,4236.153809,4216.410156,4269.102539,4262.179688,4203.974121,4216.794922,4219.358887,4232.563965,4225.384766,4219.102539,4528.077148,4527.307617,4371.025879,4451.282227,3416.0,2.0,35.0,,,,0.0,4.0,4.0,4.0,4.0,4.0,4.0,4.0,4.0,4.0,4.0,4.0,4.0,4.0,4.0,100.0,,,,,,,,,,,,,,,,,,,,,,,,,,,,,,,,,,,,,,,,,,,,,,,,,,,,,,,,,,,,,,,,,,,,,,,,,,,,,,,,,,,,,,,,,,,,,,,,,,,,,,,,,,,,,,,,,,,,,,,,,,,,,,,,,,,
1725618276.624124,1725618276.623926,165.0,0.0,4233.717773,4217.692383,4266.794922,4262.179688,4201.410156,4212.94873,4221.666504,4219.871582,4218.077148,4214.230957,4523.717773,4519.487305,4367.94873,4446.410156,3889.0,2.0,35.0,,,,0.0,4.0,4.0,4.0,4.0,4.0,4.0,4.0,4.0,4.0,4.0,4.0,4.0,4.0,4.0,100.0,,,,,,,,,,,,,,,,,,,,,,,,,,,,,,,,,,,,,,,,,,,,,,,,,,,,,,,,,,,,,,,,,,,,,,,,,,,,,,,,,,,,,,,,,,,,,,,,,,,,,,,,,,,,,,,,,,,,,,,,,,,,,,,,,,,
1725618276.628028,1725618276.627831,166.0,0.0,4233.333496,4219.230957,4264.743652,4263.077148,4199.743652,4210.384766,4225.384766,4210.897461,4213.077148,4212.692383,4521.153809,4515.256348,4365.897461,4442.94873,2892.0,2.0,35.0,,,,0.0,4.0,4.0,4.0,4.0,4.0,4.0,4.0,4.0,4.0,4.0,4.0,4.0,4.0,4.0,100.0,,,,,,,,,,,,,,,,,,,,,,,,,,,,,,,,,,,,,,,,,,,,,,,,,,,,,,,,,,,,,,,,,,,,,,,,,,,,,,,,,,,,,,,,,,,,,,,,,,,,,,,,,,,,,,,,,,,,,,,,,,,,,,,,,,,
1725618276.631932,1725618276.631735,167.0,0.0,4234.615234,4219.615234,4263.333496,4264.230957,4199.743652,4210.0,4229.102539,4209.487305,4212.692383,4214.615234,4520.641113,4516.794922,4365.256348,4442.179688,3066.0,2.0,35.0,,,,0.0,4.0,4.0,4.0,4.0,4.0,4.0,4.0,4.0,4.0,4.0,4.0,4.0,4.0,4.0,100.0,,,,,,,,,,,,,,,,,,,,,,,,,,,,,,,,,,,,,,,,,,,,,,,,,,,,,,,,,,,,,,,,,,,,,,,,,,,,,,,,,,,,,,,,,,,,,,,,,,,,,,,,,,,,,,,,,,,,,,,,,,,,,,,,,,,
1725618276.635836,1725618276.635639,168.0,0.0,4236.025879,4218.846191,4263.333496,4265.0,4200.897461,4211.410156,4231.666504,4213.846191,4215.897461,4217.307617,4521.410156,4521.922852,4365.769043,4443.846191,3416.0,2.0,35.0,,,,0.0,4.0,4.0,4.0,4.0,4.0,4.0,4.0,4.0,4.0,4.0,4.0,4.0,4.0,4.0,100.0,,,,,,,,,,,,,,,,,,,,,,,,,,,,,,,,,,,,,,,,,,,,,,,,,,,,,,,,,,,,,,,,,,,,,,,,,,,,,,,,,,,,,,,,,,,,,,,,,,,,,,,,,,,,,,,,,,,,,,,,,,,,,,,,,,,
1725618276.63974,1725618276.639443,169.0,0.0,4236.153809,4217.436035,4264.743652,4264.871582,4201.922852,4213.205078,4232.563965,4219.230957,4219.230957,4218.589844,4522.307617,4526.025879,4366.922852,4445.769043,3889.0,2.0,35.0,,,,0.0,4.0,4.0,4.0,4.0,4.0,4.0,4.0,4.0,4.0,4.0,4.0,4.0,4.0,4.0,100.0,,,,,,,,,,,,,,,,,,,,,,,,,,,,,,,,,,,,,,,,,,,,,,,,,,,,,,,,,,,,,,,,,,,,,,,,,,,,,,,,,,,,,,,,,,,,,,,,,,,,,,,,,,,,,,,,,,,,,,,,,,,,,,,,,,,
1725618276.643644,1725618276.643347,170.0,0.0,4235.128418,4216.538574,4266.666504,4263.589844,4202.307617,4214.102539,4231.922852,4220.897461,4219.487305,4218.461426,4522.820313,4525.897461,4367.436035,4446.666504,2892.0,2.0,35.0,,,,0.0,4.0,4.0,4.0,4.0,4.0,4.0,4.0,4.0,4.0,4.0,4.0,4.0,4.0,4.0,100.0,,,,,,,,,,,,,,,,,,,,,,,,,,,,,,,,,,,,,,,,,,,,,,,,,,,,,,,,0.0,0.0,1.0,0.0,1024.0,0.00534,,,,,,,,,,,,,,,,,,,,,,,,,,,,,,,,,,,,,,,,,,,,,,,,,,,,,,,,,,,,,,,,,,,,,,
1725618276.647549,1725618276.647251,171.0,0.0,4233.717773,4216.538574,4268.333496,4261.794922,4201.922852,4213.589844,4231.282227,4218.077148,4215.769043,4217.692383,4523.205078,4522.307617,4366.538574,4446.153809,3066.0,2.0,35.0,,,,0.0,4.0,4.0,4.0,4.0,4.0,4.0,4.0,4.0,4.0,4.0,4.0,4.0,4.0,4.0,100.0,,,,,,,,,,,,,,,,,,,,,,,,,,,,,,,,,,,,,,,,,,,,,,,,,,,,,,,,,,,,,,,,,,,,,,,,,,,,,,,,,,,,,,,,,,,,,,,,,,,,,,,,,,,,,,,,,,,,,,,,,,,,,,,,,,,
1725618276.651453,1725618276.651155,172.0,0.0,4233.205078,4217.307617,4269.102539,4260.897461,4201.538574,4212.179688,4231.922852,4213.717773,4209.743652,4217.307617,4524.102539,4519.102539,4363.974121,4445.128418,3416.0,2.0,35.0,,,,0.0,4.0,4.0,4.0,4.0,4.0,4.0,4.0,4.0,4.0,4.0,4.0,4.0,4.0,4.0,100.0,,,,,,,,,,,,,,,,,,,,,,,,,,,,,,,,,,,,,,,,,,,,,,,,,,,,,,,,,,,,,,,,,,,,,,,,,,,,,,,,,,,,,,,,,,,,,,,,,,,,,,,,,,,,,,,,,,,,,,,,,,,,,,,,,,,
1725618276.655357,1725618276.654959,173.0,0.0,4233.333496,4218.461426,4268.205078,4261.666504,4201.666504,4211.025879,4233.717773,4211.538574,4204.102539,4216.538574,4525.128418,4519.102539,4360.384766,4444.487305,3889.0,2.0,35.0,,,,0.0,4.0,4.0,4.0,4.0,4.0,4.0,4.0,4.0,4.0,4.0,4.0,4.0,4.0,4.0,100.0,,,,,,,,,,,,,,,,,,,,,,,,,,,,,,,,,,,,,,,,,,,,,,,,,,,,,,,,,,,,,,,,,,,,,,,,,,,,,,,,,,,,,,,,,,,,,,,,,,,,,,,,,,,,,,,,,,,,,,,,,,,,,,,,,,,
1725618276.659261,1725618276.658864,174.0,0.0,4233.333496,4219.358887,4266.282227,4263.333496,4202.563965,4210.897461,4235.769043,4212.94873,4200.512695,4213.974121,4525.897461,4521.282227,4357.307617,4444.487305,2892.0,2.0,35.0,,,,0.0,4.0,4.0,4.0,4.0,4.0,4.0,4.0,4.0,4.0,4.0,4.0,4.0,4.0,4.0,100.0,,,,,,,,,,,,,,,,,,,,,,,,,,,,,,,,,,,,,,,,,,,,,,,,,,,,,,,,,,,,,,,,,,,,,,,,,,,,,,,,,,,,,,,,,,,,,,,,,,,,,,,,,,,,,,,,,,,,,,,,,,,,,,,,,,,
1725618276.663165,1725618276.662768,175.0,0.0,4232.436035,4219.487305,4264.358887,4264.615234,4203.717773,4211.794922,4236.410156,4216.410156,4199.358887,4209.358887,4525.641113,4522.436035,4355.897461,4444.615234,3066.0,2.0,35.0,,,,0.0,4.0,4.0,4.0,4.0,4.0,4.0,4.0,4.0,4.0,4.0,4.0,4.0,4.0,4.0,100.0,,,,,,,,,,,,,,,,,,,,,,,,,,,,,,,,,,,,,,,,,,,,,,,,,,,,,,,,,,,,,,,,,,,,,,,,,,,,,,,,,,,,,,,,,,,,,,,,,,,,,,,,,,,,,,,,,,,,,,,,,,,,,,,,,,,
1725618276.667069,1725618276.666672,176.0,0.0,4230.897461,4218.589844,4263.461426,4264.230957,4204.487305,4212.820313,4235.641113,4218.461426,4200.128418,4203.846191,4523.589844,4520.128418,4356.282227,4443.974121,3416.0,2.0,35.0,,,,0.0,4.0,4.0,4.0,4.0,4.0,4.0,4.0,4.0,4.0,4.0,4.0,4.0,4.0,4.0,100.0,,,,,,,,,,,,,,,,,,,,,,,,,,,,,,,,,,,,,,,,,,,,,,,,,,,,,,,,,,,,,,,,,,,,,,,,,,,,,,,,,,,,,,,,,,,,,,,,,,,,,,,,,,,,,,,,,,,,,,,,,,,,,,,,,,,
1725618276.670973,1725618276.670476,177.0,0.0,4229.615234,4217.436035,4263.846191,4262.94873,4204.358887,4213.589844,4235.0,4218.205078,4201.666504,4200.0,4520.256348,4515.0,4357.307617,4442.820313,3889.0,2.0,35.0,,,,0.0,4.0,4.0,4.0,4.0,4.0,4.0,4.0,4.0,4.0,4.0,4.0,4.0,4.0,4.0,100.0,,,,,,,,,,,,,,,,,,,,,,,,,,,,,,,,,,,,,,,,,,,,,,,,,,,,,,,,,,,,,,,,,,,,,,,,,,,,,,,,,,,,,,,,,,,,,,,,,,,,,,,,,,,,,,,,,,,,,,,,,,,,,,,,,,,
1725618276.674877,1725618276.67438,178.0,0.0,4229.358887,4216.666504,4264.871582,4261.666504,4203.974121,4213.461426,4235.769043,4216.538574,4202.820313,4199.230957,4517.563965,4509.615234,4356.922852,4442.05127,2892.0,2.0,35.0,,,,0.0,4.0,4.0,4.0,4.0,4.0,4.0,4.0,4.0,4.0,4.0,4.0,4.0,4.0,4.0,100.0,,,,,,,,,,,,,,,,,,,,,,,,,,,,,,,,,,,,,,,,,,,,,,,,,,,,,,,,0.0,0.0,1.0,0.0,1024.0,0.00534,,,,,,,,,,,,,,,,,,,,,,,,,,,,,,,,,,,,,,,,,,,,,,,,,,,,,,,,,,,,,,,,,,,,,,
1725618276.678781,1725618276.678284,179.0,0.0,4229.871582,4216.794922,4265.897461,4261.282227,4203.846191,4212.94873,4238.974121,4215.512695,4202.692383,4200.769043,4517.179688,4506.282227,4354.615234,4441.538574,3066.0,2.0,35.0,,,,0.0,4.0,4.0,4.0,4.0,4.0,4.0,4.0,4.0,4.0,4.0,4.0,4.0,4.0,4.0,100.0,,,,,,,,,,,,,,,,,,,,,,,,,,,,,,,,,,,,,,,,,,,,,,,,,,,,,,,,,,,,,,,,,,,,,,,,,,,,,,,,,,,,,,,,,,,,,,,,,,,,,,,,,,,,,,,,,,,,,,,,,,,,,,,,,,,
1725618276.682686,1725618276.682288,180.0,0.0,4230.641113,4217.436035,4265.897461,4261.410156,4204.743652,4212.820313,4243.461426,4215.897461,4201.282227,4202.436035,4519.358887,4505.769043,4351.538574,4440.512695,3416.0,2.0,35.0,,,,0.0,4.0,4.0,4.0,4.0,4.0,4.0,4.0,4.0,4.0,4.0,4.0,4.0,4.0,4.0,100.0,,,,,,,,,,,,,,,,,,,,,,,,,,,,,,,,,,,,,,,,,,,,,,,,,,,,,,,,,,,,,,,,,,,,,,,,,,,,,,,,,,,,,,,,,,,,,,,,,,,,,,,,,,,,,,,,,,,,,,,,,,,,,,,,,,,
1725618276.68659,1725618276.686192,181.0,0.0,4230.769043,4217.820313,4265.128418,4261.538574,4206.666504,4213.205078,4247.436035,4217.05127,4200.0,4202.179688,4521.922852,4506.922852,4349.230957,4437.436035,3889.0,2.0,35.0,,,,0.0,4.0,4.0,4.0,4.0,4.0,4.0,4.0,4.0,4.0,4.0,4.0,4.0,4.0,4.0,100.0,,,,,,,,,,,,,,,,,,,,,,,,,,,,,,,,,,,,,,,,,,,,,,,,,,,,,,,,,,,,,,,,,,,,,,,,,,,,,,,,,,,,,,,,,,,,,,,,,,,,,,,,,,,,,,,,,,,,,,,,,,,,,,,,,,,
1725618276.690494,1725618276.690096,182.0,0.0,4230.128418,4217.692383,4264.102539,4261.282227,4209.487305,4213.846191,4249.487305,4217.94873,4200.0,4198.846191,4522.179688,4508.077148,4348.205078,4432.692383,2892.0,2.0,35.0,,,,0.0,4.0,4.0,4.0,4.0,4.0,4.0,4.0,4.0,4.0,4.0,4.0,4.0,4.0,4.0,100.0,,,,,,,,,,,,,,,,,,,,,,,,,,,,,,,,,,,,,,,,,,,,,,,,,,,,,,,,,,,,,,,,,,,,,,,,,,,,,,,,,,,,,,,,,,,,,,,,,,,,,,,,,,,,,,,,,,,,,,,,,,,,,,,,,,,
1725618276.694398,1725618276.6941,183.0,0.0,4229.230957,4217.05127,4263.077148,4260.897461,4212.563965,4214.102539,4249.487305,4218.461426,4201.282227,4193.589844,4519.102539,4508.205078,4347.563965,4428.077148,3066.0,2.0,35.0,,,,0.0,4.0,4.0,4.0,4.0,4.0,4.0,4.0,4.0,4.0,4.0,4.0,4.0,4.0,4.0,100.0,,,,,,,,,,,,,,,,,,,,,,,,,,,,,,,,,,,,,,,,,,,,,,,,,,,,,,,,,,,,,,,,,,,,,,,,,,,,,,,,,,,,,,,,,,,,,,,,,,,,,,,,,,,,,,,,,,,,,,,,,,,,,,,,,,,
1725618276.698302,1725618276.698005,184.0,0.0,4228.974121,4216.410156,4262.94873,4260.641113,4215.0,4213.846191,4248.717773,4218.461426,4202.692383,4189.358887,4514.615234,4507.05127,4346.538574,4426.153809,3416.0,2.0,35.0,,,,0.0,4.0,4.0,4.0,4.0,4.0,4.0,4.0,4.0,4.0,4.0,4.0,4.0,4.0,4.0,100.0,,,,,,,,,,,,,,,,,,,,,,,,,,,,,,,,,,,,,,,,,,,,,,,,,,,,,,,,,,,,,,,,,,,,,,,,,,,,,,,,,,,,,,,,,,,,,,,,,,,,,,,,,,,,,,,,,,,,,,,,,,,,,,,,,,,
1725618276.702206,1725618276.701909,185.0,0.0,4229.743652,4216.410156,4264.487305,4261.025879,4216.025879,4213.589844,4248.974121,4217.820313,4203.205078,4188.589844,4512.436035,4506.153809,4345.641113,4428.333496,3889.0,2.0,35.0,,,,0.0,4.0,4.0,4.0,4.0,4.0,4.0,4.0,4.0,4.0,4.0,4.0,4.0,4.0,4.0,100.0,,,,,,,,,,,,,,,,,,,,,,,,,,,,,,,,,,,,,,,,,,,,,,,,,,,,,,,,,,,,,,,,,,,,,,,,,,,,,,,,,,,,,,,,,,,,,,,,,,,,,,,,,,,,,,,,,,,,,,,,,,,,,,,,,,,
1725618276.70611,1725618276.705813,186.0,0.0,4231.538574,4217.179688,4267.94873,4262.307617,4216.025879,4213.846191,4251.153809,4217.05127,4202.94873,4191.538574,4514.743652,4506.922852,4346.282227,4433.846191,2892.0,2.0,35.0,,,,0.0,4.0,4.0,4.0,4.0,4.0,4.0,4.0,4.0,4.0,4.0,4.0,4.0,4.0,4.0,100.0,,,,,,,,,,,,,,,,,,,,,,,,,,,,,,,,,,,,,,,,,,,,,,,,,,,,,,,,0.0,0.0,1.0,0.0,1024.0,0.00534,,,,,,,,,,,,,,,,,,,,,,,,,,,,,,,,,,,,,,,,,,,,,,,,,,,,,,,,,,,,,,,,,,,,,,
1725618276.710014,1725618276.709717,187.0,0.0,4233.333496,4218.461426,4272.692383,4264.230957,4215.256348,4215.0,4255.256348,4216.538574,4202.307617,4196.410156,4520.128418,4510.0,4348.846191,4439.871582,3066.0,2.0,35.0,,,,0.0,4.0,4.0,4.0,4.0,4.0,4.0,4.0,4.0,4.0,4.0,4.0,4.0,4.0,4.0,100.0,,,,,,,,,,,,,,,,,,,,,,,,,,,,,,,,,,,,,,,,,,,,,,,,,,,,,,,,,,,,,,,,,,,,,,,,,,,,,,,,,,,,,,,,,,,,,,,,,,,,,,,,,,,,,,,,,,,,,,,,,,,,,,,,,,,
1725618276.713918,1725618276.713521,188.0,0.0,4234.743652,4219.615234,4276.922852,4265.769043,4214.358887,4216.410156,4259.743652,4216.666504,4201.410156,4200.384766,4524.871582,4514.871582,4352.05127,4443.717773,3416.0,2.0,35.0,,,,0.0,4.0,4.0,4.0,4.0,4.0,4.0,4.0,4.0,4.0,4.0,4.0,4.0,4.0,4.0,100.0,,,,,,,,,,,,,,,,,,,,,,,,,,,,,,,,,,,,,,,,,,,,,,,,,,,,,,,,,,,,,,,,,,,,,,,,,,,,,,,,,,,,,,,,,,,,,,,,,,,,,,,,,,,,,,,,,,,,,,,,,,,,,,,,,,,
1725618276.717822,1725618276.717425,189.0,0.0,4236.025879,4220.128418,4278.846191,4266.410156,4213.589844,4217.05127,4262.820313,4217.179688,4200.0,4201.538574,4526.410156,4519.487305,4353.717773,4444.358887,3889.0,2.0,35.0,,,,0.0,4.0,4.0,4.0,4.0,4.0,4.0,4.0,4.0,4.0,4.0,4.0,4.0,4.0,4.0,100.0,,,,,,,,,,,,,,,,,,,,,,,,,,,,,,,,,,,,,,,,,,,,,,,,,,,,,,,,,,,,,,,,,,,,,,,,,,,,,,,,,,,,,,,,,,,,,,,,,,,,,,,,,,,,,,,,,,,,,,,,,,,,,,,,,,,
1725618276.721727,1725618276.721329,190.0,0.0,4237.692383,4219.871582,4278.205078,4266.538574,4213.333496,4216.794922,4264.102539,4217.179688,4198.461426,4199.871582,4525.384766,4522.307617,4352.436035,4443.077148,2892.0,2.0,35.0,,,,0.0,4.0,4.0,4.0,4.0,4.0,4.0,4.0,4.0,4.0,4.0,4.0,4.0,4.0,4.0,100.0,,,,,,,,,,,,,,,,,,,,,,,,,,,,,,,,,,,,,,,,,,,,,,,,,,,,,,,,,,,,,,,,,,,,,,,,,,,,,,,,,,,,,,,,,,,,,,,,,,,,,,,,,,,,,,,,,,,,,,,,,,,,,,,,,,,
1725618276.725631,1725618276.725333,191.0,0.0,4240.256348,4220.0,4276.410156,4266.794922,4213.846191,4215.769043,4263.974121,4216.922852,4197.563965,4197.436035,4524.871582,4522.94873,4349.743652,4441.666504,3066.0,2.0,35.0,,,,0.0,4.0,4.0,4.0,4.0,4.0,4.0,4.0,4.0,4.0,4.0,4.0,4.0,4.0,4.0,100.0,,,,,,,,,,,,,,,,,,,,,,,,,,,,,,,,,,,,,,,,,,,,,,,,,,,,,,,,,,,,,,,,,,,,,,,,,,,,,,,,,,,,,,,,,,,,,,,,,,,,,,,,,,,,,,,,,,,,,,,,,,,,,,,,,,,
1725618276.729535,1725618276.729237,192.0,0.0,4243.461426,4221.538574,4275.641113,4267.94873,4214.871582,4215.128418,4263.717773,4217.307617,4197.820313,4196.153809,4527.820313,4522.179688,4348.589844,4441.666504,3416.0,2.0,35.0,,,,0.0,4.0,4.0,4.0,4.0,4.0,4.0,4.0,4.0,4.0,4.0,4.0,4.0,4.0,4.0,100.0,,,,,,,,,,,,,,,,,,,,,,,,,,,,,,,,,,,,,,,,,,,,,,,,,,,,,,,,,,,,,,,,,,,,,,,,,,,,,,,,,,,,,,,,,,,,,,,,,,,,,,,,,,,,,,,,,,,,,,,,,,,,,,,,,,,
1725618276.733439,1725618276.733141,193.0,0.0,4246.410156,4224.743652,4276.538574,4269.358887,4216.153809,4215.384766,4263.717773,4218.333496,4198.846191,4197.179688,4534.358887,4521.666504,4350.641113,4443.205078,3889.0,2.0,35.0,,,,0.0,4.0,4.0,4.0,4.0,4.0,4.0,4.0,4.0,4.0,4.0,4.0,4.0,4.0,4.0,100.0,,,,,,,,,,,,,,,,,,,,,,,,,,,,,,,,,,,,,,,,,,,,,,,,,,,,,,,,,,,,,,,,,,,,,,,,,,,,,,,,,,,,,,,,,,,,,,,,,,,,,,,,,,,,,,,,,,,,,,,,,,,,,,,,,,,
1725618276.737343,1725618276.737046,194.0,0.0,4248.205078,4228.974121,4278.333496,4270.256348,4216.922852,4216.282227,4263.974121,4218.974121,4199.871582,4199.743652,4541.538574,4522.436035,4355.384766,4445.641113,2892.0,2.0,35.0,,,,0.0,4.0,4.0,4.0,4.0,4.0,4.0,4.0,4.0,4.0,4.0,4.0,4.0,4.0,4.0,100.0,1.0,50.0,4.0,4.0,4.0,4.0,4.0,1.0,1.0,4.0,4.0,4.0,4.0,4.0,4.0,4.0,1.0,0.0,0.0,,,,,,,,,,,,,,,,,,,,,,,,,,,,,,,,,,,,,0.0,0.0,1.0,0.0,1024.0,0.005101,2.638633,2.534853,0.652228,0.435296,0.132042,1.865745,1.559886,0.872438,0.47758,0.14379,2.636835,2.601363,1.10605,0.269712,0.225677,2.203389,1.601954,0.731457,0.408765,0.119219,0.658836,0.618963,0.76083,0.186946,0.104586,0.249943,0.257058,0.124535,0.061918,0.047279,0.563812,0.392069,0.425894,0.154525,0.103395,1.366515,1.503912,1.515257,0.517324,0.153871,1.542969,1.093068,1.338811,0.315083,0.215552,1.919131,1.4699,0.985317,0.398083,0.136026,4.05031,3.211457,2.308404,0.80549,0.225731,4.449138,3.599901,2.567192,0.562308,0.252898,3.481654,3.082614,2.210431,0.465382,0.24406,3.292113,3.491399,1.296256,0.559688,0.152531
1725618276.741247,1725618276.74095,195.0,0.0,4248.461426,4232.563965,4279.487305,4270.0,4216.666504,4216.794922,4264.358887,4217.436035,4200.0,4202.179688,4544.871582,4523.589844,4359.743652,4447.563965,3066.0,2.0,35.0,,,,0.0,4.0,4.0,4.0,4.0,4.0,4.0,4.0,4.0,4.0,4.0,4.0,4.0,4.0,4.0,100.0,,,,,,,,,,,,,,,,,,,,,,,,,,,,,,,,,,,,,,,,,,,,,,,,,,,,,,,,,,,,,,,,,,,,,,,,,,,,,,,,,,,,,,,,,,,,,,,,,,,,,,,,,,,,,,,,,,,,,,,,,,,,,,,,,,,
1725618276.745151,1725618276.744754,196.0,0.0,4247.563965,4234.358887,4279.102539,4269.615234,4215.641113,4216.538574,4264.487305,4213.461426,4199.102539,4202.820313,4542.307617,4523.846191,4361.282227,4448.205078,3416.0,2.0,35.0,,,,0.0,4.0,4.0,4.0,4.0,4.0,4.0,4.0,4.0,4.0,4.0,4.0,4.0,4.0,4.0,100.0,,,,,,,,,,,,,,,,,,,,,,,,,,,,,,,,,,,,,,,,,,,,,,,,,,,,,,,,,,,,,,,,,,,,,,,,,,,,,,,,,,,,,,,,,,,,,,,,,,,,,,,,,,,,,,,,,,,,,,,,,,,,,,,,,,,
1725618276.749055,1725618276.748658,197.0,0.0,4246.922852,4234.102539,4277.820313,4269.615234,4214.230957,4215.641113,4264.615234,4208.589844,4198.205078,4201.794922,4535.256348,4521.794922,4359.487305,4446.922852,3889.0,2.0,35.0,,,,0.0,4.0,4.0,4.0,4.0,4.0,4.0,4.0,4.0,4.0,4.0,4.0,4.0,4.0,4.0,100.0,,,,,,,,,,,,,,,,,,,,,,,,,,,,,,,,,,,,,,,,,,,,,,,,,,,,,,,,,,,,,,,,,,,,,,,,,,,,,,,,,,,,,,,,,,,,,,,,,,,,,,,,,,,,,,,,,,,,,,,,,,,,,,,,,,,
1725618276.752959,1725618276.752562,198.0,0.0,4246.794922,4232.563965,4276.666504,4270.256348,4213.333496,4214.871582,4265.128418,4205.641113,4198.461426,4200.384766,4527.436035,4517.692383,4356.282227,4444.230957,2892.0,2.0,35.0,,,,0.0,4.0,4.0,4.0,4.0,4.0,4.0,4.0,4.0,4.0,4.0,4.0,4.0,4.0,4.0,100.0,,,,,,,,,,,,,,,,,,,,,,,,,,,,,,,,,,,,,,,,,,,,,,,,,,,,,,,,,,,,,,,,,,,,,,,,,,,,,,,,,,,,,,,,,,,,,,,,,,,,,,,,,,,,,,,,,,,,,,,,,,,,,,,,,,,
1725618276.756863,1725618276.756466,199.0,0.0,4246.922852,4231.282227,4276.794922,4270.897461,4213.205078,4215.0,4265.769043,4205.769043,4200.128418,4199.743652,4522.436035,4512.692383,4353.974121,4441.025879,3066.0,2.0,35.0,,,,0.0,4.0,4.0,4.0,4.0,4.0,4.0,4.0,4.0,4.0,4.0,4.0,4.0,4.0,4.0,100.0,,,,,,,,,,,,,,,,,,,,,,,,,,,,,,,,,,,,,,,,,,,,,,,,,,,,,,,,,,,,,,,,,,,,,,,,,,,,,,,,,,,,,,,,,,,,,,,,,,,,,,,,,,,,,,,,,,,,,,,,,,,,,,,,,,,
1725618276.760768,1725618276.76027,200.0,0.0,4246.538574,4231.410156,4277.692383,4271.025879,4213.846191,4216.025879,4266.538574,4208.717773,4202.05127,4199.871582,4521.025879,4508.461426,4353.589844,4438.461426,3416.0,2.0,35.0,,,,0.0,4.0,4.0,4.0,4.0,4.0,4.0,4.0,4.0,4.0,4.0,4.0,4.0,4.0,4.0,100.0,,,,,,,,,,,,,,,,,,,,,,,,,,,,,,,,,,,,,,,,,,,,,,,,,,,,,,,,,,,,,,,,,,,,,,,,,,,,,,,,,,,,,,,,,,,,,,,,,,,,,,,,,,,,,,,,,,,,,,,,,,,,,,,,,,,
1725618276.764672,1725618276.764175,201.0,0.0,4245.512695,4232.94873,4278.333496,4271.282227,4215.0,4217.179688,4266.410156,4212.94873,4202.94873,4200.769043,4522.05127,4506.282227,4354.230957,4437.563965,3889.0,2.0,35.0,,,,0.0,4.0,4.0,4.0,4.0,4.0,4.0,4.0,4.0,4.0,4.0,4.0,4.0,4.0,4.0,100.0,,,,,,,,,,,,,,,,,,,,,,,,,,,,,,,,,,,,,,,,,,,,,,,,,,,,,,,,,,,,,,,,,,,,,,,,,,,,,,,,,,,,,,,,,,,,,,,,,,,,,,,,,,,,,,,,,,,,,,,,,,,,,,,,,,,
1725618276.768576,1725618276.768079,202.0,0.0,4244.358887,4235.128418,4278.077148,4271.922852,4216.282227,4217.820313,4265.384766,4216.410156,4202.563965,4202.179688,4524.102539,4506.538574,4355.512695,4438.846191,2892.0,2.0,35.0,,,,0.0,4.0,4.0,4.0,4.0,4.0,4.0,4.0,4.0,4.0,4.0,4.0,4.0,4.0,4.0,100.0,,,,,,,,,,,,,,,,,,,,,,,,,,,,,,,,,,,,,,,,,,,,,,,,,,,,,,,,0.0,0.0,1.0,0.0,1024.0,0.005101,,,,,,,,,,,,,,,,,,,,,,,,,,,,,,,,,,,,,,,,,,,,,,,,,,,,,,,,,,,,,,,,,,,,,,
1725618276.77248,1725618276.771983,203.0,0.0,4244.102539,4236.538574,4277.307617,4273.589844,4217.05127,4217.563965,4264.358887,4217.94873,4201.794922,4203.589844,4525.897461,4508.846191,4357.179688,4441.538574,3066.0,2.0,35.0,,,,0.0,4.0,4.0,4.0,4.0,4.0,4.0,4.0,4.0,4.0,4.0,4.0,4.0,4.0,4.0,100.0,,,,,,,,,,,,,,,,,,,,,,,,,,,,,,,,,,,,,,,,,,,,,,,,,,,,,,,,,,,,,,,,,,,,,,,,,,,,,,,,,,,,,,,,,,,,,,,,,,,,,,,,,,,,,,,,,,,,,,,,,,,,,,,,,,,
1725618276.776384,1725618276.775787,204.0,0.0,4244.743652,4236.410156,4277.179688,4275.897461,4217.179688,4216.538574,4264.743652,4217.436035,4201.922852,4204.102539,4526.025879,4512.436035,4359.230957,4444.102539,3416.0,2.0,35.0,,,,0.0,4.0,4.0,4.0,4.0,4.0,4.0,4.0,4.0,4.0,4.0,4.0,4.0,4.0,4.0,100.0,,,,,,,,,,,,,,,,,,,,,,,,,,,,,,,,,,,,,,,,,,,,,,,,,,,,,,,,,,,,,,,,,,,,,,,,,,,,,,,,,,,,,,,,,,,,,,,,,,,,,,,,,,,,,,,,,,,,,,,,,,,,,,,,,,,
1725618276.780288,1725618276.779691,205.0,0.0,4245.128418,4235.128418,4277.692383,4277.94873,4216.794922,4215.128418,4267.307617,4216.153809,4204.230957,4203.461426,4523.974121,4516.282227,4360.512695,4445.897461,3889.0,2.0,35.0,,,,0.0,4.0,4.0,4.0,4.0,4.0,4.0,4.0,4.0,4.0,4.0,4.0,4.0,4.0,4.0,100.0,,,,,,,,,,,,,,,,,,,,,,,,,,,,,,,,,,,,,,,,,,,,,,,,,,,,,,,,,,,,,,,,,,,,,,,,,,,,,,,,,,,,,,,,,,,,,,,,,,,,,,,,,,,,,,,,,,,,,,,,,,,,,,,,,,,
1725618276.784192,1725618276.783595,206.0,0.0,4244.487305,4233.589844,4278.205078,4278.974121,4216.153809,4214.102539,4271.025879,4215.897461,4208.333496,4202.563965,4521.025879,4519.358887,4360.0,4446.666504,2892.0,2.0,35.0,,,,0.0,4.0,4.0,4.0,4.0,4.0,4.0,4.0,4.0,4.0,4.0,4.0,4.0,4.0,4.0,100.0,,,,,,,,,,,,,,,,,,,,,,,,,,,,,,,,,,,,,,,,,,,,,,,,,,,,,,,,,,,,,,,,,,,,,,,,,,,,,,,,,,,,,,,,,,,,,,,,,,,,,,,,,,,,,,,,,,,,,,,,,,,,,,,,,,,
1725618276.788096,1725618276.787599,207.0,0.0,4243.333496,4232.820313,4278.077148,4278.846191,4215.769043,4213.717773,4273.974121,4217.94873,4212.94873,4203.333496,4519.871582,4520.769043,4358.077148,4446.025879,3066.0,2.0,35.0,,,,0.0,4.0,4.0,4.0,4.0,4.0,4.0,4.0,4.0,4.0,4.0,4.0,4.0,4.0,4.0,100.0,,,,,,,,,,,,,,,,,,,,,,,,,,,,,,,,,,,,,,,,,,,,,,,,,,,,,,,,,,,,,,,,,,,,,,,,,,,,,,,,,,,,,,,,,,,,,,,,,,,,,,,,,,,,,,,,,,,,,,,,,,,,,,,,,,,
1725618276.792,1725618276.791503,208.0,0.0,4242.820313,4233.205078,4277.307617,4277.820313,4215.641113,4214.102539,4274.487305,4222.05127,4216.282227,4206.410156,4522.820313,4520.512695,4356.794922,4444.487305,3416.0,2.0,35.0,,,,0.0,4.0,4.0,4.0,4.0,4.0,4.0,4.0,4.0,4.0,4.0,4.0,4.0,4.0,4.0,100.0,,,,,,,,,,,,,,,,,,,,,,,,,,,,,,,,,,,,,,,,,,,,,,,,,,,,,,,,,,,,,,,,,,,,,,,,,,,,,,,,,,,,,,,,,,,,,,,,,,,,,,,,,,,,,,,,,,,,,,,,,,,,,,,,,,,
1725618276.795905,1725618276.795407,209.0,0.0,4243.974121,4234.871582,4276.538574,4276.666504,4215.641113,4214.871582,4272.436035,4226.538574,4217.820313,4211.538574,4529.230957,4519.487305,4358.077148,4443.589844,3889.0,2.0,35.0,,,,0.0,4.0,4.0,4.0,4.0,4.0,4.0,4.0,4.0,4.0,4.0,4.0,4.0,4.0,4.0,100.0,,,,,,,,,,,,,,,,,,,,,,,,,,,,,,,,,,,,,,,,,,,,,,,,,,,,,,,,,,,,,,,,,,,,,,,,,,,,,,,,,,,,,,,,,,,,,,,,,,,,,,,,,,,,,,,,,,,,,,,,,,,,,,,,,,,
1725618276.799809,1725618276.799411,210.0,0.0,4246.666504,4236.922852,4276.538574,4276.410156,4215.512695,4215.769043,4269.871582,4229.487305,4217.692383,4216.538574,4535.897461,4519.358887,4361.794922,4444.615234,2892.0,2.0,35.0,,,,0.0,4.0,4.0,4.0,4.0,4.0,4.0,4.0,4.0,4.0,4.0,4.0,4.0,4.0,4.0,100.0,,,,,,,,,,,,,,,,,,,,,,,,,,,,,,,,,,,,,,,,,,,,,,,,,,,,,,,,0.0,0.0,1.0,0.0,1024.0,0.005101,,,,,,,,,,,,,,,,,,,,,,,,,,,,,,,,,,,,,,,,,,,,,,,,,,,,,,,,,,,,,,,,,,,,,,
1725618276.803713,1725618276.803315,211.0,0.0,4249.358887,4238.461426,4277.820313,4276.666504,4215.384766,4216.410156,4268.717773,4229.743652,4217.307617,4219.358887,4539.487305,4521.538574,4365.897461,4448.077148,3066.0,2.0,35.0,,,,0.0,4.0,4.0,4.0,4.0,4.0,4.0,4.0,4.0,4.0,4.0,4.0,4.0,4.0,4.0,100.0,,,,,,,,,,,,,,,,,,,,,,,,,,,,,,,,,,,,,,,,,,,,,,,,,,,,,,,,,,,,,,,,,,,,,,,,,,,,,,,,,,,,,,,,,,,,,,,,,,,,,,,,,,,,,,,,,,,,,,,,,,,,,,,,,,,
1725618276.807617,1725618276.80722,212.0,0.0,4250.897461,4238.077148,4280.0,4277.05127,4215.384766,4216.666504,4270.512695,4227.436035,4217.436035,4219.358887,4539.358887,4525.384766,4367.692383,4452.436035,3416.0,2.0,35.0,,,,0.0,4.0,4.0,4.0,4.0,4.0,4.0,4.0,4.0,4.0,4.0,4.0,4.0,4.0,4.0,100.0,,,,,,,,,,,,,,,,,,,,,,,,,,,,,,,,,,,,,,,,,,,,,,,,,,,,,,,,,,,,,,,,,,,,,,,,,,,,,,,,,,,,,,,,,,,,,,,,,,,,,,,,,,,,,,,,,,,,,,,,,,,,,,,,,,,
1725618276.811521,1725618276.811124,213.0,0.0,4250.641113,4236.153809,4281.794922,4277.307617,4215.897461,4217.05127,4274.487305,4223.717773,4218.205078,4217.179688,4537.05127,4529.102539,4366.153809,4455.512695,3889.0,2.0,35.0,,,,0.0,4.0,4.0,4.0,4.0,4.0,4.0,4.0,4.0,4.0,4.0,4.0,4.0,4.0,4.0,100.0,,,,,,,,,,,,,,,,,,,,,,,,,,,,,,,,,,,,,,,,,,,,,,,,,,,,,,,,,,,,,,,,,,,,,,,,,,,,,,,,,,,,,,,,,,,,,,,,,,,,,,,,,,,,,,,,,,,,,,,,,,,,,,,,,,,
1725618276.815425,1725618276.815128,214.0,0.0,4249.102539,4234.230957,4282.436035,4277.563965,4217.05127,4217.563965,4278.846191,4220.512695,4218.717773,4214.871582,4535.128418,4530.641113,4362.179688,4456.153809,2892.0,2.0,35.0,,,,0.0,4.0,4.0,4.0,4.0,4.0,4.0,4.0,4.0,4.0,4.0,4.0,4.0,4.0,4.0,100.0,,,,,,,,,,,,,,,,,,,,,,,,,,,,,,,,,,,,,,,,,,,,,,,,,,,,,,,,,,,,,,,,,,,,,,,,,,,,,,,,,,,,,,,,,,,,,,,,,,,,,,,,,,,,,,,,,,,,,,,,,,,,,,,,,,,
1725618276.819329,1725618276.819032,215.0,0.0,4247.436035,4234.358887,4281.794922,4277.820313,4218.333496,4218.333496,4281.538574,4218.974121,4218.205078,4213.717773,4535.0,4529.358887,4358.589844,4455.0,3066.0,2.0,35.0,,,,0.0,4.0,4.0,4.0,4.0,4.0,4.0,4.0,4.0,4.0,4.0,4.0,4.0,4.0,4.0,100.0,,,,,,,,,,,,,,,,,,,,,,,,,,,,,,,,,,,,,,,,,,,,,,,,,,,,,,,,,,,,,,,,,,,,,,,,,,,,,,,,,,,,,,,,,,,,,,,,,,,,,,,,,,,,,,,,,,,,,,,,,,,,,,,,,,,
1725618276.823233,1725618276.822936,216.0,0.0,4246.410156,4237.436035,4280.641113,4277.94873,4219.487305,4218.974121,4281.794922,4219.358887,4216.666504,4213.846191,4536.538574,4526.666504,4357.692383,4453.461426,3416.0,2.0,35.0,,,,0.0,4.0,4.0,4.0,4.0,4.0,4.0,4.0,4.0,4.0,4.0,4.0,4.0,4.0,4.0,100.0,,,,,,,,,,,,,,,,,,,,,,,,,,,,,,,,,,,,,,,,,,,,,,,,,,,,,,,,,,,,,,,,,,,,,,,,,,,,,,,,,,,,,,,,,,,,,,,,,,,,,,,,,,,,,,,,,,,,,,,,,,,,,,,,,,,
1725618276.827137,1725618276.82684,217.0,0.0,4246.410156,4241.666504,4280.0,4277.692383,4219.871582,4219.102539,4280.512695,4219.871582,4215.0,4214.615234,4538.589844,4524.743652,4360.641113,4453.077148,3889.0,2.0,35.0,,,,0.0,4.0,4.0,4.0,4.0,4.0,4.0,4.0,4.0,4.0,4.0,4.0,4.0,4.0,4.0,100.0,,,,,,,,,,,,,,,,,,,,,,,,,,,,,,,,,,,,,,,,,,,,,,,,,,,,,,,,,,,,,,,,,,,,,,,,,,,,,,,,,,,,,,,,,,,,,,,,,,,,,,,,,,,,,,,,,,,,,,,,,,,,,,,,,,,
1725618276.831041,1725618276.830744,218.0,0.0,4247.05127,4244.358887,4280.256348,4277.307617,4219.230957,4218.846191,4278.974121,4219.358887,4213.846191,4215.256348,4539.871582,4524.615234,4365.512695,4453.717773,2892.0,2.0,35.0,,,,0.0,4.0,4.0,4.0,4.0,4.0,4.0,4.0,4.0,4.0,4.0,4.0,4.0,4.0,4.0,100.0,,,,,,,,,,,,,,,,,,,,,,,,,,,,,,,,,,,,,,,,,,,,,,,,,,,,,,,,0.0,0.0,1.0,0.0,1024.0,0.005101,,,,,,,,,,,,,,,,,,,,,,,,,,,,,,,,,,,,,,,,,,,,,,,,,,,,,,,,,,,,,,,,,,,,,,
1725618276.834946,1725618276.834548,219.0,0.0,4247.692383,4243.589844,4281.410156,4277.307617,4218.077148,4218.205078,4278.333496,4217.820313,4213.717773,4215.384766,4539.615234,4525.512695,4369.743652,4454.615234,3066.0,2.0,35.0,,,,0.0,4.0,4.0,4.0,4.0,4.0,4.0,4.0,4.0,4.0,4.0,4.0,4.0,4.0,4.0,100.0,,,,,,,,,,,,,,,,,,,,,,,,,,,,,,,,,,,,,,,,,,,,,,,,,,,,,,,,,,,,,,,,,,,,,,,,,,,,,,,,,,,,,,,,,,,,,,,,,,,,,,,,,,,,,,,,,,,,,,,,,,,,,,,,,,,
1725618276.83885,1725618276.838452,220.0,0.0,4247.692383,4239.871582,4282.436035,4277.94873,4217.05127,4217.563965,4278.717773,4216.666504,4214.230957,4214.871582,4538.717773,4526.153809,4370.897461,4454.358887,3416.0,2.0,35.0,,,,0.0,4.0,4.0,4.0,4.0,4.0,4.0,4.0,4.0,4.0,4.0,4.0,4.0,4.0,4.0,100.0,,,,,,,,,,,,,,,,,,,,,,,,,,,,,,,,,,,,,,,,,,,,,,,,,,,,,,,,,,,,,,,,,,,,,,,,,,,,,,,,,,,,,,,,,,,,,,,,,,,,,,,,,,,,,,,,,,,,,,,,,,,,,,,,,,,
1725618276.842754,1725618276.842356,221.0,0.0,4247.179688,4235.256348,4282.563965,4278.461426,4217.05127,4217.307617,4279.358887,4217.307617,4214.871582,4214.230957,4537.94873,4526.153809,4368.589844,4452.692383,3889.0,2.0,35.0,,,,0.0,4.0,4.0,4.0,4.0,4.0,4.0,4.0,4.0,4.0,4.0,4.0,4.0,4.0,4.0,100.0,,,,,,,,,,,,,,,,,,,,,,,,,,,,,,,,,,,,,,,,,,,,,,,,,,,,,,,,,,,,,,,,,,,,,,,,,,,,,,,,,,,,,,,,,,,,,,,,,,,,,,,,,,,,,,,,,,,,,,,,,,,,,,,,,,,
1725618276.846658,1725618276.846261,222.0,0.0,4246.410156,4232.05127,4281.794922,4278.461426,4217.94873,4217.436035,4279.230957,4218.974121,4215.384766,4213.589844,4537.692383,4525.512695,4365.256348,4450.512695,2892.0,2.0,35.0,,,,0.0,4.0,4.0,4.0,4.0,4.0,4.0,4.0,4.0,4.0,4.0,4.0,4.0,4.0,4.0,100.0,,,,,,,,,,,,,,,,,,,,,,,,,,,,,,,,,,,,,,,,,,,,,,,,,,,,,,,,,,,,,,,,,,,,,,,,,,,,,,,,,,,,,,,,,,,,,,,,,,,,,,,,,,,,,,,,,,,,,,,,,,,,,,,,,,,
1725618276.850562,1725618276.850065,223.0,0.0,4246.025879,4231.666504,4280.384766,4277.94873,4219.102539,4217.307617,4277.94873,4220.384766,4215.256348,4213.461426,4537.94873,4524.871582,4363.846191,4448.974121,3066.0,2.0,35.0,,,,0.0,4.0,4.0,4.0,4.0,4.0,4.0,4.0,4.0,4.0,4.0,4.0,4.0,4.0,4.0,100.0,,,,,,,,,,,,,,,,,,,,,,,,,,,,,,,,,,,,,,,,,,,,,,,,,,,,,,,,,,,,,,,,,,,,,,,,,,,,,,,,,,,,,,,,,,,,,,,,,,,,,,,,,,,,,,,,,,,,,,,,,,,,,,,,,,,
1725618276.854466,1725618276.853969,224.0,0.0,4246.538574,4233.461426,4279.230957,4277.692383,4218.974121,4216.282227,4275.512695,4220.384766,4214.871582,4213.974121,4538.461426,4524.615234,4365.128418,4448.846191,3416.0,2.0,35.0,,,,0.0,4.0,4.0,4.0,4.0,4.0,4.0,4.0,4.0,4.0,4.0,4.0,4.0,4.0,4.0,100.0,,,,,,,,,,,,,,,,,,,,,,,,,,,,,,,,,,,,,,,,,,,,,,,,,,,,,,,,,,,,,,,,,,,,,,,,,,,,,,,,,,,,,,,,,,,,,,,,,,,,,,,,,,,,,,,,,,,,,,,,,,,,,,,,,,,
1725618276.85837,1725618276.857873,225.0,0.0,4247.820313,4235.256348,4279.102539,4277.94873,4216.922852,4214.230957,4272.820313,4219.230957,4215.0,4215.0,4538.974121,4524.743652,4367.94873,4449.615234,3889.0,2.0,35.0,,,,0.0,4.0,4.0,4.0,4.0,4.0,4.0,4.0,4.0,4.0,4.0,4.0,4.0,4.0,4.0,100.0,,,,,,,,,,,,,,,,,,,,,,,,,,,,,,,,,,,,,,,,,,,,,,,,,,,,,,,,,,,,,,,,,,,,,,,,,,,,,,,,,,,,,,,,,,,,,,,,,,,,,,,,,,,,,,,,,,,,,,,,,,,,,,,,,,,
1725618276.862274,1725618276.861777,226.0,0.0,4248.974121,4235.512695,4279.615234,4277.94873,4213.589844,4212.179688,4270.512695,4218.333496,4215.256348,4216.282227,4539.102539,4524.871582,4369.358887,4449.615234,2892.0,2.0,35.0,,,,0.0,4.0,4.0,4.0,4.0,4.0,4.0,4.0,4.0,4.0,4.0,4.0,4.0,4.0,4.0,100.0,,,,,,,,,,,,,,,,,1.0,0.0,0.0,,,,,,,,,,,,,,,,,,,,,,,,,,,,,,,,,,,,,0.0,0.0,1.0,0.0,1.0,0.0,2.396256,2.245478,0.665108,0.395829,0.111972,1.654165,1.357009,0.767952,0.431531,0.131361,2.749719,2.388814,0.953425,0.254551,0.183103,1.925123,1.421766,0.64429,0.376601,0.100957,0.588151,0.521921,0.626268,0.146052,0.091126,0.247509,0.260913,0.114614,0.063613,0.033503,0.4782,0.36719,0.358592,0.142054,0.088041,1.514258,1.484396,1.315388,0.50435,0.14511,1.774319,1.013596,1.12378,0.298156,0.17629,2.034827,1.387391,0.889703,0.366288,0.096889,3.414181,2.922592,2.055708,0.70466,0.203979,4.499807,3.460565,2.229351,0.515267,0.202601,3.237544,2.722842,2.006795,0.429215,0.211431,3.09961,3.171958,1.158764,0.50755,0.118649
1725618276.866178,1725618276.865581,227.0,0.0,4249.102539,4234.102539,4280.0,4277.05127,4210.769043,4210.897461,4269.743652,4218.461426,4215.512695,4217.05127,4538.461426,4524.615234,4367.307617,4448.077148,3066.0,2.0,35.0,,,,0.0,4.0,4.0,4.0,4.0,4.0,4.0,4.0,4.0,4.0,4.0,4.0,4.0,4.0,4.0,100.0,,,,,,,,,,,,,,,,,,,,,,,,,,,,,,,,,,,,,,,,,,,,,,,,,,,,,,,,,,,,,,,,,,,,,,,,,,,,,,,,,,,,,,,,,,,,,,,,,,,,,,,,,,,,,,,,,,,,,,,,,,,,,,,,,,,
1725618276.870083,1725618276.869485,228.0,0.0,4247.94873,4232.563965,4279.743652,4275.256348,4209.743652,4211.025879,4270.897461,4219.487305,4215.897461,4217.179688,4536.794922,4523.589844,4362.692383,4445.256348,3416.0,2.0,35.0,,,,0.0,4.0,4.0,4.0,4.0,4.0,4.0,4.0,4.0,4.0,4.0,4.0,4.0,4.0,4.0,100.0,,,,,,,,,,,,,,,,,,,,,,,,,,,,,,,,,,,,,,,,,,,,,,,,,,,,,,,,,,,,,,,,,,,,,,,,,,,,,,,,,,,,,,,,,,,,,,,,,,,,,,,,,,,,,,,,,,,,,,,,,,,,,,,,,,,
1725618276.873987,1725618276.87339,229.0,0.0,4246.153809,4232.436035,4278.717773,4273.461426,4211.153809,4212.436035,4273.846191,4220.384766,4216.794922,4216.794922,4534.358887,4522.436035,4358.461426,4443.205078,3889.0,2.0,35.0,,,,0.0,4.0,4.0,4.0,4.0,4.0,4.0,4.0,4.0,4.0,4.0,4.0,4.0,4.0,4.0,100.0,,,,,,,,,,,,,,,,,,,,,,,,,,,,,,,,,,,,,,,,,,,,,,,,,,,,,,,,,,,,,,,,,,,,,,,,,,,,,,,,,,,,,,,,,,,,,,,,,,,,,,,,,,,,,,,,,,,,,,,,,,,,,,,,,,,
1725618276.877891,1725618276.877394,230.0,0.0,4244.743652,4233.846191,4277.94873,4272.94873,4213.974121,4214.102539,4277.436035,4220.769043,4217.820313,4216.538574,4532.307617,4522.692383,4357.307617,4443.077148,2892.0,2.0,35.0,,,,0.0,4.0,4.0,4.0,4.0,4.0,4.0,4.0,4.0,4.0,4.0,4.0,4.0,4.0,4.0,100.0,,,,,,,,,,,,,,,,,,,,,,,,,,,,,,,,,,,,,,,,,,,,,,,,,,,,,,,,,,,,,,,,,,,,,,,,,,,,,,,,,,,,,,,,,,,,,,,,,,,,,,,,,,,,,,,,,,,,,,,,,,,,,,,,,,,
1725618276.881795,1725618276.881298,231.0,0.0,4245.0,4235.769043,4278.461426,4274.358887,4216.410156,4214.871582,4280.256348,4220.897461,4218.077148,4216.666504,4531.538574,4524.487305,4360.128418,4444.871582,3066.0,2.0,35.0,,,,0.0,4.0,4.0,4.0,4.0,4.0,4.0,4.0,4.0,4.0,4.0,4.0,4.0,4.0,4.0,100.0,,,,,,,,,,,,,,,,,,,,,,,,,,,,,,,,,,,,,,,,,,,,,,,,,,,,,,,,,,,,,,,,,,,,,,,,,,,,,,,,,,,,,,,,,,,,,,,,,,,,,,,,,,,,,,,,,,,,,,,,,,,,,,,,,,,
1725618276.885699,1725618276.885202,232.0,0.0,4247.05127,4237.05127,4280.512695,4277.179688,4217.436035,4214.615234,4281.538574,4221.153809,4216.538574,4216.538574,4532.05127,4526.794922,4364.487305,4447.563965,3416.0,2.0,35.0,,,,0.0,4.0,4.0,4.0,4.0,4.0,4.0,4.0,4.0,4.0,4.0,4.0,4.0,4.0,4.0,100.0,,,,,,,,,,,,,,,,,,,,,,,,,,,,,,,,,,,,,,,,,,,,,,,,,,,,,,,,,,,,,,,,,,,,,,,,,,,,,,,,,,,,,,,,,,,,,,,,,,,,,,,,,,,,,,,,,,,,,,,,,,,,,,,,,,,
1725618276.889603,1725618276.889106,233.0,0.0,4249.615234,4237.307617,4282.179688,4279.615234,4216.666504,4213.461426,4281.025879,4220.897461,4212.94873,4215.641113,4531.922852,4526.922852,4367.05127,4449.615234,3889.0,2.0,35.0,,,,0.0,4.0,4.0,4.0,4.0,4.0,4.0,4.0,4.0,4.0,4.0,4.0,4.0,4.0,4.0,100.0,,,,,,,,,,,,,,,,,,,,,,,,,,,,,,,,,,,,,,,,,,,,,,,,,,,,,,,,,,,,,,,,,,,,,,,,,,,,,,,,,,,,,,,,,,,,,,,,,,,,,,,,,,,,,,,,,,,,,,,,,,,,,,,,,,,
1725618276.893507,1725618276.89311,234.0,0.0,4250.384766,4236.538574,4281.538574,4280.0,4215.128418,4212.563965,4279.615234,4218.589844,4208.717773,4213.717773,4529.358887,4523.077148,4365.384766,4450.0,2892.0,2.0,35.0,,,,0.0,4.0,4.0,4.0,4.0,4.0,4.0,4.0,4.0,4.0,4.0,4.0,4.0,4.0,4.0,100.0,,,,,,,,,,,,,,,,,,,,,,,,,,,,,,,,,,,,,,,,,,,,,,,,,,,,,,,,0.0,0.0,1.0,0.0,1.0,0.0,,,,,,,,,,,,,,,,,,,,,,,,,,,,,,,,,,,,,,,,,,,,,,,,,,,,,,,,,,,,,,,,,,,,,,
1725618276.897411,1725618276.897014,235.0,0.0,4248.077148,4235.256348,4277.692383,4277.820313,4213.461426,4212.179688,4277.94873,4214.743652,4206.153809,4211.794922,4524.487305,4515.897461,4360.384766,4448.333496,3066.0,2.0,35.0,,,,0.0,4.0,4.0,4.0,4.0,4.0,4.0,4.0,4.0,4.0,4.0,4.0,4.0,4.0,4.0,100.0,,,,,,,,,,,,,,,,,,,,,,,,,,,,,,,,,,,,,,,,,,,,,,,,,,,,,,,,,,,,,,,,,,,,,,,,,,,,,,,,,,,,,,,,,,,,,,,,,,,,,,,,,,,,,,,,,,,,,,,,,,,,,,,,,,,
1725618276.901315,1725618276.900918,236.0,0.0,4243.589844,4233.846191,4272.436035,4274.871582,4212.307617,4212.307617,4276.922852,4212.05127,4207.05127,4211.282227,4520.128418,4509.615234,4355.641113,4445.641113,3416.0,2.0,35.0,,,,0.0,4.0,4.0,4.0,4.0,4.0,4.0,4.0,4.0,4.0,4.0,4.0,4.0,4.0,4.0,100.0,,,,,,,,,,,,,,,,,,,,,,,,,,,,,,,,,,,,,,,,,,,,,,,,,,,,,,,,,,,,,,,,,,,,,,,,,,,,,,,,,,,,,,,,,,,,,,,,,,,,,,,,,,,,,,,,,,,,,,,,,,,,,,,,,,,
1725618276.905219,1725618276.904922,237.0,0.0,4238.717773,4232.436035,4269.230957,4272.94873,4211.794922,4212.563965,4276.666504,4213.974121,4211.153809,4212.94873,4520.0,4508.974121,4354.871582,4443.717773,3889.0,2.0,35.0,,,,0.0,4.0,4.0,4.0,4.0,4.0,4.0,4.0,4.0,4.0,4.0,4.0,4.0,4.0,4.0,100.0,,,,,,,,,,,,,,,,,,,,,,,,,,,,,,,,,,,,,,,,,,,,,,,,,,,,,,,,,,,,,,,,,,,,,,,,,,,,,,,,,,,,,,,,,,,,,,,,,,,,,,,,,,,,,,,,,,,,,,,,,,,,,,,,,,,
1725618276.909124,1725618276.908826,238.0,0.0,4235.128418,4231.538574,4269.743652,4273.077148,4212.05127,4212.692383,4277.179688,4220.512695,4215.897461,4216.153809,4524.487305,4515.128418,4358.846191,4444.102539,2892.0,2.0,35.0,,,,0.0,4.0,4.0,4.0,4.0,4.0,4.0,4.0,4.0,4.0,4.0,4.0,4.0,4.0,4.0,100.0,,,,,,,,,,,,,,,,,,,,,,,,,,,,,,,,,,,,,,,,,,,,,,,,,,,,,,,,,,,,,,,,,,,,,,,,,,,,,,,,,,,,,,,,,,,,,,,,,,,,,,,,,,,,,,,,,,,,,,,,,,,,,,,,,,,
1725618276.913028,1725618276.91273,239.0,0.0,4233.461426,4231.538574,4273.205078,4274.487305,4213.077148,4213.077148,4278.077148,4227.94873,4218.333496,4219.102539,4530.384766,4523.461426,4364.615234,4446.538574,3066.0,2.0,35.0,,,,0.0,4.0,4.0,4.0,4.0,4.0,4.0,4.0,4.0,4.0,4.0,4.0,4.0,4.0,4.0,100.0,,,,,,,,,,,,,,,,,,,,,,,,,,,,,,,,,,,,,,,,,,,,,,,,,,,,,,,,,,,,,,,,,,,,,,,,,,,,,,,,,,,,,,,,,,,,,,,,,,,,,,,,,,,,,,,,,,,,,,,,,,,,,,,,,,,
1725618276.916932,1725618276.916634,240.0,0.0,4233.077148,4232.05127,4276.025879,4275.769043,4214.615234,4214.230957,4278.589844,4231.410156,4217.436035,4220.384766,4533.077148,4527.94873,4368.205078,4448.589844,3416.0,2.0,35.0,,,,0.0,4.0,4.0,4.0,4.0,4.0,4.0,4.0,4.0,4.0,4.0,4.0,4.0,4.0,4.0,100.0,,,,,,,,,,,,,,,,,,,,,,,,,,,,,,,,,,,,,,,,,,,,,,,,,,,,,,,,,,,,,,,,,,,,,,,,,,,,,,,,,,,,,,,,,,,,,,,,,,,,,,,,,,,,,,,,,,,,,,,,,,,,,,,,,,,
1725618276.920836,1725618276.920638,241.0,0.0,4233.717773,4232.436035,4275.128418,4276.025879,4215.897461,4215.641113,4278.333496,4228.333496,4214.743652,4219.487305,4530.897461,4525.769043,4367.436035,4448.205078,3889.0,2.0,35.0,,,,0.0,4.0,4.0,4.0,4.0,4.0,4.0,4.0,4.0,4.0,4.0,4.0,4.0,4.0,4.0,100.0,,,,,,,,,,,,,,,,,,,,,,,,,,,,,,,,,,,,,,,,,,,,,,,,,,,,,,,,,,,,,,,,,,,,,,,,,,,,,,,,,,,,,,,,,,,,,,,,,,,,,,,,,,,,,,,,,,,,,,,,,,,,,,,,,,,
1725618276.92474,1725618276.924542,242.0,0.0,4235.256348,4232.436035,4270.384766,4275.384766,4216.282227,4216.666504,4277.94873,4220.897461,4212.94873,4217.436035,4525.769043,4518.974121,4363.077148,4445.128418,2892.0,2.0,35.0,,,,0.0,4.0,4.0,4.0,4.0,4.0,4.0,4.0,4.0,4.0,4.0,4.0,4.0,4.0,4.0,100.0,,,,,,,,,,,,,,,,,,,,,,,,,,,,,,,,,,,,,,,,,,,,,,,,,,,,,,,,0.0,0.0,1.0,0.0,1.0,0.0,,,,,,,,,,,,,,,,,,,,,,,,,,,,,,,,,,,,,,,,,,,,,,,,,,,,,,,,,,,,,,,,,,,,,,
1725618276.928644,1725618276.928447,243.0,0.0,4237.94873,4232.179688,4265.128418,4275.0,4215.769043,4216.794922,4278.077148,4214.102539,4213.461426,4215.897461,4521.922852,4512.94873,4357.94873,4441.666504,3066.0,2.0,35.0,,,,0.0,4.0,4.0,4.0,4.0,4.0,4.0,4.0,4.0,4.0,4.0,4.0,4.0,4.0,4.0,100.0,,,,,,,,,,,,,,,,,,,,,,,,,,,,,,,,,,,,,,,,,,,,,,,,,,,,,,,,,,,,,,,,,,,,,,,,,,,,,,,,,,,,,,,,,,,,,,,,,,,,,,,,,,,,,,,,,,,,,,,,,,,,,,,,,,,
1725618276.932548,1725618276.932351,244.0,0.0,4241.282227,4232.179688,4263.461426,4275.512695,4214.743652,4216.153809,4279.102539,4211.922852,4215.128418,4215.897461,4522.563965,4511.666504,4354.871582,4440.384766,3416.0,2.0,35.0,,,,0.0,4.0,4.0,4.0,4.0,4.0,4.0,4.0,4.0,4.0,4.0,4.0,4.0,4.0,4.0,100.0,,,,,,,,,,,,,,,,,,,,,,,,,,,,,,,,,,,,,,,,,,,,,,,,,,,,,,,,,,,,,,,,,,,,,,,,,,,,,,,,,,,,,,,,,,,,,,,,,,,,,,,,,,,,,,,,,,,,,,,,,,,,,,,,,,,
1725618276.936453,1725618276.936255,245.0,0.0,4244.230957,4232.820313,4266.922852,4276.794922,4214.230957,4215.769043,4280.256348,4214.358887,4215.512695,4217.179688,4527.820313,4515.256348,4355.128418,4442.179688,3889.0,2.0,35.0,,,,0.0,4.0,4.0,4.0,4.0,4.0,4.0,4.0,4.0,4.0,4.0,4.0,4.0,4.0,4.0,100.0,,,,,,,,,,,,,,,,,,,,,,,,,,,,,,,,,,,,,,,,,,,,,,,,,,,,,,,,,,,,,,,,,,,,,,,,,,,,,,,,,,,,,,,,,,,,,,,,,,,,,,,,,,,,,,,,,,,,,,,,,,,,,,,,,,,
1725618276.940357,1725618276.940059,246.0,0.0,4246.153809,4234.102539,4273.846191,4278.205078,4214.615234,4215.769043,4280.641113,4218.333496,4213.333496,4218.461426,4534.743652,4520.256348,4357.820313,4445.0,2892.0,2.0,35.0,,,,0.0,4.0,4.0,4.0,4.0,4.0,4.0,4.0,4.0,4.0,4.0,4.0,4.0,4.0,4.0,100.0,,,,,,,,,,,,,,,,,,,,,,,,,,,,,,,,,,,,,,,,,,,,,,,,,,,,,,,,,,,,,,,,,,,,,,,,,,,,,,,,,,,,,,,,,,,,,,,,,,,,,,,,,,,,,,,,,,,,,,,,,,,,,,,,,,,
1725618276.944261,1725618276.943963,247.0,0.0,4246.538574,4235.128418,4279.743652,4278.974121,4215.512695,4216.025879,4280.128418,4220.0,4209.102539,4218.461426,4539.615234,4522.94873,4361.538574,4447.05127,3066.0,2.0,35.0,,,,0.0,4.0,4.0,4.0,4.0,4.0,4.0,4.0,4.0,4.0,4.0,4.0,4.0,4.0,4.0,100.0,,,,,,,,,,,,,,,,,,,,,,,,,,,,,,,,,,,,,,,,,,,,,,,,,,,,,,,,,,,,,,,,,,,,,,,,,,,,,,,,,,,,,,,,,,,,,,,,,,,,,,,,,,,,,,,,,,,,,,,,,,,,,,,,,,,
1725618276.948165,1725618276.947867,248.0,0.0,4246.153809,4235.512695,4281.538574,4278.974121,4216.538574,4216.153809,4279.871582,4218.333496,4205.769043,4217.307617,4540.128418,4522.563965,4364.743652,4447.94873,3416.0,2.0,35.0,,,,0.0,4.0,4.0,4.0,4.0,4.0,4.0,4.0,4.0,4.0,4.0,4.0,4.0,4.0,4.0,100.0,,,,,,,,,,,,,,,,,,,,,,,,,,,,,,,,,,,,,,,,,,,,,,,,,,,,,,,,,,,,,,,,,,,,,,,,,,,,,,,,,,,,,,,,,,,,,,,,,,,,,,,,,,,,,,,,,,,,,,,,,,,,,,,,,,,
1725618276.952069,1725618276.951771,249.0,0.0,4246.538574,4235.256348,4280.0,4278.846191,4217.307617,4215.897461,4280.769043,4215.256348,4205.384766,4216.410156,4536.410156,4521.025879,4366.538574,4449.743652,3889.0,2.0,35.0,,,,0.0,4.0,4.0,4.0,4.0,4.0,4.0,4.0,4.0,4.0,4.0,4.0,4.0,4.0,4.0,100.0,,,,,,,,,,,,,,,,,,,,,,,,,,,,,,,,,,,,,,,,,,,,,,,,,,,,,,,,,,,,,,,,,,,,,,,,,,,,,,,,,,,,,,,,,,,,,,,,,,,,,,,,,,,,,,,,,,,,,,,,,,,,,,,,,,,
1725618276.955973,1725618276.955576,250.0,0.0,4248.333496,4235.128418,4278.205078,4279.615234,4218.333496,4215.641113,4283.589844,4213.461426,4208.077148,4216.794922,4530.769043,4521.153809,4366.794922,4453.077148,2892.0,2.0,35.0,,,,0.0,4.0,4.0,4.0,4.0,4.0,4.0,4.0,4.0,4.0,4.0,4.0,4.0,4.0,4.0,100.0,,,,,,,,,,,,,,,,,,,,,,,,,,,,,,,,,,,,,,,,,,,,,,,,,,,,,,,,0.0,0.0,1.0,0.0,1.0,0.0,,,,,,,,,,,,,,,,,,,,,,,,,,,,,,,,,,,,,,,,,,,,,,,,,,,,,,,,,,,,,,,,,,,,,,
1725618276.959877,1725618276.95948,251.0,0.0,4250.769043,4235.641113,4278.589844,4281.794922,4219.358887,4216.025879,4287.307617,4214.230957,4212.307617,4217.692383,4525.897461,4523.333496,4366.025879,4456.538574,3066.0,2.0,35.0,,,,0.0,4.0,4.0,4.0,4.0,4.0,4.0,4.0,4.0,4.0,4.0,4.0,4.0,4.0,4.0,100.0,,,,,,,,,,,,,,,,,,,,,,,,,,,,,,,,,,,,,,,,,,,,,,,,,,,,,,,,,,,,,,,,,,,,,,,,,,,,,,,,,,,,,,,,,,,,,,,,,,,,,,,,,,,,,,,,,,,,,,,,,,,,,,,,,,,
1725618276.963781,1725618276.963384,252.0,0.0,4251.538574,4236.666504,4280.384766,4284.358887,4220.256348,4217.179688,4290.128418,4216.282227,4215.641113,4217.436035,4523.461426,4525.0,4364.102539,4457.692383,3416.0,2.0,35.0,,,,0.0,4.0,4.0,4.0,4.0,4.0,4.0,4.0,4.0,4.0,4.0,4.0,4.0,4.0,4.0,100.0,,,,,,,,,,,,,,,,,,,,,,,,,,,,,,,,,,,,,,,,,,,,,,,,,,,,,,,,,,,,,,,,,,,,,,,,,,,,,,,,,,,,,,,,,,,,,,,,,,,,,,,,,,,,,,,,,,,,,,,,,,,,,,,,,,,
1725618276.967685,1725618276.967288,253.0,0.0,4249.230957,4237.436035,4280.769043,4284.743652,4220.256348,4218.461426,4290.384766,4217.563965,4216.153809,4214.743652,4524.102539,4524.358887,4361.538574,4455.641113,3889.0,2.0,35.0,,,,0.0,4.0,4.0,4.0,4.0,4.0,4.0,4.0,4.0,4.0,4.0,4.0,4.0,4.0,4.0,100.0,,,,,,,,,,,,,,,,,,,,,,,,,,,,,,,,,,,,,,,,,,,,,,,,,,,,,,,,,,,,,,,,,,,,,,,,,,,,,,,,,,,,,,,,,,,,,,,,,,,,,,,,,,,,,,,,,,,,,,,,,,,,,,,,,,,
1725618276.971589,1725618276.971092,254.0,0.0,4244.487305,4237.307617,4277.94873,4281.794922,4219.102539,4218.846191,4287.820313,4217.436035,4213.589844,4210.384766,4527.05127,4521.794922,4358.974121,4452.179688,2892.0,2.0,35.0,,,,0.0,4.0,4.0,4.0,4.0,4.0,4.0,4.0,4.0,4.0,4.0,4.0,4.0,4.0,4.0,100.0,,,,,,,,,,,,,,,,,,,,,,,,,,,,,,,,,,,,,,,,,,,,,,,,,,,,,,,,,,,,,,,,,,,,,,,,,,,,,,,,,,,,,,,,,,,,,,,,,,,,,,,,,,,,,,,,,,,,,,,,,,,,,,,,,,,
1725618276.975494,1725618276.974996,255.0,0.0,4238.974121,4235.769043,4272.820313,4276.153809,4217.05127,4217.820313,4283.717773,4216.538574,4208.846191,4206.282227,4531.410156,4519.102539,4357.436035,4449.358887,35.0,2.0,35.0,,,,0.0,4.0,4.0,4.0,4.0,4.0,4.0,4.0,4.0,4.0,4.0,4.0,4.0,4.0,4.0,100.0,,,,,,,,,,,,,,,,,,,,,,,,,,,,,,,,,,,,,,,,,,,,,,,,,,,,,,,,,,,,,,,,,,,,,,,,,,,,,,,,,,,,,,,,,,,,,,,,,,,,,,,,,,,,,,,,,,,,,,,,,,,,,,,,,,,
1725618276.979398,1725618276.9789,0.0,0.0,4234.358887,4233.077148,4268.717773,4270.0,4214.871582,4215.897461,4280.256348,4216.153809,4204.102539,4204.615234,4535.256348,4518.461426,4357.820313,4448.205078,2616.0,2.0,35.0,,,,0.0,4.0,4.0,4.0,4.0,4.0,4.0,4.0,4.0,4.0,4.0,4.0,4.0,4.0,4.0,100.0,,,,,,,,,,,,,,,,,,,,,,,,,,,,,,,,,,,,,,,,,,,,,,,,,,,,,,,,,,,,,,,,,,,,,,,,,,,,,,,,,,,,,,,,,,,,,,,,,,,,,,,,,,,,,,,,,,,,,,,,,,,,,,,,,,,
1725618276.983302,1725618276.982904,1.0,0.0,4231.922852,4230.128418,4268.333496,4266.025879,4213.333496,4214.358887,4279.102539,4216.538574,4201.666504,4206.282227,4537.436035,4520.384766,4359.871582,4448.974121,2568.0,2.0,35.0,,,,0.0,4.0,4.0,4.0,4.0,4.0,4.0,4.0,4.0,4.0,4.0,4.0,4.0,4.0,4.0,100.0,,,,,,,,,,,,,,,,,,,,,,,,,,,,,,,,,,,,,,,,,,,,,,,,,,,,,,,,,,,,,,,,,,,,,,,,,,,,,,,,,,,,,,,,,,,,,,,,,,,,,,,,,,,,,,,,,,,,,,,,,,,,,,,,,,,
1725618276.987206,1725618276.986808,2.0,0.0,4232.436035,4228.333496,4271.922852,4265.384766,4212.94873,4214.102539,4280.256348,4218.461426,4202.820313,4210.641113,4537.820313,4523.589844,4362.820313,4450.769043,2444.0,2.0,35.0,,,,0.0,4.0,4.0,4.0,4.0,4.0,4.0,4.0,4.0,4.0,4.0,4.0,4.0,4.0,4.0,100.0,,,,,,,,,,,,,,,,,1.0,0.0,0.0,,,,,,,,,,,,,,,,,,,,,,,,,,,,,,,,,,,,,0.0,0.0,1.0,0.0,1.0,0.0,2.277064,2.013712,0.759575,0.388075,0.106882,1.538642,1.19931,0.716106,0.420156,0.128888,3.046445,2.273859,0.836022,0.274119,0.148156,1.735828,1.306171,0.598459,0.366989,0.09968,0.603271,0.418665,0.486928,0.12014,0.082875,0.238388,0.253827,0.112959,0.064455,0.029734,0.457755,0.355216,0.299206,0.141519,0.076719,1.619669,1.505138,1.095535,0.492066,0.144031,2.039994,1.039272,0.948478,0.292663,0.148073,2.308237,1.402847,0.854586,0.356991,0.080451,2.995108,2.753318,1.890614,0.631161,0.204116,4.670363,3.398873,1.917694,0.532748,0.18221,3.190412,2.485795,1.870059,0.450399,0.190284,3.09687,2.947809,1.100796,0.509285,0.106708
1725618276.99111,1725618276.990712,3.0,0.0,4235.128418,4228.717773,4276.794922,4268.333496,4213.589844,4215.384766,4282.179688,4221.922852,4207.05127,4215.512695,4537.307617,4526.153809,4365.769043,4452.820313,2464.0,2.0,35.0,,,,0.0,4.0,4.0,4.0,4.0,4.0,4.0,4.0,4.0,4.0,4.0,4.0,4.0,4.0,4.0,100.0,,,,,,,,,,,,,,,,,,,,,,,,,,,,,,,,,,,,,,,,,,,,,,,,,,,,,,,,,,,,,,,,,,,,,,,,,,,,,,,,,,,,,,,,,,,,,,,,,,,,,,,,,,,,,,,,,,,,,,,,,,,,,,,,,,,
1725618276.995014,1725618276.994617,4.0,0.0,4238.589844,4230.512695,4280.0,4273.077148,4214.743652,4216.794922,4283.461426,4226.538574,4212.692383,4218.717773,4537.94873,4526.794922,4368.589844,4453.974121,2423.0,2.0,35.0,,,,0.0,4.0,4.0,4.0,4.0,4.0,4.0,4.0,4.0,4.0,4.0,4.0,4.0,4.0,4.0,100.0,,,,,,,,,,,,,,,,,,,,,,,,,,,,,,,,,,,,,,,,,,,,,,,,,,,,,,,,,,,,,,,,,,,,,,,,,,,,,,,,,,,,,,,,,,,,,,,,,,,,,,,,,,,,,,,,,,,,,,,,,,,,,,,,,,,
1725618276.998918,1725618276.998421,5.0,0.0,4240.897461,4232.563965,4279.871582,4277.563965,4216.153809,4217.05127,4283.461426,4230.256348,4217.179688,4219.487305,4539.871582,4525.512695,4371.025879,4453.717773,2399.0,2.0,35.0,,,,0.0,4.0,4.0,4.0,4.0,4.0,4.0,4.0,4.0,4.0,4.0,4.0,4.0,4.0,4.0,100.0,,,,,,,,,,,,,,,,,,,,,,,,,,,,,,,,,,,,,,,,,,,,,,,,,,,,,,,,,,,,,,,,,,,,,,,,,,,,,,,,,,,,,,,,,,,,,,,,,,,,,,,,,,,,,,,,,,,,,,,,,,,,,,,,,,,
1725618277.002822,1725618277.002325,6.0,0.0,4241.282227,4233.461426,4277.563965,4279.871582,4216.794922,4216.282227,4282.563965,4230.897461,4218.589844,4218.846191,4541.538574,4523.589844,4372.820313,4452.563965,2176.0,2.0,35.0,,,,0.0,4.0,4.0,4.0,4.0,4.0,4.0,4.0,4.0,4.0,4.0,4.0,4.0,4.0,4.0,100.0,,,,,,,,,,,,,,,,,,,,,,,,,,,,,,,,,,,,,,,,,,,,,,,,,,,,,,,,,,,,,,,,,,,,,,,,,,,,,,,,,,,,,,,,,,,,,,,,,,,,,,,,,,,,,,,,,,,,,,,,,,,,,,,,,,,
1725618277.006726,1725618277.006229,7.0,0.0,4239.871582,4232.820313,4275.384766,4279.871582,4215.512695,4215.384766,4281.794922,4227.94873,4217.05127,4218.205078,4541.538574,4523.333496,4373.589844,4451.538574,2489.0,2.0,35.0,,,,0.0,4.0,4.0,4.0,4.0,4.0,4.0,4.0,4.0,4.0,4.0,4.0,4.0,4.0,4.0,100.0,,,,,,,,,,,,,,,,,,,,,,,,,,,,,,,,,,,,,,,,,,,,,,,,,,,,,,,,,,,,,,,,,,,,,,,,,,,,,,,,,,,,,,,,,,,,,,,,,,,,,,,,,,,,,,,,,,,,,,,,,,,,,,,,,,,
1725618277.01063,1725618277.010233,8.0,0.0,4238.589844,4231.282227,4275.384766,4278.205078,4211.794922,4215.384766,4281.410156,4223.461426,4214.358887,4218.717773,4540.0,4526.666504,4373.846191,4451.410156,2469.0,2.0,35.0,,,,0.0,4.0,4.0,4.0,4.0,4.0,4.0,4.0,4.0,4.0,4.0,4.0,4.0,4.0,4.0,100.0,,,,,,,,,,,,,,,,,,,,,,,,,,,,,,,,,,,,,,,,,,,,,,,,,,,,,,,,,,,,,,,,,,,,,,,,,,,,,,,,,,,,,,,,,,,,,,,,,,,,,,,,,,,,,,,,,,,,,,,,,,,,,,,,,,,
1725618277.014535,1725618277.014137,9.0,0.0,4239.487305,4229.871582,4277.820313,4276.025879,4206.922852,4215.512695,4281.410156,4219.871582,4213.077148,4220.0,4538.589844,4532.94873,4373.717773,4452.563965,2556.0,2.0,35.0,,,,0.0,4.0,4.0,4.0,4.0,4.0,4.0,4.0,4.0,4.0,4.0,4.0,4.0,4.0,4.0,100.0,,,,,,,,,,,,,,,,,,,,,,,,,,,,,,,,,,,,,,,,,,,,,,,,,,,,,,,,,,,,,,,,,,,,,,,,,,,,,,,,,,,,,,,,,,,,,,,,,,,,,,,,,,,,,,,,,,,,,,,,,,,,,,,,,,,
1725618277.018439,1725618277.018041,10.0,0.0,4243.333496,4229.487305,4280.769043,4274.615234,4203.077148,4214.358887,4281.410156,4218.974121,4214.102539,4221.282227,4538.589844,4538.717773,4373.846191,4455.384766,2889.0,2.0,35.0,,,,0.0,4.0,4.0,4.0,4.0,4.0,4.0,4.0,4.0,4.0,4.0,4.0,4.0,4.0,4.0,100.0,,,,,,,,,,,,,,,,,,,,,,,,,,,,,,,,,,,,,,,,,,,,,,,,,,,,,,,,0.0,0.0,1.0,0.0,1.0,0.0,,,,,,,,,,,,,,,,,,,,,,,,,,,,,,,,,,,,,,,,,,,,,,,,,,,,,,,,,,,,,,,,,,,,,,
1725618277.022343,1725618277.022045,11.0,0.0,4248.846191,4230.256348,4282.563965,4275.0,4202.820313,4211.025879,4281.282227,4219.743652,4216.282227,4221.794922,4540.128418,4540.128418,4374.358887,4459.487305,3071.0,2.0,35.0,,,,0.0,4.0,4.0,4.0,4.0,4.0,4.0,4.0,4.0,4.0,4.0,4.0,4.0,4.0,4.0,100.0,,,,,,,,,,,,,,,,,,,,,,,,,,,,,,,,,,,,,,,,,,,,,,,,,,,,,,,,,,,,,,,,,,,,,,,,,,,,,,,,,,,,,,,,,,,,,,,,,,,,,,,,,,,,,,,,,,,,,,,,,,,,,,,,,,,
1725618277.026247,1725618277.025949,12.0,0.0,4252.563965,4231.538574,4282.179688,4277.05127,4206.282227,4206.666504,4281.153809,4219.743652,4217.563965,4221.410156,4541.922852,4535.769043,4375.128418,4463.333496,3425.0,2.0,35.0,,,,0.0,4.0,4.0,4.0,4.0,4.0,4.0,4.0,4.0,4.0,4.0,4.0,4.0,4.0,4.0,100.0,,,,,,,,,,,,,,,,,,,,,,,,,,,,,,,,,,,,,,,,,,,,,,,,,,,,,,,,,,,,,,,,,,,,,,,,,,,,,,,,,,,,,,,,,,,,,,,,,,,,,,,,,,,,,,,,,,,,,,,,,,,,,,,,,,,
1725618277.030151,1725618277.029853,13.0,0.0,4252.05127,4232.563965,4280.641113,4279.358887,4211.153809,4203.461426,4281.153809,4217.94873,4217.179688,4220.512695,4542.563965,4528.589844,4375.384766,4464.615234,3891.0,2.0,35.0,,,,0.0,4.0,4.0,4.0,4.0,4.0,4.0,4.0,4.0,4.0,4.0,4.0,4.0,4.0,4.0,100.0,,,,,,,,,,,,,,,,,,,,,,,,,,,,,,,,,,,,,,,,,,,,,,,,,,,,,,,,,,,,,,,,,,,,,,,,,,,,,,,,,,,,,,,,,,,,,,,,,,,,,,,,,,,,,,,,,,,,,,,,,,,,,,,,,,,
1725618277.034055,1725618277.033757,14.0,0.0,4246.794922,4232.692383,4279.358887,4279.615234,4213.974121,4203.717773,4281.153809,4215.512695,4215.641113,4219.358887,4541.794922,4522.820313,4374.358887,4461.794922,2889.0,2.0,35.0,,,,0.0,4.0,4.0,4.0,4.0,4.0,4.0,4.0,4.0,4.0,4.0,4.0,4.0,4.0,4.0,100.0,,,,,,,,,,,,,,,,,,,,,,,,,,,,,,,,,,,,,,,,,,,,,,,,,,,,,,,,,,,,,,,,,,,,,,,,,,,,,,,,,,,,,,,,,,,,,,,,,,,,,,,,,,,,,,,,,,,,,,,,,,,,,,,,,,,
1725618277.037959,1725618277.037662,15.0,0.0,4239.102539,4232.05127,4278.589844,4276.538574,4212.94873,4207.563965,4281.410156,4215.0,4214.615234,4218.205078,4539.871582,4520.897461,4372.94873,4455.897461,3071.0,2.0,35.0,,,,0.0,4.0,4.0,4.0,4.0,4.0,4.0,4.0,4.0,4.0,4.0,4.0,4.0,4.0,4.0,100.0,,,,,,,,,,,,,,,,,,,,,,,,,,,,,,,,,,,,,,,,,,,,,,,,,,,,,,,,,,,,,,,,,,,,,,,,,,,,,,,,,,,,,,,,,,,,,,,,,,,,,,,,,,,,,,,,,,,,,,,,,,,,,,,,,,,
1725618277.041863,1725618277.041566,16.0,0.0,4232.563965,4231.282227,4278.077148,4271.153809,4208.846191,4213.205078,4282.05127,4218.077148,4215.512695,4217.94873,4537.820313,4522.563965,4372.05127,4449.871582,3425.0,2.0,35.0,,,,0.0,4.0,4.0,4.0,4.0,4.0,4.0,4.0,4.0,4.0,4.0,4.0,4.0,4.0,4.0,100.0,,,,,,,,,,,,,,,,,,,,,,,,,,,,,,,,,,,,,,,,,,,,,,,,,,,,,,,,,,,,,,,,,,,,,,,,,,,,,,,,,,,,,,,,,,,,,,,,,,,,,,,,,,,,,,,,,,,,,,,,,,,,,,,,,,,
1725618277.045767,1725618277.04537,17.0,0.0,4229.743652,4230.897461,4277.692383,4266.282227,4204.487305,4217.692383,4282.94873,4224.358887,4218.461426,4219.102539,4536.153809,4525.0,4372.436035,4446.410156,3891.0,2.0,35.0,,,,0.0,4.0,4.0,4.0,4.0,4.0,4.0,4.0,4.0,4.0,4.0,4.0,4.0,4.0,4.0,100.0,,,,,,,,,,,,,,,,,,,,,,,,,,,,,,,,,,,,,,,,,,,,,,,,,,,,,,,,,,,,,,,,,,,,,,,,,,,,,,,,,,,,,,,,,,,,,,,,,,,,,,,,,,,,,,,,,,,,,,,,,,,,,,,,,,,
1725618277.049672,1725618277.049274,18.0,0.0,4230.769043,4231.025879,4277.820313,4265.0,4202.692383,4218.589844,4283.461426,4230.769043,4221.666504,4221.282227,4535.641113,4526.153809,4373.461426,4446.282227,2889.0,2.0,35.0,,,,0.0,4.0,4.0,4.0,4.0,4.0,4.0,4.0,4.0,4.0,4.0,4.0,4.0,4.0,4.0,100.0,,,,,,,,,,,,,,,,,,,,,,,,,,,,,,,,,,,,,,,,,,,,,,,,,,,,,,,,0.0,0.0,1.0,0.0,1.0,0.0,,,,,,,,,,,,,,,,,,,,,,,,,,,,,,,,,,,,,,,,,,,,,,,,,,,,,,,,,,,,,,,,,,,,,,
1725618277.053576,1725618277.053178,19.0,0.0,4233.974121,4231.282227,4278.333496,4268.077148,4204.487305,4216.410156,4283.333496,4234.358887,4223.077148,4223.205078,4536.538574,4525.769043,4373.589844,4447.820313,3071.0,2.0,35.0,,,,0.0,4.0,4.0,4.0,4.0,4.0,4.0,4.0,4.0,4.0,4.0,4.0,4.0,4.0,4.0,100.0,,,,,,,,,,,,,,,,,,,,,,,,,,,,,,,,,,,,,,,,,,,,,,,,,,,,,,,,,,,,,,,,,,,,,,,,,,,,,,,,,,,,,,,,,,,,,,,,,,,,,,,,,,,,,,,,,,,,,,,,,,,,,,,,,,,
1725618277.05748,1725618277.057082,20.0,0.0,4237.307617,4231.410156,4279.358887,4273.846191,4209.230957,4213.461426,4282.692383,4234.743652,4222.05127,4223.717773,4538.717773,4526.153809,4372.05127,4449.358887,3425.0,2.0,35.0,,,,0.0,4.0,4.0,4.0,4.0,4.0,4.0,4.0,4.0,4.0,4.0,4.0,4.0,4.0,4.0,100.0,,,,,,,,,,,,,,,,,,,,,,,,,,,,,,,,,,,,,,,,,,,,,,,,,,,,,,,,,,,,,,,,,,,,,,,,,,,,,,,,,,,,,,,,,,,,,,,,,,,,,,,,,,,,,,,,,,,,,,,,,,,,,,,,,,,
1725618277.061384,1725618277.060886,21.0,0.0,4240.512695,4231.794922,4280.384766,4278.974121,4214.230957,4212.563965,4281.922852,4234.230957,4219.871582,4222.692383,4541.025879,4529.615234,4369.230957,4450.256348,3891.0,2.0,35.0,,,,0.0,4.0,4.0,4.0,4.0,4.0,4.0,4.0,4.0,4.0,4.0,4.0,4.0,4.0,4.0,100.0,,,,,,,,,,,,,,,,,,,,,,,,,,,,,,,,,,,,,,,,,,,,,,,,,,,,,,,,,,,,,,,,,,,,,,,,,,,,,,,,,,,,,,,,,,,,,,,,,,,,,,,,,,,,,,,,,,,,,,,,,,,,,,,,,,,
1725618277.065288,1725618277.064791,22.0,0.0,4244.230957,4232.563965,4280.897461,4281.282227,4216.794922,4214.230957,4281.282227,4234.487305,4218.846191,4220.897461,4541.794922,4535.769043,4366.794922,4450.512695,2889.0,2.0,35.0,,,,0.0,4.0,4.0,4.0,4.0,4.0,4.0,4.0,4.0,4.0,4.0,4.0,4.0,4.0,4.0,100.0,,,,,,,,,,,,,,,,,,,,,,,,,,,,,,,,,,,,,,,,,,,,,,,,,,,,,,,,,,,,,,,,,,,,,,,,,,,,,,,,,,,,,,,,,,,,,,,,,,,,,,,,,,,,,,,,,,,,,,,,,,,,,,,,,,,
1725618277.069192,1725618277.068695,23.0,0.0,4248.077148,4233.333496,4281.153809,4280.897461,4215.641113,4216.410156,4281.153809,4235.384766,4219.743652,4218.974121,4540.512695,4541.025879,4365.897461,4450.128418,3071.0,2.0,35.0,,,,0.0,4.0,4.0,4.0,4.0,4.0,4.0,4.0,4.0,4.0,4.0,4.0,4.0,4.0,4.0,100.0,,,,,,,,,,,,,,,,,,,,,,,,,,,,,,,,,,,,,,,,,,,,,,,,,,,,,,,,,,,,,,,,,,,,,,,,,,,,,,,,,,,,,,,,,,,,,,,,,,,,,,,,,,,,,,,,,,,,,,,,,,,,,,,,,,,
1725618277.073096,1725618277.072699,24.0,0.0,4250.256348,4233.846191,4281.025879,4279.230957,4211.538574,4216.538574,4281.538574,4234.615234,4220.384766,4217.94873,4537.307617,4541.538574,4366.025879,4449.230957,3425.0,2.0,35.0,,,,0.0,4.0,4.0,4.0,4.0,4.0,4.0,4.0,4.0,4.0,4.0,4.0,4.0,4.0,4.0,100.0,,,,,,,,,,,,,,,,,,,,,,,,,,,,,,,,,,,,,,,,,,,,,,,,,,,,,,,,,,,,,,,,,,,,,,,,,,,,,,,,,,,,,,,,,,,,,,,,,,,,,,,,,,,,,,,,,,,,,,,,,,,,,,,,,,,
1725618277.077,1725618277.076603,25.0,0.0,4249.871582,4233.717773,4280.897461,4278.205078,4206.538574,4214.102539,4282.179688,4230.641113,4217.820313,4217.820313,4533.717773,4536.666504,4366.282227,4447.94873,3891.0,2.0,35.0,,,,0.0,4.0,4.0,4.0,4.0,4.0,4.0,4.0,4.0,4.0,4.0,4.0,4.0,4.0,4.0,100.0,,,,,,,,,,,,,,,,,,,,,,,,,,,,,,,,,,,,,,,,,,,,,,,,,,,,,,,,,,,,,,,,,,,,,,,,,,,,,,,,,,,,,,,,,,,,,,,,,,,,,,,,,,,,,,,,,,,,,,,,,,,,,,,,,,,
1725618277.080904,1725618277.080507,26.0,0.0,4247.05127,4233.461426,4280.769043,4278.333496,4202.692383,4210.769043,4282.692383,4224.230957,4212.05127,4218.333496,4531.410156,4529.487305,4366.410156,4447.179688,2889.0,2.0,35.0,,,,0.0,4.0,4.0,4.0,4.0,4.0,4.0,4.0,4.0,4.0,4.0,4.0,4.0,4.0,4.0,100.0,,,,,,,,,,,,,,,,,,,,,,,,,,,,,,,,,,,,,,,,,,,,,,,,,,,,,,,,0.0,0.0,1.0,0.0,1.0,0.0,,,,,,,,,,,,,,,,,,,,,,,,,,,,,,,,,,,,,,,,,,,,,,,,,,,,,,,,,,,,,,,,,,,,,,
1725618277.084808,1725618277.084411,27.0,0.0,4243.077148,4233.205078,4280.512695,4279.102539,4201.410156,4208.974121,4282.94873,4217.820313,4206.153809,4218.717773,4531.922852,4523.589844,4366.666504,4447.307617,3071.0,2.0,35.0,,,,0.0,4.0,4.0,4.0,4.0,4.0,4.0,4.0,4.0,4.0,4.0,4.0,4.0,4.0,4.0,100.0,,,,,,,,,,,,,,,,,,,,,,,,,,,,,,,,,,,,,,,,,,,,,,,,,,,,,,,,,,,,,,,,,,,,,,,,,,,,,,,,,,,,,,,,,,,,,,,,,,,,,,,,,,,,,,,,,,,,,,,,,,,,,,,,,,,
1725618277.088713,1725618277.088215,28.0,0.0,4240.384766,4233.333496,4280.0,4279.487305,4202.179688,4210.128418,4282.692383,4214.102539,4203.974121,4218.589844,4535.0,4521.153809,4367.563965,4448.077148,3425.0,2.0,35.0,,,,0.0,4.0,4.0,4.0,4.0,4.0,4.0,4.0,4.0,4.0,4.0,4.0,4.0,4.0,4.0,100.0,,,,,,,,,,,,,,,,,,,,,,,,,,,,,,,,,,,,,,,,,,,,,,,,,,,,,,,,,,,,,,,,,,,,,,,,,,,,,,,,,,,,,,,,,,,,,,,,,,,,,,,,,,,,,,,,,,,,,,,,,,,,,,,,,,,
1725618277.092617,1725618277.092119,29.0,0.0,4240.128418,4233.461426,4279.358887,4278.717773,4203.846191,4213.077148,4282.307617,4214.102539,4206.153809,4217.94873,4538.205078,4521.538574,4368.333496,4448.846191,3891.0,2.0,35.0,,,,0.0,4.0,4.0,4.0,4.0,4.0,4.0,4.0,4.0,4.0,4.0,4.0,4.0,4.0,4.0,100.0,,,,,,,,,,,,,,,,,,,,,,,,,,,,,,,,,,,,,,,,,,,,,,,,,,,,,,,,,,,,,,,,,,,,,,,,,,,,,,,,,,,,,,,,,,,,,,,,,,,,,,,,,,,,,,,,,,,,,,,,,,,,,,,,,,,
1725618277.096521,1725618277.096023,30.0,0.0,4242.307617,4233.461426,4278.974121,4277.692383,4205.128418,4216.025879,4282.179688,4216.410156,4210.641113,4217.436035,4538.461426,4523.205078,4367.563965,4448.461426,2889.0,2.0,35.0,,,,0.0,4.0,4.0,4.0,4.0,4.0,4.0,4.0,4.0,4.0,4.0,4.0,4.0,4.0,4.0,100.0,,,,,,,,,,,,,,,,,,,,,,,,,,,,,,,,,,,,,,,,,,,,,,,,,,,,,,,,,,,,,,,,,,,,,,,,,,,,,,,,,,,,,,,,,,,,,,,,,,,,,,,,,,,,,,,,,,,,,,,,,,,,,,,,,,,
1725618277.100425,1725618277.099927,31.0,0.0,4245.256348,4233.461426,4279.230957,4277.179688,4205.256348,4217.05127,4282.179688,4218.589844,4213.333496,4217.307617,4534.230957,4524.230957,4364.230957,4446.922852,3071.0,2.0,35.0,,,,0.0,4.0,4.0,4.0,4.0,4.0,4.0,4.0,4.0,4.0,4.0,4.0,4.0,4.0,4.0,100.0,,,,,,,,,,,,,,,,,,,,,,,,,,,,,,,,,,,,,,,,,,,,,,,,,,,,,,,,,,,,,,,,,,,,,,,,,,,,,,,,,,,,,,,,,,,,,,,,,,,,,,,,,,,,,,,,,,,,,,,,,,,,,,,,,,,
1725618277.104329,1725618277.103732,32.0,0.0,4247.436035,4233.461426,4279.743652,4277.692383,4204.230957,4216.153809,4282.179688,4218.589844,4212.563965,4217.436035,4527.307617,4523.717773,4359.743652,4445.0,0.0,2.0,35.0,,,,0.0,4.0,4.0,4.0,4.0,4.0,4.0,4.0,4.0,4.0,4.0,4.0,4.0,4.0,4.0,100.0,,,,,,,,,,,,,,,,,,,,,,,,,,,,,,,,,,,,,,,,,,,,,,,,,,,,,,,,,,,,,,,,,,,,,,,,,,,,,,,,,,,,,,,,,,,,,,,,,,,,,,,,,,,,,,,,,,,,,,,,,,,,,,,,,,,
1725618277.108233,1725618277.107636,33.0,0.0,4248.077148,4233.717773,4280.384766,4278.205078,4202.820313,4214.358887,4282.05127,4216.794922,4209.487305,4217.563965,4522.05127,4522.563965,4357.05127,4444.102539,0.0,2.0,35.0,,,,0.0,4.0,4.0,4.0,4.0,4.0,4.0,4.0,4.0,4.0,4.0,4.0,4.0,4.0,4.0,100.0,,,,,,,,,,,,,,,,,,,,,,,,,,,,,,,,,,,,,,,,,,,,,,,,,,,,,,,,,,,,,,,,,,,,,,,,,,,,,,,,,,,,,,,,,,,,,,,,,,,,,,,,,,,,,,,,,,,,,,,,,,,,,,,,,,,
1725618277.112137,1725618277.11154,34.0,0.0,4247.820313,4234.102539,4280.897461,4278.205078,4202.05127,4213.333496,4282.05127,4215.641113,4207.436035,4217.820313,4521.922852,4522.436035,4358.846191,4445.641113,0.0,2.0,35.0,,,,0.0,4.0,4.0,4.0,4.0,4.0,4.0,4.0,4.0,4.0,4.0,4.0,4.0,4.0,4.0,100.0,,,,,,,,,,,,,,,,,1.0,0.0,0.0,,,,,,,,,,,,,,,,,,,,,,,,,,,,,,,,,,,,,0.0,0.0,1.0,0.0,1.0,0.0,2.414093,1.958027,0.956861,0.432794,0.108894,1.60444,1.188234,0.767403,0.4664,0.12992,3.587436,2.343257,0.812042,0.337925,0.122228,1.74062,1.321454,0.633576,0.396366,0.105954,0.746405,0.344275,0.393835,0.115899,0.075363,0.23273,0.240215,0.114556,0.064652,0.029753,0.5227,0.377593,0.270629,0.155444,0.069044,1.647496,1.552685,0.907231,0.487292,0.146177,2.293807,1.170282,0.841483,0.314533,0.133745,2.757405,1.566999,0.914039,0.391199,0.079092,2.992841,2.837162,1.965526,0.635911,0.214199,5.015129,3.486816,1.783477,0.641012,0.180824,3.466934,2.548838,1.917181,0.558224,0.176963,3.409042,2.959329,1.214434,0.5937,0.106463
1725618277.116041,1725618277.115544,35.0,0.0,4247.563965,4234.230957,4280.769043,4277.563965,4202.563965,4213.846191,4282.436035,4217.05127,4208.846191,4218.461426,4527.563965,4524.615234,4365.641113,4449.743652,0.0,2.0,35.0,,,,0.0,4.0,4.0,4.0,4.0,4.0,4.0,4.0,4.0,4.0,4.0,4.0,4.0,4.0,4.0,100.0,,,,,,,,,,,,,,,,,,,,,,,,,,,,,,,,,,,,,,,,,,,,,,,,,,,,,,,,,,,,,,,,,,,,,,,,,,,,,,,,,,,,,,,,,,,,,,,,,,,,,,,,,,,,,,,,,,,,,,,,,,,,,,,,,,,
1725618277.119945,1725618277.119448,36.0,0.0,4247.307617,4233.717773,4280.256348,4277.05127,4203.974121,4215.641113,4282.820313,4221.410156,4213.461426,4219.615234,4535.769043,4527.94873,4374.487305,4455.128418,0.0,2.0,35.0,,,,0.0,4.0,4.0,4.0,4.0,4.0,4.0,4.0,4.0,4.0,4.0,4.0,4.0,4.0,4.0,100.0,,,,,,,,,,,,,,,,,,,,,,,,,,,,,,,,,,,,,,,,,,,,,,,,,,,,,,,,,,,,,,,,,,,,,,,,,,,,,,,,,,,,,,,,,,,,,,,,,,,,,,,,,,,,,,,,,,,,,,,,,,,,,,,,,,,
1725618277.12385,1725618277.123352,37.0,0.0,4246.922852,4232.692383,4279.615234,4277.05127,4205.769043,4217.307617,4282.820313,4227.307617,4218.589844,4220.512695,4541.794922,4530.384766,4380.256348,4459.358887,0.0,2.0,35.0,,,,0.0,4.0,4.0,4.0,4.0,4.0,4.0,4.0,4.0,4.0,4.0,4.0,4.0,4.0,4.0,100.0,,,,,,,,,,,,,,,,,,,,,,,,,,,,,,,,,,,,,,,,,,,,,,,,,,,,,,,,,,,,,,,,,,,,,,,,,,,,,,,,,,,,,,,,,,,,,,,,,,,,,,,,,,,,,,,,,,,,,,,,,,,,,,,,,,,
1725618277.127754,1725618277.127356,38.0,0.0,4246.794922,4231.538574,4279.487305,4278.205078,4206.922852,4217.820313,4282.436035,4232.94873,4221.153809,4220.641113,4542.563965,4530.384766,4380.0,4460.641113,0.0,2.0,35.0,,,,0.0,4.0,4.0,4.0,4.0,4.0,4.0,4.0,4.0,4.0,4.0,4.0,4.0,4.0,4.0,100.0,,,,,,,,,,,,,,,,,,,,,,,,,,,,,,,,,,,,,,,,,,,,,,,,,,,,,,,,,,,,,,,,,,,,,,,,,,,,,,,,,,,,,,,,,,,,,,,,,,,,,,,,,,,,,,,,,,,,,,,,,,,,,,,,,,,
1725618277.131658,1725618277.13126,39.0,0.0,4246.922852,4231.153809,4281.025879,4279.871582,4207.179688,4217.179688,4282.179688,4237.05127,4220.641113,4219.743652,4538.846191,4528.846191,4375.0,4458.846191,0.0,2.0,35.0,,,,0.0,4.0,4.0,4.0,4.0,4.0,4.0,4.0,4.0,4.0,4.0,4.0,4.0,4.0,4.0,100.0,,,,,,,,,,,,,,,,,,,,,,,,,,,,,,,,,,,,,,,,,,,,,,,,,,,,,,,,,,,,,,,,,,,,,,,,,,,,,,,,,,,,,,,,,,,,,,,,,,,,,,,,,,,,,,,,,,,,,,,,,,,,,,,,,,,
1725618277.135562,1725618277.135164,40.0,0.0,4247.820313,4231.666504,4284.358887,4281.410156,4206.410156,4216.410156,4283.461426,4238.846191,4218.461426,4218.333496,4534.358887,4527.820313,4368.974121,4455.256348,0.0,2.0,35.0,,,,0.0,4.0,4.0,4.0,4.0,4.0,4.0,4.0,4.0,4.0,4.0,4.0,4.0,4.0,4.0,100.0,,,,,,,,,,,,,,,,,,,,,,,,,,,,,,,,,,,,,,,,,,,,,,,,,,,,,,,,,,,,,,,,,,,,,,,,,,,,,,,,,,,,,,,,,,,,,,,,,,,,,,,,,,,,,,,,,,,,,,,,,,,,,,,,,,,
1725618277.139466,1725618277.139068,41.0,0.0,4248.974121,4232.820313,4288.717773,4281.922852,4205.0,4216.153809,4286.410156,4238.333496,4216.538574,4216.794922,4532.563965,4528.589844,4365.641113,4451.794922,0.0,2.0,35.0,,,,0.0,4.0,4.0,4.0,4.0,4.0,4.0,4.0,4.0,4.0,4.0,4.0,4.0,4.0,4.0,100.0,,,,,,,,,,,,,,,,,,,,,,,,,,,,,,,,,,,,,,,,,,,,,,,,,,,,,,,,,,,,,,,,,,,,,,,,,,,,,,,,,,,,,,,,,,,,,,,,,,,,,,,,,,,,,,,,,,,,,,,,,,,,,,,,,,,
1725618277.14337,1725618277.142973,42.0,0.0,4250.256348,4233.974121,4292.179688,4281.153809,4203.974121,4216.410156,4290.256348,4235.897461,4215.769043,4215.897461,4533.846191,4530.512695,4365.512695,4449.615234,0.0,2.0,35.0,,,,0.0,4.0,4.0,4.0,4.0,4.0,4.0,4.0,4.0,4.0,4.0,4.0,4.0,4.0,4.0,100.0,,,,,,,,,,,,,,,,,,,,,,,,,,,,,,,,,,,,,,,,,,,,,,,,,,,,,,,,0.0,0.0,1.0,0.0,1.0,0.0,,,,,,,,,,,,,,,,,,,,,,,,,,,,,,,,,,,,,,,,,,,,,,,,,,,,,,,,,,,,,,,,,,,,,,
1725618277.147274,1725618277.146877,43.0,0.0,4250.769043,4234.102539,4293.461426,4279.743652,4204.615234,4216.666504,4293.461426,4232.820313,4216.025879,4215.641113,4536.025879,4531.794922,4366.922852,4448.717773,0.0,2.0,35.0,,,,0.0,4.0,4.0,4.0,4.0,4.0,4.0,4.0,4.0,4.0,4.0,4.0,4.0,4.0,4.0,100.0,,,,,,,,,,,,,,,,,,,,,,,,,,,,,,,,,,,,,,,,,,,,,,,,,,,,,,,,,,,,,,,,,,,,,,,,,,,,,,,,,,,,,,,,,,,,,,,,,,,,,,,,,,,,,,,,,,,,,,,,,,,,,,,,,,,
1725618277.151178,1725618277.150681,44.0,0.0,4250.384766,4233.077148,4292.563965,4278.974121,4207.179688,4216.794922,4294.743652,4231.025879,4216.282227,4215.897461,4535.769043,4531.410156,4367.563965,4448.589844,0.0,2.0,35.0,,,,0.0,4.0,4.0,4.0,4.0,4.0,4.0,4.0,4.0,4.0,4.0,4.0,4.0,4.0,4.0,100.0,,,,,,,,,,,,,,,,,,,,,,,,,,,,,,,,,,,,,,,,,,,,,,,,,,,,,,,,,,,,,,,,,,,,,,,,,,,,,,,,,,,,,,,,,,,,,,,,,,,,,,,,,,,,,,,,,,,,,,,,,,,,,,,,,,,
1725618277.155082,1725618277.154585,45.0,0.0,4249.358887,4231.410156,4290.641113,4279.615234,4210.769043,4216.922852,4293.974121,4231.025879,4216.025879,4215.384766,4531.922852,4529.487305,4366.538574,4448.333496,0.0,2.0,35.0,,,,0.0,4.0,4.0,4.0,4.0,4.0,4.0,4.0,4.0,4.0,4.0,4.0,4.0,4.0,4.0,100.0,,,,,,,,,,,,,,,,,,,,,,,,,,,,,,,,,,,,,,,,,,,,,,,,,,,,,,,,,,,,,,,,,,,,,,,,,,,,,,,,,,,,,,,,,,,,,,,,,,,,,,,,,,,,,,,,,,,,,,,,,,,,,,,,,,,
1725618277.158986,1725618277.158489,46.0,0.0,4248.461426,4230.128418,4288.974121,4281.282227,4213.846191,4216.922852,4291.922852,4231.922852,4215.256348,4213.717773,4526.153809,4526.922852,4364.871582,4447.820313,0.0,2.0,35.0,,,,0.0,4.0,4.0,4.0,4.0,4.0,4.0,4.0,4.0,4.0,4.0,4.0,4.0,4.0,4.0,100.0,,,,,,,,,,,,,,,,,,,,,,,,,,,,,,,,,,,,,,,,,,,,,,,,,,,,,,,,,,,,,,,,,,,,,,,,,,,,,,,,,,,,,,,,,,,,,,,,,,,,,,,,,,,,,,,,,,,,,,,,,,,,,,,,,,,
1725618277.162891,1725618277.162393,47.0,0.0,4248.205078,4229.358887,4288.461426,4282.820313,4215.0,4216.794922,4290.0,4231.666504,4213.205078,4211.153809,4522.05127,4524.871582,4363.974121,4447.307617,0.0,2.0,35.0,,,,0.0,4.0,4.0,4.0,4.0,4.0,4.0,4.0,4.0,4.0,4.0,4.0,4.0,4.0,4.0,100.0,,,,,,,,,,,,,,,,,,,,,,,,,,,,,,,,,,,,,,,,,,,,,,,,,,,,,,,,,,,,,,,,,,,,,,,,,,,,,,,,,,,,,,,,,,,,,,,,,,,,,,,,,,,,,,,,,,,,,,,,,,,,,,,,,,,
1725618277.166795,1725618277.166197,48.0,0.0,4248.333496,4229.358887,4289.102539,4283.077148,4214.102539,4216.410156,4289.102539,4228.077148,4209.615234,4208.589844,4521.153809,4524.230957,4364.230957,4446.794922,0.0,2.0,35.0,,,,0.0,4.0,4.0,4.0,4.0,4.0,4.0,4.0,4.0,4.0,4.0,4.0,4.0,4.0,4.0,100.0,,,,,,,,,,,,,,,,,,,,,,,,,,,,,,,,,,,,,,,,,,,,,,,,,,,,,,,,,,,,,,,,,,,,,,,,,,,,,,,,,,,,,,,,,,,,,,,,,,,,,,,,,,,,,,,,,,,,,,,,,,,,,,,,,,,
1725618277.170699,1725618277.170101,49.0,0.0,4248.461426,4229.871582,4290.128418,4282.05127,4212.563965,4216.153809,4289.871582,4220.769043,4204.743652,4207.563965,4522.563965,4525.0,4365.128418,4446.282227,0.0,2.0,35.0,,,,0.0,4.0,4.0,4.0,4.0,4.0,4.0,4.0,4.0,4.0,4.0,4.0,4.0,4.0,4.0,100.0,,,,,,,,,,,,,,,,,,,,,,,,,,,,,,,,,,,,,,,,,,,,,,,,,,,,,,,,,,,,,,,,,,,,,,,,,,,,,,,,,,,,,,,,,,,,,,,,,,,,,,,,,,,,,,,,,,,,,,,,,,,,,,,,,,,
1725618277.174603,1725618277.174006,50.0,0.0,4248.589844,4231.410156,4290.769043,4281.153809,4212.05127,4216.410156,4292.05127,4211.282227,4200.641113,4208.461426,4523.717773,4525.384766,4365.512695,4445.769043,0.0,2.0,35.0,,,,0.0,4.0,4.0,4.0,4.0,4.0,4.0,4.0,4.0,4.0,4.0,4.0,4.0,4.0,4.0,100.0,,,,,,,,,,,,,,,,,,,,,,,,,,,,,,,,,,,,,,,,,,,,,,,,,,,,,,,,0.0,0.0,1.0,0.0,1.0,0.0,,,,,,,,,,,,,,,,,,,,,,,,,,,,,,,,,,,,,,,,,,,,,,,,,,,,,,,,,,,,,,,,,,,,,,
1725618277.178507,1725618277.17801,51.0,0.0,4248.974121,4233.589844,4290.384766,4281.538574,4213.846191,4217.307617,4294.615234,4202.563965,4198.846191,4211.153809,4523.205078,4523.846191,4365.0,4445.641113,0.0,2.0,35.0,,,,0.0,4.0,4.0,4.0,4.0,4.0,4.0,4.0,4.0,4.0,4.0,4.0,4.0,4.0,4.0,100.0,,,,,,,,,,,,,,,,,,,,,,,,,,,,,,,,,,,,,,,,,,,,,,,,,,,,,,,,,,,,,,,,,,,,,,,,,,,,,,,,,,,,,,,,,,,,,,,,,,,,,,,,,,,,,,,,,,,,,,,,,,,,,,,,,,,
1725618277.182411,1725618277.181914,52.0,0.0,4249.358887,4235.384766,4288.974121,4283.205078,4217.05127,4218.333496,4296.282227,4197.820313,4199.487305,4214.743652,4521.410156,4520.512695,4363.974121,4446.025879,0.0,2.0,35.0,,,,0.0,4.0,4.0,4.0,4.0,4.0,4.0,4.0,4.0,4.0,4.0,4.0,4.0,4.0,4.0,100.0,,,,,,,,,,,,,,,,,,,,,,,,,,,,,,,,,,,,,,,,,,,,,,,,,,,,,,,,,,,,,,,,,,,,,,,,,,,,,,,,,,,,,,,,,,,,,,,,,,,,,,,,,,,,,,,,,,,,,,,,,,,,,,,,,,,
1725618277.186315,1725618277.185818,53.0,0.0,4249.743652,4235.128418,4286.922852,4284.743652,4219.230957,4218.846191,4296.025879,4198.717773,4201.282227,4217.05127,4520.0,4517.05127,4363.717773,4446.410156,0.0,2.0,35.0,,,,0.0,4.0,4.0,4.0,4.0,4.0,4.0,4.0,4.0,4.0,4.0,4.0,4.0,4.0,4.0,100.0,,,,,,,,,,,,,,,,,,,,,,,,,,,,,,,,,,,,,,,,,,,,,,,,,,,,,,,,,,,,,,,,,,,,,,,,,,,,,,,,,,,,,,,,,,,,,,,,,,,,,,,,,,,,,,,,,,,,,,,,,,,,,,,,,,,
1725618277.190219,1725618277.189722,54.0,0.0,4250.128418,4231.538574,4284.487305,4283.589844,4218.333496,4218.205078,4293.205078,4203.846191,4202.692383,4216.538574,4520.0,4514.743652,4364.615234,4446.282227,0.0,2.0,35.0,,,,0.0,4.0,4.0,4.0,4.0,4.0,4.0,4.0,4.0,4.0,4.0,4.0,4.0,4.0,4.0,100.0,,,,,,,,,,,,,,,,,,,,,,,,,,,,,,,,,,,,,,,,,,,,,,,,,,,,,,,,,,,,,,,,,,,,,,,,,,,,,,,,,,,,,,,,,,,,,,,,,,,,,,,,,,,,,,,,,,,,,,,,,,,,,,,,,,,
1725618277.194123,1725618277.193526,55.0,0.0,4249.615234,4225.256348,4281.538574,4278.461426,4213.589844,4216.538574,4288.461426,4209.743652,4202.820313,4212.94873,4521.153809,4513.461426,4365.769043,4445.769043,0.0,2.0,35.0,,,,0.0,4.0,4.0,4.0,4.0,4.0,4.0,4.0,4.0,4.0,4.0,4.0,4.0,4.0,4.0,100.0,,,,,,,,,,,,,,,,,,,,,,,,,,,,,,,,,,,,,,,,,,,,,,,,,,,,,,,,,,,,,,,,,,,,,,,,,,,,,,,,,,,,,,,,,,,,,,,,,,,,,,,,,,,,,,,,,,,,,,,,,,,,,,,,,,,
1725618277.198027,1725618277.19743,56.0,0.0,4248.205078,4218.717773,4278.077148,4270.897461,4206.794922,4214.743652,4283.461426,4213.974121,4202.05127,4207.05127,4522.436035,4512.179688,4365.641113,4445.0,0.0,2.0,35.0,,,,0.0,4.0,4.0,4.0,4.0,4.0,4.0,4.0,4.0,4.0,4.0,4.0,4.0,4.0,4.0,100.0,,,,,,,,,,,,,,,,,,,,,,,,,,,,,,,,,,,,,,,,,,,,,,,,,,,,,,,,,,,,,,,,,,,,,,,,,,,,,,,,,,,,,,,,,,,,,,,,,,,,,,,,,,,,,,,,,,,,,,,,,,,,,,,,,,,
1725618277.201932,1725618277.201334,57.0,0.0,4246.282227,4214.358887,4275.384766,4264.230957,4201.153809,4213.846191,4280.128418,4215.641113,4200.897461,4201.410156,4522.436035,4510.641113,4363.333496,4444.102539,0.0,2.0,35.0,,,,0.0,4.0,4.0,4.0,4.0,4.0,4.0,4.0,4.0,4.0,4.0,4.0,4.0,4.0,4.0,100.0,,,,,,,,,,,,,,,,,,,,,,,,,,,,,,,,,,,,,,,,,,,,,,,,,,,,,,,,,,,,,,,,,,,,,,,,,,,,,,,,,,,,,,,,,,,,,,,,,,,,,,,,,,,,,,,,,,,,,,,,,,,,,,,,,,,
1725618277.205836,1725618277.205338,58.0,0.0,4244.871582,4213.589844,4274.358887,4261.282227,4199.102539,4214.230957,4279.487305,4215.512695,4199.871582,4198.589844,4521.538574,4509.487305,4359.487305,4443.205078,0.0,2.0,35.0,,,,0.0,4.0,4.0,4.0,4.0,4.0,4.0,4.0,4.0,4.0,4.0,4.0,4.0,4.0,4.0,100.0,,,,,,,,,,,,,,,,,,,,,,,,,,,,,,,,,,,,,,,,,,,,,,,,,,,,,,,,0.0,0.0,1.0,0.0,1.0,0.0,,,,,,,,,,,,,,,,,,,,,,,,,,,,,,,,,,,,,,,,,,,,,,,,,,,,,,,,,,,,,,,,,,,,,,
1725618277.20974,1725618277.209242,59.0,0.0,4244.743652,4215.769043,4275.128418,4262.179688,4200.384766,4215.384766,4281.025879,4214.615234,4199.743652,4199.102539,4520.512695,4509.743652,4356.025879,4442.179688,0.0,2.0,35.0,,,,0.0,4.0,4.0,4.0,4.0,4.0,4.0,4.0,4.0,4.0,4.0,4.0,4.0,4.0,4.0,100.0,,,,,,,,,,,,,,,,,,,,,,,,,,,,,,,,,,,,,,,,,,,,,,,,,,,,,,,,,,,,,,,,,,,,,,,,,,,,,,,,,,,,,,,,,,,,,,,,,,,,,,,,,,,,,,,,,,,,,,,,,,,,,,,,,,,
1725618277.213644,1725618277.213146,60.0,0.0,4245.512695,4218.974121,4276.922852,4264.743652,4203.205078,4216.666504,4283.333496,4214.358887,4200.256348,4201.666504,4520.512695,4511.666504,4354.743652,4441.282227,0.0,2.0,35.0,,,,0.0,4.0,4.0,4.0,4.0,4.0,4.0,4.0,4.0,4.0,4.0,4.0,4.0,4.0,4.0,100.0,,,,,,,,,,,,,,,,,,,,,,,,,,,,,,,,,,,,,,,,,,,,,,,,,,,,,,,,,,,,,,,,,,,,,,,,,,,,,,,,,,,,,,,,,,,,,,,,,,,,,,,,,,,,,,,,,,,,,,,,,,,,,,,,,,,
1725618277.217548,1725618277.217051,61.0,0.0,4246.410156,4220.897461,4278.461426,4266.666504,4205.128418,4217.179688,4284.743652,4215.384766,4201.153809,4204.230957,4521.153809,4515.128418,4356.025879,4440.641113,0.0,2.0,35.0,,,,0.0,4.0,4.0,4.0,4.0,4.0,4.0,4.0,4.0,4.0,4.0,4.0,4.0,4.0,4.0,100.0,,,,,,,,,,,,,,,,,,,,,,,,,,,,,,,,,,,,,,,,,,,,,,,,,,,,,,,,,,,,,,,,,,,,,,,,,,,,,,,,,,,,,,,,,,,,,,,,,,,,,,,,,,,,,,,,,,,,,,,,,,,,,,,,,,,
1725618277.221452,1725618277.221055,62.0,0.0,4246.794922,4220.384766,4279.102539,4267.179688,4205.128418,4217.179688,4284.743652,4218.077148,4201.794922,4205.256348,4522.05127,4519.230957,4358.333496,4440.641113,0.0,2.0,35.0,,,,0.0,4.0,4.0,4.0,4.0,4.0,4.0,4.0,4.0,4.0,4.0,4.0,4.0,4.0,4.0,100.0,,,,,,,,,,,,,,,,,,,,,,,,,,,,,,,,,,,,,,,,,,,,,,,,,,,,,,,,,,,,,,,,,,,,,,,,,,,,,,,,,,,,,,,,,,,,,,,,,,,,,,,,,,,,,,,,,,,,,,,,,,,,,,,,,,,
1725618277.225356,1725618277.224959,63.0,0.0,4246.538574,4217.94873,4278.974121,4267.436035,4203.846191,4217.05127,4283.717773,4221.538574,4201.538574,4205.0,4522.94873,4522.94873,4359.487305,4441.282227,0.0,2.0,35.0,,,,0.0,4.0,4.0,4.0,4.0,4.0,4.0,4.0,4.0,4.0,4.0,4.0,4.0,4.0,4.0,100.0,,,,,,,,,,,,,,,,,,,,,,,,,,,,,,,,,,,,,,,,,,,,,,,,,,,,,,,,,,,,,,,,,,,,,,,,,,,,,,,,,,,,,,,,,,,,,,,,,,,,,,,,,,,,,,,,,,,,,,,,,,,,,,,,,,,
1725618277.22926,1725618277.228863,64.0,0.0,4246.025879,4216.153809,4278.846191,4269.230957,4202.692383,4217.05127,4283.077148,4225.0,4200.641113,4204.743652,4523.846191,4525.128418,4358.846191,4442.692383,0.0,2.0,35.0,,,,0.0,4.0,4.0,4.0,4.0,4.0,4.0,4.0,4.0,4.0,4.0,4.0,4.0,4.0,4.0,100.0,,,,,,,,,,,,,,,,,,,,,,,,,,,,,,,,,,,,,,,,,,,,,,,,,,,,,,,,,,,,,,,,,,,,,,,,,,,,,,,,,,,,,,,,,,,,,,,,,,,,,,,,,,,,,,,,,,,,,,,,,,,,,,,,,,,
1725618277.233164,1725618277.232867,65.0,0.0,4246.025879,4217.307617,4278.974121,4273.205078,4202.563965,4217.563965,4283.333496,4227.820313,4200.512695,4206.025879,4524.743652,4525.384766,4357.820313,4444.615234,0.0,2.0,35.0,,,,0.0,4.0,4.0,4.0,4.0,4.0,4.0,4.0,4.0,4.0,4.0,4.0,4.0,4.0,4.0,100.0,,,,,,,,,,,,,,,,,,,,,,,,,,,,,,,,,,,,,,,,,,,,,,,,,,,,,,,,,,,,,,,,,,,,,,,,,,,,,,,,,,,,,,,,,,,,,,,,,,,,,,,,,,,,,,,,,,,,,,,,,,,,,,,,,,,
1725618277.237069,1725618277.236771,66.0,0.0,4246.922852,4221.666504,4279.487305,4277.820313,4203.333496,4217.94873,4284.358887,4230.256348,4202.436035,4208.974121,4525.512695,4524.230957,4358.333496,4446.282227,0.0,2.0,35.0,,,,0.0,4.0,4.0,4.0,4.0,4.0,4.0,4.0,4.0,4.0,4.0,4.0,4.0,4.0,4.0,100.0,1.0,41.666668,4.0,4.0,4.0,4.0,4.0,0.0,1.0,4.0,4.0,4.0,4.0,4.0,4.0,4.0,1.0,0.0,0.0,,,,,,,,,,,,,,,,,,,,,,,,,,,,,,,,,,,,,0.0,0.0,1.0,0.0,1.0,0.0,2.762168,2.070886,1.219981,0.518945,0.113233,1.826631,1.324745,0.904303,0.557677,0.1297,4.259773,2.547865,0.875596,0.428469,0.10665,1.925855,1.443596,0.737126,0.455444,0.112729,1.000054,0.313492,0.360969,0.12926,0.068162,0.237231,0.224349,0.114613,0.064346,0.030488,0.671491,0.433141,0.275714,0.178331,0.065462,1.581989,1.603363,0.783168,0.4863,0.149779,2.50816,1.367674,0.800146,0.360437,0.132736,3.324928,1.834015,1.048926,0.460727,0.086509,3.355433,3.127225,2.278477,0.715251,0.22568,5.424169,3.663064,1.85732,0.80963,0.191901,4.009391,2.889475,2.13091,0.728521,0.170663,3.962743,3.17703,1.486029,0.737854,0.112165
1725618277.240973,1725618277.240675,67.0,0.0,4248.333496,4227.436035,4280.384766,4280.641113,4204.102539,4217.820313,4285.0,4232.307617,4206.538574,4212.692383,4526.025879,4523.461426,4360.897461,4447.436035,0.0,2.0,35.0,,,,0.0,4.0,4.0,4.0,4.0,4.0,4.0,4.0,4.0,4.0,4.0,4.0,4.0,4.0,4.0,100.0,,,,,,,,,,,,,,,,,,,,,,,,,,,,,,,,,,,,,,,,,,,,,,,,,,,,,,,,,,,,,,,,,,,,,,,,,,,,,,,,,,,,,,,,,,,,,,,,,,,,,,,,,,,,,,,,,,,,,,,,,,,,,,,,,,,
1725618277.244877,1725618277.244579,68.0,0.0,4249.230957,4231.410156,4281.794922,4280.384766,4203.974121,4217.436035,4284.487305,4233.717773,4211.666504,4215.128418,4526.282227,4524.102539,4363.846191,4447.436035,0.0,2.0,35.0,,,,0.0,4.0,4.0,4.0,4.0,4.0,4.0,4.0,4.0,4.0,4.0,4.0,4.0,4.0,4.0,100.0,,,,,,,,,,,,,,,,,,,,,,,,,,,,,,,,,,,,,,,,,,,,,,,,,,,,,,,,,,,,,,,,,,,,,,,,,,,,,,,,,,,,,,,,,,,,,,,,,,,,,,,,,,,,,,,,,,,,,,,,,,,,,,,,,,,
1725618277.248781,1725618277.248483,69.0,0.0,4249.102539,4232.05127,4283.077148,4278.077148,4202.94873,4217.436035,4283.461426,4233.974121,4215.641113,4215.256348,4526.153809,4525.512695,4364.743652,4446.666504,0.0,2.0,35.0,,,,0.0,4.0,4.0,4.0,4.0,4.0,4.0,4.0,4.0,4.0,4.0,4.0,4.0,4.0,4.0,100.0,,,,,,,,,,,,,,,,,,,,,,,,,,,,,,,,,,,,,,,,,,,,,,,,,,,,,,,,,,,,,,,,,,,,,,,,,,,,,,,,,,,,,,,,,,,,,,,,,,,,,,,,,,,,,,,,,,,,,,,,,,,,,,,,,,,
1725618277.252685,1725618277.252387,70.0,0.0,4248.461426,4229.871582,4283.589844,4276.025879,4201.922852,4217.820313,4282.692383,4233.077148,4217.307617,4213.461426,4525.769043,4526.410156,4362.563965,4446.025879,0.0,2.0,35.0,,,,0.0,4.0,4.0,4.0,4.0,4.0,4.0,4.0,4.0,4.0,4.0,4.0,4.0,4.0,4.0,100.0,,,,,,,,,,,,,,,,,,,,,,,,,,,,,,,,,,,,,,,,,,,,,,,,,,,,,,,,,,,,,,,,,,,,,,,,,,,,,,,,,,,,,,,,,,,,,,,,,,,,,,,,,,,,,,,,,,,,,,,,,,,,,,,,,,,
1725618277.256589,1725618277.256192,71.0,0.0,4248.077148,4227.179688,4283.205078,4276.025879,4201.794922,4217.820313,4282.179688,4231.410156,4216.922852,4211.666504,4525.128418,4525.897461,4359.102539,4446.410156,0.0,2.0,35.0,,,,0.0,4.0,4.0,4.0,4.0,4.0,4.0,4.0,4.0,4.0,4.0,4.0,4.0,4.0,4.0,100.0,,,,,,,,,,,,,,,,,,,,,,,,,,,,,,,,,,,,,,,,,,,,,,,,,,,,,,,,,,,,,,,,,,,,,,,,,,,,,,,,,,,,,,,,,,,,,,,,,,,,,,,,,,,,,,,,,,,,,,,,,,,,,,,,,,,
1725618277.260493,1725618277.260096,72.0,0.0,4248.974121,4226.282227,4282.692383,4277.820313,4201.794922,4216.153809,4281.538574,4230.0,4215.641113,4211.410156,4524.102539,4524.871582,4357.563965,4447.820313,0.0,2.0,35.0,,,,0.0,4.0,4.0,4.0,4.0,4.0,4.0,4.0,4.0,4.0,4.0,4.0,4.0,4.0,4.0,100.0,,,,,,,,,,,,,,,,,,,,,,,,,,,,,,,,,,,,,,,,,,,,,,,,,,,,,,,,,,,,,,,,,,,,,,,,,,,,,,,,,,,,,,,,,,,,,,,,,,,,,,,,,,,,,,,,,,,,,,,,,,,,,,,,,,,
1725618277.264397,1725618277.264,73.0,0.0,4250.641113,4228.077148,4282.563965,4279.487305,4201.153809,4212.436035,4279.615234,4229.102539,4214.871582,4212.94873,4522.820313,4524.487305,4359.487305,4449.102539,0.0,2.0,35.0,,,,0.0,4.0,4.0,4.0,4.0,4.0,4.0,4.0,4.0,4.0,4.0,4.0,4.0,4.0,4.0,100.0,,,,,,,,,,,,,,,,,,,,,,,,,,,,,,,,,,,,,,,,,,,,,,,,,,,,,,,,,,,,,,,,,,,,,,,,,,,,,,,,,,,,,,,,,,,,,,,,,,,,,,,,,,,,,,,,,,,,,,,,,,,,,,,,,,,
1725618277.268301,1725618277.268004,74.0,0.0,4252.05127,4231.666504,4283.333496,4279.487305,4199.230957,4207.94873,4276.153809,4228.846191,4215.384766,4215.384766,4522.307617,4524.871582,4363.461426,4449.487305,0.0,2.0,35.0,,,,0.0,4.0,4.0,4.0,4.0,4.0,4.0,4.0,4.0,4.0,4.0,4.0,4.0,4.0,4.0,100.0,,,,,,,,,,,,,,,,,,,,,,,,,,,,,,,,,,,,,,,,,,,,,,,,,,,,,,,,0.0,0.0,1.0,0.0,1.0,0.0,,,,,,,,,,,,,,,,,,,,,,,,,,,,,,,,,,,,,,,,,,,,,,,,,,,,,,,,,,,,,,,,,,,,,,
1725618277.272205,1725618277.271908,75.0,0.0,4252.436035,4234.230957,4284.230957,4278.333496,4196.410156,4205.0,4271.666504,4229.358887,4216.666504,4217.307617,4523.461426,4526.025879,4366.922852,4448.974121,0.0,2.0,35.0,,,,0.0,4.0,4.0,4.0,4.0,4.0,4.0,4.0,4.0,4.0,4.0,4.0,4.0,4.0,4.0,100.0,,,,,,,,,,,,,,,,,,,,,,,,,,,,,,,,,,,,,,,,,,,,,,,,,,,,,,,,,,,,,,,,,,,,,,,,,,,,,,,,,,,,,,,,,,,,,,,,,,,,,,,,,,,,,,,,,,,,,,,,,,,,,,,,,,,
1725618277.27611,1725618277.275812,76.0,0.0,4251.538574,4234.230957,4284.743652,4277.179688,4193.333496,4205.384766,4267.179688,4230.256348,4218.205078,4218.205078,4526.666504,4527.307617,4368.333496,4448.205078,0.0,2.0,35.0,,,,0.0,4.0,4.0,4.0,4.0,4.0,4.0,4.0,4.0,4.0,4.0,4.0,4.0,4.0,4.0,100.0,,,,,,,,,,,,,,,,,,,,,,,,,,,,,,,,,,,,,,,,,,,,,,,,,,,,,,,,,,,,,,,,,,,,,,,,,,,,,,,,,,,,,,,,,,,,,,,,,,,,,,,,,,,,,,,,,,,,,,,,,,,,,,,,,,,
1725618277.280014,1725618277.279716,77.0,0.0,4250.128418,4232.179688,4284.487305,4277.307617,4190.641113,4208.717773,4264.358887,4230.384766,4219.615234,4218.333496,4530.256348,4527.563965,4368.205078,4447.94873,0.0,2.0,35.0,,,,0.0,4.0,4.0,4.0,4.0,4.0,4.0,4.0,4.0,4.0,4.0,4.0,4.0,4.0,4.0,100.0,,,,,,,,,,,,,,,,,,,,,,,,,,,,,,,,,,,,,,,,,,,,,,,,,,,,,,,,,,,,,,,,,,,,,,,,,,,,,,,,,,,,,,,,,,,,,,,,,,,,,,,,,,,,,,,,,,,,,,,,,,,,,,,,,,,
