Timestamp,OriginalTimestamp,EEG.Counter,EEG.Interpolated,EEG.AF3,EEG.F7,EEG.F3,EEG.FC5,EEG.T7,EEG.P7,EEG.O1,EEG.O2,EEG.P8,EEG.T8,EEG.FC6,EEG.F4,EEG.F8,EEG.AF4,EEG.RawCq,EEG.Battery,EEG.BatteryPercent,MarkerIndex,MarkerType,MarkerValueInt,EEG.MarkerHardware,CQ.AF3,CQ.F7,CQ.F3,CQ.FC5,CQ.T7,CQ.P7,CQ.O1,CQ.O2,CQ.P8,CQ.T8,CQ.FC6,CQ.F4,CQ.F8,CQ.AF4,CQ.Overall,EQ.SampleRateQuality,EQ.OVERALL,EQ.AF3,EQ.F7,EQ.F3,EQ.FC5,EQ.T7,EQ.P7,EQ.O1,EQ.O2,EQ.P8,EQ.T8,EQ.FC6,EQ.F4,EQ.F8,EQ.AF4,MC.Action,MC.ActionPower,MC.IsActive,PM.Attention.IsActive,PM.Attention.Scaled,PM.Attention.Raw,PM.Attention.Min,PM.Attention.Max,PM.Engagement.IsActive,PM.Engagement.Scaled,PM.Engagement.Raw,PM.Engagement.Min,PM.Engagement.Max,PM.Excitement.IsActive,PM.Excitement.Scaled,PM.Excitement.Raw,PM.Excitement.Min,PM.Excitement.Max,PM.LongTermExcitement,PM.Stress.IsActive,PM.Stress.Scaled,PM.Stress.Raw,PM.Stress.Min,PM.Stress.Max,PM.Relaxation.IsActive,PM.Relaxation.Scaled,PM.Relaxation.Raw,PM.Relaxation.Min,PM.Relaxation.Max,PM.Interest.IsActive,PM.Interest.Scaled,PM.Interest.Raw,PM.Interest.Min,PM.Interest.Max,PM.Focus.IsActive,PM.Focus.Scaled,PM.Focus.Raw,PM.Focus.Min,PM.Focus.Max,FE.BlinkWink,FE.HorizontalEyesDirection,FE.UpperFaceAction,FE.UpperFaceActionPower,FE.LowerFaceAction,FE.LowerFaceActionPower,POW.AF3.Theta,POW.AF3.Alpha,POW.AF3.BetaL,POW.AF3.BetaH,POW.AF3.Gamma,POW.F7.Theta,POW.F7.Alpha,POW.F7.BetaL,POW.F7.BetaH,POW.F7.Gamma,POW.F3.Theta,POW.F3.Alpha,POW.F3.BetaL,POW.F3.BetaH,POW.F3.Gamma,POW.FC5.Theta,POW.FC5.Alpha,POW.FC5.BetaL,POW.FC5.BetaH,POW.FC5.Gamma,POW.T7.Theta,POW.T7.Alpha,POW.T7.BetaL,POW.T7.BetaH,POW.T7.Gamma,POW.P7.Theta,POW.P7.Alpha,POW.P7.BetaL,POW.P7.BetaH,POW.P7.Gamma,POW.O1.Theta,POW.O1.Alpha,POW.O1.BetaL,POW.O1.BetaH,POW.O1.Gamma,POW.O2.Theta,POW.O2.Alpha,POW.O2.BetaL,POW.O2.BetaH,POW.O2.Gamma,POW.P8.Theta,POW.P8.Alpha,POW.P8.BetaL,POW.P8.BetaH,POW.P8.Gamma,POW.T8.Theta,POW.T8.Alpha,POW.T8.BetaL,POW.T8.BetaH,POW.T8.Gamma,POW.FC6.Theta,POW.FC6.Alpha,POW.FC6.BetaL,POW.FC6.BetaH,POW.FC6.Gamma,POW.F4.Theta,POW.F4.Alpha,POW.F4.BetaL,POW.F4.BetaH,POW.F4.Gamma,POW.F8.Theta,POW.F8.Alpha,POW.F8.BetaL,POW.F8.BetaH,POW.F8.Gamma,POW.AF4.Theta,POW.AF4.Alpha,POW.AF4.BetaL,POW.AF4.BetaH,POW.AF4.Gamma
1725717337.234995,1725717337.23488,93.0,0.0,4265.384766,4231.538574,4293.846191,4277.05127,4242.563965,4277.436035,4418.077148,4232.436035,4242.94873,4230.128418,4479.102539,4519.102539,4349.487305,4418.205078,0.0,0.0,11.0,17.0,1.0,1.0,0.0,4.0,4.0,4.0,4.0,4.0,4.0,4.0,4.0,4.0,4.0,4.0,4.0,4.0,4.0,100.0,,,,,,,,,,,,,,,,,,,,,,,,,,,,,,,,,,,,,,,,,,,,,,,,,,,,,,,,,,,,,,,,,,,,,,,,,,,,,,,,,,,,,,,,,,,,,,,,,,,,,,,,,,,,,,,,,,,,,,,,,,,,,,,,,,,
1725717337.2389,1725717337.238784,94.0,0.0,4266.410156,4232.05127,4295.128418,4275.384766,4245.128418,4276.538574,4418.077148,4237.05127,4243.717773,4226.794922,4476.410156,4525.641113,4347.94873,4420.512695,0.0,0.0,11.0,,,,0.0,4.0,4.0,4.0,4.0,4.0,4.0,4.0,4.0,4.0,4.0,4.0,4.0,4.0,4.0,100.0,,,,,,,,,,,,,,,,,,,,,,,,,,,,,,,,,,,,,,,,,,,,,,,,,,,,,,,,,,,,,,,,,,,,,,,,,,,,,,,,,,,,,,,,,,,,,,,,,,,,,,,,,,,,,,,,,,,,,,,,,,,,,,,,,,,
1725717337.242804,1725717337.242688,95.0,0.0,4270.0,4231.666504,4296.538574,4275.641113,4246.794922,4275.897461,4419.487305,4243.717773,4246.538574,4228.589844,4479.358887,4533.974121,4350.128418,4423.333496,0.0,0.0,11.0,,,,0.0,4.0,4.0,4.0,4.0,4.0,4.0,4.0,4.0,4.0,4.0,4.0,4.0,4.0,4.0,100.0,,,,,,,,,,,,,,,,,,,,,,,,,,,,,,,,,,,,,,,,,,,,,,,,,,,,,,,,,,,,,,,,,,,,,,,,,,,,,,,,,,,,,,,,,,,,,,,,,,,,,,,,,,,,,,,,,,,,,,,,,,,,,,,,,,,
1725717337.246708,1725717337.246592,96.0,0.0,4275.0,4231.282227,4297.692383,4277.820313,4247.436035,4276.282227,4422.05127,4248.333496,4249.487305,4233.974121,4486.538574,4539.871582,4354.230957,4426.666504,0.0,0.0,11.0,,,,0.0,4.0,4.0,4.0,4.0,4.0,4.0,4.0,4.0,4.0,4.0,4.0,4.0,4.0,4.0,100.0,,,,,,,,,,,,,,,,,,,,,,,,,,,,,,,,,,,,,,,,,,,,,,,,,,,,,,,,,,,,,,,,,,,,,,,,,,,,,,,,,,,,,,,,,,,,,,,,,,,,,,,,,,,,,,,,,,,,,,,,,,,,,,,,,,,
1725717337.250612,1725717337.250496,97.0,0.0,4279.487305,4231.538574,4298.077148,4281.025879,4247.692383,4277.436035,4425.0,4247.94873,4250.384766,4237.692383,4493.333496,4540.128418,4357.05127,4429.615234,0.0,0.0,11.0,,,,0.0,4.0,4.0,4.0,4.0,4.0,4.0,4.0,4.0,4.0,4.0,4.0,4.0,4.0,4.0,100.0,,,,,,,,,,,,,,,,,,,,,,,,,,,,,,,,,,,,,,,,,,,,,,,,,,,,,,,,,,,,,,,,,,,,,,,,,,,,,,,,,,,,,,,,,,,,,,,,,,,,,,,,,,,,,,,,,,,,,,,,,,,,,,,,,,,
1725717337.254516,1725717337.2545,98.0,0.0,4281.282227,4232.820313,4297.563965,4283.461426,4248.077148,4278.846191,4427.563965,4243.205078,4248.846191,4236.025879,4496.153809,4535.384766,4356.153809,4431.025879,0.0,0.0,11.0,,,,0.0,4.0,4.0,4.0,4.0,4.0,4.0,4.0,4.0,4.0,4.0,4.0,4.0,4.0,4.0,100.0,,,,,,,,,,,,,,,,,,,,,,,,,,,,,,,,,,,,,,,,,,,,,,,,,,,,,,,,,,,,,,,,,,,,,,,,,,,,,,,,,,,,,,,,,,,,,,,,,,,,,,,,,,,,,,,,,,,,,,,,,,,,,,,,,,,
1725717337.25842,1725717337.258404,99.0,0.0,4279.743652,4235.256348,4296.794922,4284.230957,4248.846191,4279.487305,4428.589844,4238.077148,4246.794922,4229.615234,4494.487305,4528.846191,4352.820313,4430.512695,0.0,0.0,11.0,,,,0.0,4.0,4.0,4.0,4.0,4.0,4.0,4.0,4.0,4.0,4.0,4.0,4.0,4.0,4.0,100.0,,,,,,,,,,,,,,,,,,,,,,,,,,,,,,,,,,,,,,,,,,,,,,,,,,,,,,,,,,,,,,,,,,,,,,,,,,,,,,,,,,,,,,,,,,,,,,,,,,,,,,,,,,,,,,,,,,,,,,,,,,,,,,,,,,,
1725717337.262324,1725717337.262308,100.0,0.0,4276.282227,4238.589844,4296.153809,4283.717773,4249.487305,4279.615234,4427.563965,4236.282227,4246.025879,4223.333496,4490.512695,4524.358887,4349.487305,4428.717773,0.0,0.0,11.0,,,,0.0,4.0,4.0,4.0,4.0,4.0,4.0,4.0,4.0,4.0,4.0,4.0,4.0,4.0,4.0,100.0,,,,,,,,,,,,,,,,,,,,,,,,,,,,,,,,,,,,,,,,,,,,,,,,,,,,,,,,0.0,0.0,1.0,0.0,1024.0,0.008762,,,,,,,,,,,,,,,,,,,,,,,,,,,,,,,,,,,,,,,,,,,,,,,,,,,,,,,,,,,,,,,,,,,,,,
1725717337.266228,1725717337.266213,101.0,0.0,4273.077148,4241.666504,4296.025879,4282.692383,4249.615234,4279.102539,4424.743652,4238.461426,4246.922852,4221.538574,4486.794922,4523.077148,4348.205078,4426.794922,0.0,0.0,11.0,,,,0.0,4.0,4.0,4.0,4.0,4.0,4.0,4.0,4.0,4.0,4.0,4.0,4.0,4.0,4.0,100.0,,,,,,,,,,,,,,,,,,,,,,,,,,,,,,,,,,,,,,,,,,,,,,,,,,,,,,,,,,,,,,,,,,,,,,,,,,,,,,,,,,,,,,,,,,,,,,,,,,,,,,,,,,,,,,,,,,,,,,,,,,,,,,,,,,,
1725717337.270132,1725717337.270217,102.0,0.0,4271.794922,4242.820313,4295.897461,4282.179688,4249.358887,4277.692383,4420.641113,4241.538574,4248.077148,4224.743652,4483.461426,4523.717773,4348.589844,4425.512695,0.0,0.0,11.0,,,,0.0,4.0,4.0,4.0,4.0,4.0,4.0,4.0,4.0,4.0,4.0,4.0,4.0,4.0,4.0,100.0,,,,,,,,,,,,,,,,,,,,,,,,,,,,,,,,,,,,,,,,,,,,,,,,,,,,,,,,,,,,,,,,,,,,,,,,,,,,,,,,,,,,,,,,,,,,,,,,,,,,,,,,,,,,,,,,,,,,,,,,,,,,,,,,,,,
1725717337.274037,1725717337.274121,103.0,0.0,4272.692383,4241.282227,4295.0,4282.436035,4248.461426,4275.256348,4416.025879,4242.05127,4247.94873,4229.615234,4479.743652,4524.358887,4349.102539,4425.0,0.0,0.0,11.0,,,,0.0,4.0,4.0,4.0,4.0,4.0,4.0,4.0,4.0,4.0,4.0,4.0,4.0,4.0,4.0,100.0,,,,,,,,,,,,,,,,,,,,,,,,,,,,,,,,,,,,,,,,,,,,,,,,,,,,,,,,,,,,,,,,,,,,,,,,,,,,,,,,,,,,,,,,,,,,,,,,,,,,,,,,,,,,,,,,,,,,,,,,,,,,,,,,,,,
1725717337.277941,1725717337.278025,104.0,0.0,4274.743652,4237.436035,4293.717773,4282.820313,4247.436035,4272.179688,4412.436035,4238.846191,4246.153809,4232.307617,4475.384766,4523.846191,4349.358887,4425.384766,0.0,0.0,11.0,,,,0.0,4.0,4.0,4.0,4.0,4.0,4.0,4.0,4.0,4.0,4.0,4.0,4.0,4.0,4.0,100.0,,,,,,,,,,,,,,,,,,,,,,,,,,,,,,,,,,,,,,,,,,,,,,,,,,,,,,,,,,,,,,,,,,,,,,,,,,,,,,,,,,,,,,,,,,,,,,,,,,,,,,,,,,,,,,,,,,,,,,,,,,,,,,,,,,,
1725717337.281845,1725717337.282029,105.0,0.0,4276.922852,4233.846191,4292.692383,4283.077148,4246.282227,4269.102539,4410.641113,4234.358887,4244.230957,4232.179688,4473.846191,4523.205078,4350.512695,4426.153809,0.0,0.0,11.0,,,,0.0,4.0,4.0,4.0,4.0,4.0,4.0,4.0,4.0,4.0,4.0,4.0,4.0,4.0,4.0,100.0,,,,,,,,,,,,,,,,,,,,,,,,,,,,,,,,,,,,,,,,,,,,,,,,,,,,,,,,,,,,,,,,,,,,,,,,,,,,,,,,,,,,,,,,,,,,,,,,,,,,,,,,,,,,,,,,,,,,,,,,,,,,,,,,,,,
1725717337.285749,1725717337.285933,106.0,0.0,4278.846191,4233.333496,4292.820313,4282.820313,4245.769043,4267.307617,4410.897461,4232.94873,4244.358887,4231.282227,4478.717773,4524.615234,4354.487305,4427.179688,0.0,0.0,11.0,,,,0.0,4.0,4.0,4.0,4.0,4.0,4.0,4.0,4.0,4.0,4.0,4.0,4.0,4.0,4.0,100.0,,,,,,,,,,,,,,,,,,,,,,,,,,,,,,,,,,,,,,,,,,,,,,,,,,,,,,,,,,,,,,,,,,,,,,,,,,,,,,,,,,,,,,,,,,,,,,,,,,,,,,,,,,,,,,,,,,,,,,,,,,,,,,,,,,,
1725717337.289653,1725717337.289837,107.0,0.0,4280.256348,4236.794922,4293.717773,4282.307617,4246.282227,4267.307617,4412.436035,4237.05127,4246.794922,4231.922852,4490.641113,4529.358887,4360.641113,4428.333496,0.0,0.0,11.0,,,,0.0,4.0,4.0,4.0,4.0,4.0,4.0,4.0,4.0,4.0,4.0,4.0,4.0,4.0,4.0,100.0,,,,,,,,,,,,,,,,,,,,,,,,,,,,,,,,,,,,,,,,,,,,,,,,,,,,,,,,,,,,,,,,,,,,,,,,,,,,,,,,,,,,,,,,,,,,,,,,,,,,,,,,,,,,,,,,,,,,,,,,,,,,,,,,,,,
1725717337.293557,1725717337.293741,108.0,0.0,4280.897461,4242.307617,4295.0,4281.922852,4248.077148,4268.717773,4413.717773,4244.487305,4250.384766,4234.358887,4504.358887,4535.641113,4366.538574,4429.487305,0.0,0.0,11.0,,,,0.0,4.0,4.0,4.0,4.0,4.0,4.0,4.0,4.0,4.0,4.0,4.0,4.0,4.0,4.0,100.0,,,,,,,,,,,,,,,,,,,,,,,,,,,,,,,,,,,,,,,,,,,,,,,,,,,,,,,,0.0,0.0,1.0,0.0,1024.0,0.008762,,,,,,,,,,,,,,,,,,,,,,,,,,,,,,,,,,,,,,,,,,,,,,,,,,,,,,,,,,,,,,,,,,,,,,
1725717337.297461,1725717337.297645,109.0,0.0,4280.512695,4246.922852,4295.897461,4281.410156,4250.0,4270.769043,4413.461426,4250.897461,4252.820313,4236.794922,4512.94873,4540.256348,4368.846191,4429.871582,0.0,0.0,11.0,,,,0.0,4.0,4.0,4.0,4.0,4.0,4.0,4.0,4.0,4.0,4.0,4.0,4.0,4.0,4.0,100.0,,,,,,,,,,,,,,,,,,,,,,,,,,,,,,,,,,,,,,,,,,,,,,,,,,,,,,,,,,,,,,,,,,,,,,,,,,,,,,,,,,,,,,,,,,,,,,,,,,,,,,,,,,,,,,,,,,,,,,,,,,,,,,,,,,,
1725717337.301365,1725717337.301449,110.0,0.0,4279.743652,4248.846191,4296.025879,4280.897461,4250.769043,4272.436035,4411.410156,4252.820313,4252.692383,4237.179688,4512.94873,4540.897461,4366.922852,4429.615234,0.0,0.0,11.0,,,,0.0,4.0,4.0,4.0,4.0,4.0,4.0,4.0,4.0,4.0,4.0,4.0,4.0,4.0,4.0,100.0,,,,,,,,,,,,,,,,,,,,,,,,,,,,,,,,,,,,,,,,,,,,,,,,,,,,,,,,,,,,,,,,,,,,,,,,,,,,,,,,,,,,,,,,,,,,,,,,,,,,,,,,,,,,,,,,,,,,,,,,,,,,,,,,,,,
1725717337.305269,1725717337.305353,111.0,0.0,4280.384766,4248.717773,4295.641113,4280.897461,4249.871582,4273.589844,4408.333496,4250.512695,4250.256348,4234.871582,4506.666504,4538.077148,4363.205078,4429.358887,0.0,0.0,11.0,,,,0.0,4.0,4.0,4.0,4.0,4.0,4.0,4.0,4.0,4.0,4.0,4.0,4.0,4.0,4.0,100.0,,,,,,,,,,,,,,,,,,,,,,,,,,,,,,,,,,,,,,,,,,,,,,,,,,,,,,,,,,,,,,,,,,,,,,,,,,,,,,,,,,,,,,,,,,,,,,,,,,,,,,,,,,,,,,,,,,,,,,,,,,,,,,,,,,,
1725717337.309173,1725717337.309258,112.0,0.0,4283.461426,4248.974121,4295.384766,4282.307617,4247.820313,4273.974121,4405.512695,4246.025879,4247.563965,4231.538574,4498.974121,4534.615234,4360.512695,4429.615234,0.0,0.0,11.0,,,,0.0,4.0,4.0,4.0,4.0,4.0,4.0,4.0,4.0,4.0,4.0,4.0,4.0,4.0,4.0,100.0,,,,,,,,,,,,,,,,,,,,,,,,,,,,,,,,,,,,,,,,,,,,,,,,,,,,,,,,,,,,,,,,,,,,,,,,,,,,,,,,,,,,,,,,,,,,,,,,,,,,,,,,,,,,,,,,,,,,,,,,,,,,,,,,,,,
1725717337.313078,1725717337.313162,113.0,0.0,4288.333496,4250.641113,4295.0,4285.128418,4246.025879,4274.230957,4403.461426,4241.538574,4246.410156,4230.0,4493.589844,4532.94873,4360.256348,4430.128418,0.0,0.0,11.0,,,,0.0,4.0,4.0,4.0,4.0,4.0,4.0,4.0,4.0,4.0,4.0,4.0,4.0,4.0,4.0,100.0,,,,,,,,,,,,,,,,,,,,,,,,,,,,,,,,,,,,,,,,,,,,,,,,,,,,,,,,,,,,,,,,,,,,,,,,,,,,,,,,,,,,,,,,,,,,,,,,,,,,,,,,,,,,,,,,,,,,,,,,,,,,,,,,,,,
1725717337.316982,1725717337.316966,114.0,0.0,4292.820313,4253.205078,4294.358887,4288.333496,4245.769043,4274.358887,4401.153809,4237.692383,4247.05127,4231.282227,4491.538574,4533.974121,4361.282227,4430.256348,0.0,0.0,11.0,,,,0.0,4.0,4.0,4.0,4.0,4.0,4.0,4.0,4.0,4.0,4.0,4.0,4.0,4.0,4.0,100.0,,,,,,,,,,,,,,,,,,,,,,,,,,,,,,,,,,,,,,,,,,,,,,,,,,,,,,,,,,,,,,,,,,,,,,,,,,,,,,,,,,,,,,,,,,,,,,,,,,,,,,,,,,,,,,,,,,,,,,,,,,,,,,,,,,,
1725717337.320886,1725717337.32087,115.0,0.0,4294.615234,4254.358887,4293.846191,4290.0,4247.05127,4274.487305,4398.077148,4234.871582,4247.820313,4233.846191,4491.538574,4536.282227,4361.025879,4429.615234,0.0,0.0,11.0,,,,0.0,4.0,4.0,4.0,4.0,4.0,4.0,4.0,4.0,4.0,4.0,4.0,4.0,4.0,4.0,100.0,,,,,,,,,,,,,,,,,,,,,,,,,,,,,,,,,,,,,,,,,,,,,,,,,,,,,,,,,,,,,,,,,,,,,,,,,,,,,,,,,,,,,,,,,,,,,,,,,,,,,,,,,,,,,,,,,,,,,,,,,,,,,,,,,,,
1725717337.32479,1725717337.324774,116.0,0.0,4292.692383,4252.94873,4293.717773,4288.974121,4249.102539,4274.230957,4394.102539,4234.358887,4247.692383,4234.871582,4492.179688,4538.077148,4359.487305,4428.846191,0.0,0.0,11.0,,,,0.0,4.0,4.0,4.0,4.0,4.0,4.0,4.0,4.0,4.0,4.0,4.0,4.0,4.0,4.0,100.0,,,,,,,,,,,,,,,,,1.0,0.0,0.0,,,,,,,,,,,,,,,,,,,,,,,,,,,,,,,,,,,,,0.0,0.0,1.0,0.0,1024.0,0.010501,2.425438,2.338297,1.288124,0.334059,0.150442,6.005959,5.350011,2.066886,0.515478,0.258379,1.441062,2.71465,0.596054,0.238238,0.126472,0.866956,1.250085,0.665132,0.299835,0.119021,0.645966,0.506233,0.281455,0.119147,0.054208,0.63521,0.40637,0.365841,0.106712,0.067728,4.36562,0.987477,0.513029,0.133024,0.09957,0.786297,2.068238,0.495479,0.561646,0.19919,0.886852,1.756048,0.601548,0.386961,0.215261,1.763213,3.069018,0.757629,0.809329,0.301983,1.635419,4.708978,1.280284,1.035758,0.798916,2.617969,5.646778,1.109443,0.666136,0.318032,2.030258,3.561146,1.302544,0.607536,0.227679,1.597307,4.017581,0.877019,0.392845,0.200633
1725717337.328694,1725717337.328778,117.0,0.0,4288.333496,4250.128418,4294.615234,4285.769043,4250.641113,4273.846191,4389.743652,4236.922852,4247.05127,4233.717773,4492.563965,4538.846191,4358.461426,4429.102539,0.0,0.0,11.0,,,,0.0,4.0,4.0,4.0,4.0,4.0,4.0,4.0,4.0,4.0,4.0,4.0,4.0,4.0,4.0,100.0,,,,,,,,,,,,,,,,,,,,,,,,,,,,,,,,,,,,,,,,,,,,,,,,,,,,,,,,,,,,,,,,,,,,,,,,,,,,,,,,,,,,,,,,,,,,,,,,,,,,,,,,,,,,,,,,,,,,,,,,,,,,,,,,,,,
1725717337.332598,1725717337.332682,118.0,0.0,4283.205078,4247.307617,4295.641113,4281.538574,4250.512695,4273.589844,4385.384766,4241.538574,4247.179688,4232.05127,4492.563965,4538.589844,4360.0,4430.769043,0.0,0.0,11.0,,,,0.0,4.0,4.0,4.0,4.0,4.0,4.0,4.0,4.0,4.0,4.0,4.0,4.0,4.0,4.0,100.0,,,,,,,,,,,,,,,,,,,,,,,,,,,,,,,,,,,,,,,,,,,,,,,,,,,,,,,,,,,,,,,,,,,,,,,,,,,,,,,,,,,,,,,,,,,,,,,,,,,,,,,,,,,,,,,,,,,,,,,,,,,,,,,,,,,
1725717337.336502,1725717337.336586,119.0,0.0,4279.102539,4245.897461,4295.384766,4278.077148,4249.102539,4274.102539,4381.666504,4245.256348,4248.589844,4231.666504,4491.794922,4536.794922,4362.94873,4432.05127,0.0,0.0,11.0,,,,0.0,4.0,4.0,4.0,4.0,4.0,4.0,4.0,4.0,4.0,4.0,4.0,4.0,4.0,4.0,100.0,,,,,,,,,,,,,,,,,,,,,,,,,,,,,,,,,,,,,,,,,,,,,,,,,,,,,,,,,,,,,,,,,,,,,,,,,,,,,,,,,,,,,,,,,,,,,,,,,,,,,,,,,,,,,,,,,,,,,,,,,,,,,,,,,,,
1725717337.340406,1725717337.34049,120.0,0.0,4276.922852,4245.641113,4292.563965,4276.410156,4247.307617,4275.256348,4378.846191,4244.615234,4249.487305,4232.307617,4489.230957,4531.666504,4363.589844,4430.769043,0.0,0.0,11.0,,,,0.0,4.0,4.0,4.0,4.0,4.0,4.0,4.0,4.0,4.0,4.0,4.0,4.0,4.0,4.0,100.0,,,,,,,,,,,,,,,,,,,,,,,,,,,,,,,,,,,,,,,,,,,,,,,,,,,,,,,,,,,,,,,,,,,,,,,,,,,,,,,,,,,,,,,,,,,,,,,,,,,,,,,,,,,,,,,,,,,,,,,,,,,,,,,,,,,
1725717337.34431,1725717337.344394,121.0,0.0,4276.538574,4245.897461,4287.436035,4276.666504,4246.153809,4276.282227,4376.410156,4239.230957,4247.307617,4231.410156,4484.230957,4522.307617,4358.974121,4425.256348,0.0,0.0,11.0,,,,0.0,4.0,4.0,4.0,4.0,4.0,4.0,4.0,4.0,4.0,4.0,4.0,4.0,4.0,4.0,100.0,,,,,,,,,,,,,,,,,,,,,,,,,,,,,,,,,,,,,,,,,,,,,,,,,,,,,,,,,,,,,,,,,,,,,,,,,,,,,,,,,,,,,,,,,,,,,,,,,,,,,,,,,,,,,,,,,,,,,,,,,,,,,,,,,,,
1725717337.348215,1725717337.348199,122.0,0.0,4276.922852,4245.512695,4282.179688,4278.077148,4245.641113,4276.922852,4374.102539,4231.666504,4241.410156,4227.436035,4477.692383,4511.410156,4350.256348,4417.179688,0.0,0.0,11.0,,,,0.0,4.0,4.0,4.0,4.0,4.0,4.0,4.0,4.0,4.0,4.0,4.0,4.0,4.0,4.0,100.0,,,,,,,,,,,,,,,,,,,,,,,,,,,,,,,,,,,,,,,,,,,,,,,,,,,,,,,,,,,,,,,,,,,,,,,,,,,,,,,,,,,,,,,,,,,,,,,,,,,,,,,,,,,,,,,,,,,,,,,,,,,,,,,,,,,
1725717337.352119,1725717337.352103,123.0,0.0,4277.436035,4244.743652,4279.615234,4279.743652,4245.384766,4277.179688,4371.410156,4226.410156,4234.102539,4221.410156,4472.436035,4503.333496,4342.05127,4410.512695,0.0,0.0,11.0,,,,0.0,4.0,4.0,4.0,4.0,4.0,4.0,4.0,4.0,4.0,4.0,4.0,4.0,4.0,4.0,100.0,,,,,,,,,,,,,,,,,,,,,,,,,,,,,,,,,,,,,,,,,,,,,,,,,,,,,,,,,,,,,,,,,,,,,,,,,,,,,,,,,,,,,,,,,,,,,,,,,,,,,,,,,,,,,,,,,,,,,,,,,,,,,,,,,,,
1725717337.356023,1725717337.356007,124.0,0.0,4277.94873,4244.358887,4281.025879,4280.641113,4245.512695,4277.820313,4369.230957,4226.410156,4229.487305,4216.666504,4471.410156,4502.179688,4339.358887,4408.974121,0.0,0.0,11.0,,,,0.0,4.0,4.0,4.0,4.0,4.0,4.0,4.0,4.0,4.0,4.0,4.0,4.0,4.0,4.0,100.0,,,,,,,,,,,,,,,,,,,,,,,,,,,,,,,,,,,,,,,,,,,,,,,,,,,,,,,,0.0,0.0,1.0,0.0,1024.0,0.010501,,,,,,,,,,,,,,,,,,,,,,,,,,,,,,,,,,,,,,,,,,,,,,,,,,,,,,,,,,,,,,,,,,,,,,
1725717337.359927,1725717337.360011,125.0,0.0,4278.717773,4245.256348,4285.641113,4280.512695,4246.282227,4278.846191,4368.846191,4230.512695,4230.512695,4215.769043,4475.641113,4508.077148,4343.589844,4413.461426,0.0,0.0,11.0,,,,0.0,4.0,4.0,4.0,4.0,4.0,4.0,4.0,4.0,4.0,4.0,4.0,4.0,4.0,4.0,100.0,,,,,,,,,,,,,,,,,,,,,,,,,,,,,,,,,,,,,,,,,,,,,,,,,,,,,,,,,,,,,,,,,,,,,,,,,,,,,,,,,,,,,,,,,,,,,,,,,,,,,,,,,,,,,,,,,,,,,,,,,,,,,,,,,,,
1725717337.363831,1725717337.363915,126.0,0.0,4279.871582,4247.563965,4291.025879,4279.871582,4247.692383,4279.615234,4370.897461,4234.871582,4236.025879,4219.358887,4483.333496,4517.692383,4351.922852,4421.153809,0.0,0.0,11.0,,,,0.0,4.0,4.0,4.0,4.0,4.0,4.0,4.0,4.0,4.0,4.0,4.0,4.0,4.0,4.0,100.0,,,,,,,,,,,,,,,,,,,,,,,,,,,,,,,,,,,,,,,,,,,,,,,,,,,,,,,,,,,,,,,,,,,,,,,,,,,,,,,,,,,,,,,,,,,,,,,,,,,,,,,,,,,,,,,,,,,,,,,,,,,,,,,,,,,
1725717337.367735,1725717337.367819,127.0,0.0,4280.769043,4250.384766,4294.871582,4279.358887,4249.615234,4279.871582,4374.871582,4235.641113,4241.538574,4225.256348,4490.0,4525.128418,4359.487305,4427.307617,0.0,0.0,11.0,,,,0.0,4.0,4.0,4.0,4.0,4.0,4.0,4.0,4.0,4.0,4.0,4.0,4.0,4.0,4.0,100.0,,,,,,,,,,,,,,,,,,,,,,,,,,,,,,,,,,,,,,,,,,,,,,,,,,,,,,,,,,,,,,,,,,,,,,,,,,,,,,,,,,,,,,,,,,,,,,,,,,,,,,,,,,,,,,,,,,,,,,,,,,,,,,,,,,,
1725717337.371639,1725717337.371723,128.0,0.0,4281.153809,4253.205078,4295.769043,4279.615234,4250.769043,4279.615234,4379.102539,4231.410156,4242.563965,4230.256348,4491.794922,4526.282227,4362.820313,4428.846191,2690.0,0.0,11.0,,,,0.0,4.0,4.0,4.0,4.0,4.0,4.0,4.0,4.0,4.0,4.0,4.0,4.0,4.0,4.0,100.0,,,,,,,,,,,,,,,,,,,,,,,,,,,,,,,,,,,,,,,,,,,,,,,,,,,,,,,,,,,,,,,,,,,,,,,,,,,,,,,,,,,,,,,,,,,,,,,,,,,,,,,,,,,,,,,,,,,,,,,,,,,,,,,,,,,
1725717337.375543,1725717337.375527,129.0,0.0,4281.410156,4255.769043,4294.743652,4280.897461,4250.512695,4279.230957,4382.179688,4225.128418,4238.333496,4232.436035,4488.846191,4521.922852,4361.153809,4426.922852,2568.0,0.0,11.0,,,,0.0,4.0,4.0,4.0,4.0,4.0,4.0,4.0,4.0,4.0,4.0,4.0,4.0,4.0,4.0,100.0,,,,,,,,,,,,,,,,,,,,,,,,,,,,,,,,,,,,,,,,,,,,,,,,,,,,,,,,,,,,,,,,,,,,,,,,,,,,,,,,,,,,,,,,,,,,,,,,,,,,,,,,,,,,,,,,,,,,,,,,,,,,,,,,,,,
1725717337.379447,1725717337.379432,130.0,0.0,4281.922852,4258.205078,4293.205078,4282.692383,4248.974121,4279.230957,4382.692383,4221.410156,4232.94873,4232.436035,4485.384766,4517.436035,4356.794922,4424.615234,2503.0,0.0,11.0,,,,0.0,4.0,4.0,4.0,4.0,4.0,4.0,4.0,4.0,4.0,4.0,4.0,4.0,4.0,4.0,100.0,,,,,,,,,,,,,,,,,,,,,,,,,,,,,,,,,,,,,,,,,,,,,,,,,,,,,,,,,,,,,,,,,,,,,,,,,,,,,,,,,,,,,,,,,,,,,,,,,,,,,,,,,,,,,,,,,,,,,,,,,,,,,,,,,,,
1725717337.383351,1725717337.383336,131.0,0.0,4282.692383,4259.487305,4292.563965,4283.974121,4247.179688,4279.358887,4380.512695,4223.205078,4231.538574,4232.307617,4485.641113,4517.307617,4353.205078,4424.615234,2461.0,0.0,11.0,,,,0.0,4.0,4.0,4.0,4.0,4.0,4.0,4.0,4.0,4.0,4.0,4.0,4.0,4.0,4.0,100.0,,,,,,,,,,,,,,,,,,,,,,,,,,,,,,,,,,,,,,,,,,,,,,,,,,,,,,,,,,,,,,,,,,,,,,,,,,,,,,,,,,,,,,,,,,,,,,,,,,,,,,,,,,,,,,,,,,,,,,,,,,,,,,,,,,,
1725717337.387255,1725717337.38734,132.0,0.0,4282.94873,4258.846191,4293.077148,4283.846191,4246.538574,4279.487305,4377.05127,4229.102539,4235.897461,4233.205078,4489.358887,4521.666504,4352.436035,4426.538574,2439.0,0.0,11.0,,,,0.0,4.0,4.0,4.0,4.0,4.0,4.0,4.0,4.0,4.0,4.0,4.0,4.0,4.0,4.0,100.0,,,,,,,,,,,,,,,,,,,,,,,,,,,,,,,,,,,,,,,,,,,,,,,,,,,,,,,,0.0,0.0,1.0,0.0,1024.0,0.010501,,,,,,,,,,,,,,,,,,,,,,,,,,,,,,,,,,,,,,,,,,,,,,,,,,,,,,,,,,,,,,,,,,,,,,
1725717337.391159,1725717337.391244,133.0,0.0,4282.307617,4256.410156,4293.717773,4282.563965,4247.563965,4279.487305,4373.974121,4234.871582,4242.820313,4234.230957,4492.692383,4526.538574,4354.743652,4427.820313,2399.0,0.0,11.0,,,,0.0,4.0,4.0,4.0,4.0,4.0,4.0,4.0,4.0,4.0,4.0,4.0,4.0,4.0,4.0,100.0,,,,,,,,,,,,,,,,,,,,,,,,,,,,,,,,,,,,,,,,,,,,,,,,,,,,,,,,,,,,,,,,,,,,,,,,,,,,,,,,,,,,,,,,,,,,,,,,,,,,,,,,,,,,,,,,,,,,,,,,,,,,,,,,,,,
1725717337.395064,1725717337.395148,134.0,0.0,4281.025879,4254.743652,4294.102539,4282.05127,4249.871582,4279.358887,4372.692383,4236.666504,4246.025879,4233.846191,4491.794922,4526.922852,4358.589844,4426.666504,2439.0,0.0,11.0,,,,0.0,4.0,4.0,4.0,4.0,4.0,4.0,4.0,4.0,4.0,4.0,4.0,4.0,4.0,4.0,100.0,,,,,,,,,,,,,,,,,,,,,,,,,,,,,,,,,,,,,,,,,,,,,,,,,,,,,,,,,,,,,,,,,,,,,,,,,,,,,,,,,,,,,,,,,,,,,,,,,,,,,,,,,,,,,,,,,,,,,,,,,,,,,,,,,,,
1725717337.398968,1725717337.399052,135.0,0.0,4280.512695,4256.794922,4293.846191,4283.974121,4252.05127,4279.230957,4372.94873,4233.333496,4242.436035,4231.153809,4486.410156,4521.794922,4362.307617,4423.974121,2476.0,0.0,11.0,,,,0.0,4.0,4.0,4.0,4.0,4.0,4.0,4.0,4.0,4.0,4.0,4.0,4.0,4.0,4.0,100.0,,,,,,,,,,,,,,,,,,,,,,,,,,,,,,,,,,,,,,,,,,,,,,,,,,,,,,,,,,,,,,,,,,,,,,,,,,,,,,,,,,,,,,,,,,,,,,,,,,,,,,,,,,,,,,,,,,,,,,,,,,,,,,,,,,,
1725717337.402872,1725717337.403056,136.0,0.0,4281.922852,4263.461426,4293.205078,4288.077148,4252.436035,4279.230957,4373.717773,4227.05127,4234.615234,4227.692383,4480.641113,4514.871582,4365.641113,4422.563965,2458.0,0.0,11.0,,,,0.0,4.0,4.0,4.0,4.0,4.0,4.0,4.0,4.0,4.0,4.0,4.0,4.0,4.0,4.0,100.0,,,,,,,,,,,,,,,,,,,,,,,,,,,,,,,,,,,,,,,,,,,,,,,,,,,,,,,,,,,,,,,,,,,,,,,,,,,,,,,,,,,,,,,,,,,,,,,,,,,,,,,,,,,,,,,,,,,,,,,,,,,,,,,,,,,
1725717337.406776,1725717337.40696,137.0,0.0,4285.0,4272.563965,4292.820313,4292.307617,4250.641113,4279.230957,4373.846191,4221.666504,4229.230957,4226.153809,4478.974121,4511.282227,4369.487305,4424.615234,2560.0,0.0,11.0,,,,0.0,4.0,4.0,4.0,4.0,4.0,4.0,4.0,4.0,4.0,4.0,4.0,4.0,4.0,4.0,100.0,,,,,,,,,,,,,,,,,,,,,,,,,,,,,,,,,,,,,,,,,,,,,,,,,,,,,,,,,,,,,,,,,,,,,,,,,,,,,,,,,,,,,,,,,,,,,,,,,,,,,,,,,,,,,,,,,,,,,,,,,,,,,,,,,,,
1725717337.41068,1725717337.410864,138.0,0.0,4288.333496,4279.615234,4293.333496,4293.846191,4247.94873,4279.230957,4373.461426,4221.153809,4230.897461,4227.692383,4483.205078,4513.846191,4373.846191,4428.974121,2887.0,0.0,11.0,,,,0.0,4.0,4.0,4.0,4.0,4.0,4.0,4.0,4.0,4.0,4.0,4.0,4.0,4.0,4.0,100.0,,,,,,,,,,,,,,,,,,,,,,,,,,,,,,,,,,,,,,,,,,,,,,,,,,,,,,,,,,,,,,,,,,,,,,,,,,,,,,,,,,,,,,,,,,,,,,,,,,,,,,,,,,,,,,,,,,,,,,,,,,,,,,,,,,,
1725717337.414584,1725717337.414768,139.0,0.0,4290.512695,4281.282227,4294.743652,4292.05127,4246.153809,4279.230957,4373.717773,4226.410156,4238.846191,4231.153809,4490.641113,4520.384766,4377.563965,4432.94873,3116.0,0.0,11.0,,,,0.0,4.0,4.0,4.0,4.0,4.0,4.0,4.0,4.0,4.0,4.0,4.0,4.0,4.0,4.0,100.0,,,,,,,,,,,,,,,,,,,,,,,,,,,,,,,,,,,,,,,,,,,,,,,,,,,,,,,,,,,,,,,,,,,,,,,,,,,,,,,,,,,,,,,,,,,,,,,,,,,,,,,,,,,,,,,,,,,,,,,,,,,,,,,,,,,
1725717337.418488,1725717337.418772,140.0,0.0,4290.128418,4277.05127,4295.769043,4287.94873,4246.410156,4279.230957,4374.615234,4235.641113,4247.94873,4233.846191,4496.282227,4526.410156,4378.589844,4433.846191,3386.0,0.0,11.0,,,,0.0,4.0,4.0,4.0,4.0,4.0,4.0,4.0,4.0,4.0,4.0,4.0,4.0,4.0,4.0,100.0,,,,,,,,,,,,,,,,,,,,,,,,,,,,,,,,,,,,,,,,,,,,,,,,,,,,,,,,0.0,0.0,1.0,0.0,1024.0,0.010501,,,,,,,,,,,,,,,,,,,,,,,,,,,,,,,,,,,,,,,,,,,,,,,,,,,,,,,,,,,,,,,,,,,,,,
1725717337.422392,1725717337.422676,141.0,0.0,4287.179688,4269.615234,4295.0,4283.717773,4247.307617,4279.230957,4375.0,4244.358887,4252.436035,4233.974121,4496.922852,4528.461426,4376.282227,4431.282227,3847.0,0.0,11.0,,,,0.0,4.0,4.0,4.0,4.0,4.0,4.0,4.0,4.0,4.0,4.0,4.0,4.0,4.0,4.0,100.0,,,,,,,,,,,,,,,,,,,,,,,,,,,,,,,,,,,,,,,,,,,,,,,,,,,,,,,,,,,,,,,,,,,,,,,,,,,,,,,,,,,,,,,,,,,,,,,,,,,,,,,,,,,,,,,,,,,,,,,,,,,,,,,,,,,
1725717337.426296,1725717337.42658,142.0,0.0,4282.436035,4262.820313,4291.922852,4280.769043,4247.179688,4279.230957,4373.461426,4248.846191,4251.025879,4231.794922,4493.077148,4526.666504,4371.794922,4427.436035,2887.0,0.0,11.0,,,,0.0,4.0,4.0,4.0,4.0,4.0,4.0,4.0,4.0,4.0,4.0,4.0,4.0,4.0,4.0,100.0,,,,,,,,,,,,,,,,,,,,,,,,,,,,,,,,,,,,,,,,,,,,,,,,,,,,,,,,,,,,,,,,,,,,,,,,,,,,,,,,,,,,,,,,,,,,,,,,,,,,,,,,,,,,,,,,,,,,,,,,,,,,,,,,,,,
1725717337.4302,1725717337.430485,143.0,0.0,4278.205078,4259.871582,4287.436035,4280.256348,4244.871582,4279.230957,4370.0,4248.205078,4246.922852,4229.358887,4488.717773,4523.589844,4367.563965,4424.871582,3116.0,0.0,11.0,,,,0.0,4.0,4.0,4.0,4.0,4.0,4.0,4.0,4.0,4.0,4.0,4.0,4.0,4.0,4.0,100.0,,,,,,,,,,,,,,,,,,,,,,,,,,,,,,,,,,,,,,,,,,,,,,,,,,,,,,,,,,,,,,,,,,,,,,,,,,,,,,,,,,,,,,,,,,,,,,,,,,,,,,,,,,,,,,,,,,,,,,,,,,,,,,,,,,,
1725717337.434105,1725717337.434389,144.0,0.0,4276.794922,4260.641113,4283.589844,4281.410156,4241.025879,4279.230957,4366.410156,4244.487305,4244.230957,4228.717773,4487.05127,4522.179688,4365.769043,4424.615234,3386.0,0.0,11.0,,,,0.0,4.0,4.0,4.0,4.0,4.0,4.0,4.0,4.0,4.0,4.0,4.0,4.0,4.0,4.0,100.0,,,,,,,,,,,,,,,,,,,,,,,,,,,,,,,,,,,,,,,,,,,,,,,,,,,,,,,,,,,,,,,,,,,,,,,,,,,,,,,,,,,,,,,,,,,,,,,,,,,,,,,,,,,,,,,,,,,,,,,,,,,,,,,,,,,
1725717337.438009,1725717337.438193,145.0,0.0,4277.692383,4263.205078,4281.538574,4282.436035,4237.307617,4279.230957,4364.230957,4239.743652,4244.743652,4230.0,4488.333496,4523.333496,4366.410156,4425.384766,3847.0,0.0,11.0,,,,0.0,4.0,4.0,4.0,4.0,4.0,4.0,4.0,4.0,4.0,4.0,4.0,4.0,4.0,4.0,100.0,,,,,,,,,,,,,,,,,,,,,,,,,,,,,,,,,,,,,,,,,,,,,,,,,,,,,,,,,,,,,,,,,,,,,,,,,,,,,,,,,,,,,,,,,,,,,,,,,,,,,,,,,,,,,,,,,,,,,,,,,,,,,,,,,,,
1725717337.441913,1725717337.442097,146.0,0.0,4278.333496,4264.743652,4281.025879,4280.897461,4234.871582,4279.230957,4363.717773,4235.256348,4247.05127,4231.410156,4489.743652,4524.615234,4367.307617,4424.102539,2887.0,0.0,11.0,,,,0.0,4.0,4.0,4.0,4.0,4.0,4.0,4.0,4.0,4.0,4.0,4.0,4.0,4.0,4.0,100.0,,,,,,,,,,,,,,,,,,,,,,,,,,,,,,,,,,,,,,,,,,,,,,,,,,,,,,,,,,,,,,,,,,,,,,,,,,,,,,,,,,,,,,,,,,,,,,,,,,,,,,,,,,,,,,,,,,,,,,,,,,,,,,,,,,,
1725717337.445817,1725717337.446001,147.0,0.0,4276.922852,4264.358887,4280.641113,4276.410156,4234.102539,4279.230957,4363.846191,4231.153809,4248.333496,4231.794922,4489.230957,4522.94873,4366.538574,4419.743652,3116.0,0.0,11.0,,,,0.0,4.0,4.0,4.0,4.0,4.0,4.0,4.0,4.0,4.0,4.0,4.0,4.0,4.0,4.0,100.0,,,,,,,,,,,,,,,,,,,,,,,,,,,,,,,,,,,,,,,,,,,,,,,,,,,,,,,,,,,,,,,,,,,,,,,,,,,,,,,,,,,,,,,,,,,,,,,,,,,,,,,,,,,,,,,,,,,,,,,,,,,,,,,,,,,
1725717337.449721,1725717337.450005,148.0,0.0,4273.974121,4263.077148,4279.487305,4271.538574,4234.358887,4278.846191,4363.589844,4228.717773,4247.820313,4231.410156,4487.563965,4518.589844,4365.0,4413.974121,3386.0,0.0,11.0,,,,0.0,4.0,4.0,4.0,4.0,4.0,4.0,4.0,4.0,4.0,4.0,4.0,4.0,4.0,4.0,100.0,,,,,,,,,,,,,,,,,1.0,0.0,0.0,,,,,,,,,,,,,,,,,,,,,,,,,,,,,,,,,,,,,0.0,0.0,1.0,0.0,1024.0,0.005516,3.085083,2.808974,1.333273,0.352149,0.162091,12.052074,9.465299,3.410449,0.800232,0.382163,1.867243,2.680774,0.625037,0.256684,0.136276,0.992457,1.31208,0.532795,0.264753,0.119679,0.621995,0.450838,0.306293,0.119724,0.060087,1.125994,0.395647,0.470827,0.142307,0.073255,7.412843,1.358161,0.799956,0.160939,0.111176,0.835737,2.512355,0.570408,0.606667,0.214072,1.094264,2.284013,0.654749,0.42959,0.214134,2.124712,3.662111,0.909139,0.801511,0.295432,1.910779,6.043307,1.352287,0.980715,0.710777,3.016516,6.865388,1.139104,0.648368,0.321483,2.178717,4.660213,1.393033,0.657151,0.248511,1.876764,4.903756,0.969,0.382485,0.193953
1725717337.453625,1725717337.453909,149.0,0.0,4271.282227,4262.692383,4277.94873,4269.358887,4235.0,4278.589844,4362.05127,4230.0,4246.794922,4232.563965,4488.077148,4514.871582,4365.256348,4411.410156,3847.0,0.0,11.0,,,,0.0,4.0,4.0,4.0,4.0,4.0,4.0,4.0,4.0,4.0,4.0,4.0,4.0,4.0,4.0,100.0,,,,,,,,,,,,,,,,,,,,,,,,,,,,,,,,,,,,,,,,,,,,,,,,,,,,,,,,,,,,,,,,,,,,,,,,,,,,,,,,,,,,,,,,,,,,,,,,,,,,,,,,,,,,,,,,,,,,,,,,,,,,,,,,,,,
1725717337.457529,1725717337.457813,150.0,0.0,4270.0,4264.230957,4277.05127,4270.769043,4235.769043,4278.717773,4359.743652,4235.128418,4247.05127,4235.897461,4491.794922,4515.128418,4368.717773,4413.974121,2887.0,0.0,11.0,,,,0.0,4.0,4.0,4.0,4.0,4.0,4.0,4.0,4.0,4.0,4.0,4.0,4.0,4.0,4.0,100.0,,,,,,,,,,,,,,,,,,,,,,,,,,,,,,,,,,,,,,,,,,,,,,,,,,,,,,,,,,,,,,,,,,,,,,,,,,,,,,,,,,,,,,,,,,,,,,,,,,,,,,,,,,,,,,,,,,,,,,,,,,,,,,,,,,,
1725717337.461433,1725717337.461717,151.0,0.0,4270.0,4266.410156,4277.307617,4273.717773,4236.153809,4279.615234,4356.922852,4241.922852,4248.717773,4239.487305,4495.512695,4518.461426,4373.589844,4419.743652,3116.0,0.0,11.0,,,,0.0,4.0,4.0,4.0,4.0,4.0,4.0,4.0,4.0,4.0,4.0,4.0,4.0,4.0,4.0,100.0,,,,,,,,,,,,,,,,,,,,,,,,,,,,,,,,,,,,,,,,,,,,,,,,,,,,,,,,,,,,,,,,,,,,,,,,,,,,,,,,,,,,,,,,,,,,,,,,,,,,,,,,,,,,,,,,,,,,,,,,,,,,,,,,,,,
1725717337.465337,1725717337.465522,152.0,0.0,4269.743652,4267.307617,4277.94873,4275.256348,4235.641113,4280.256348,4353.846191,4246.153809,4250.897461,4241.025879,4494.743652,4521.410156,4376.025879,4423.589844,3386.0,0.0,11.0,,,,0.0,4.0,4.0,4.0,4.0,4.0,4.0,4.0,4.0,4.0,4.0,4.0,4.0,4.0,4.0,100.0,,,,,,,,,,,,,,,,,,,,,,,,,,,,,,,,,,,,,,,,,,,,,,,,,,,,,,,,,,,,,,,,,,,,,,,,,,,,,,,,,,,,,,,,,,,,,,,,,,,,,,,,,,,,,,,,,,,,,,,,,,,,,,,,,,,
1725717337.469242,1725717337.469426,153.0,0.0,4268.846191,4265.512695,4277.820313,4273.461426,4234.487305,4279.871582,4350.512695,4245.384766,4252.179688,4239.358887,4488.333496,4520.769043,4374.358887,4422.692383,3847.0,0.0,11.0,,,,0.0,4.0,4.0,4.0,4.0,4.0,4.0,4.0,4.0,4.0,4.0,4.0,4.0,4.0,4.0,100.0,,,,,,,,,,,,,,,,,,,,,,,,,,,,,,,,,,,,,,,,,,,,,,,,,,,,,,,,,,,,,,,,,,,,,,,,,,,,,,,,,,,,,,,,,,,,,,,,,,,,,,,,,,,,,,,,,,,,,,,,,,,,,,,,,,,
1725717337.473146,1725717337.47333,154.0,0.0,4268.077148,4261.410156,4276.025879,4269.615234,4233.333496,4278.461426,4346.666504,4240.769043,4251.794922,4236.410156,4480.384766,4516.922852,4370.897461,4417.820313,2887.0,0.0,11.0,,,,0.0,4.0,4.0,4.0,4.0,4.0,4.0,4.0,4.0,4.0,4.0,4.0,4.0,4.0,4.0,100.0,,,,,,,,,,,,,,,,,,,,,,,,,,,,,,,,,,,,,,,,,,,,,,,,,,,,,,,,,,,,,,,,,,,,,,,,,,,,,,,,,,,,,,,,,,,,,,,,,,,,,,,,,,,,,,,,,,,,,,,,,,,,,,,,,,,
1725717337.47705,1725717337.477234,155.0,0.0,4268.974121,4257.179688,4273.461426,4266.538574,4233.333496,4277.307617,4342.692383,4235.769043,4250.384766,4234.487305,4476.153809,4513.333496,4370.256348,4413.333496,3116.0,0.0,11.0,,,,0.0,4.0,4.0,4.0,4.0,4.0,4.0,4.0,4.0,4.0,4.0,4.0,4.0,4.0,4.0,100.0,,,,,,,,,,,,,,,,,,,,,,,,,,,,,,,,,,,,,,,,,,,,,,,,,,,,,,,,,,,,,,,,,,,,,,,,,,,,,,,,,,,,,,,,,,,,,,,,,,,,,,,,,,,,,,,,,,,,,,,,,,,,,,,,,,,
1725717337.480954,1725717337.481238,156.0,0.0,4272.563965,4256.282227,4272.05127,4267.05127,4235.641113,4278.205078,4339.871582,4234.102539,4248.717773,4235.128418,4478.205078,4512.820313,4374.615234,4413.461426,3386.0,0.0,11.0,,,,0.0,4.0,4.0,4.0,4.0,4.0,4.0,4.0,4.0,4.0,4.0,4.0,4.0,4.0,4.0,100.0,,,,,,,,,,,,,,,,,,,,,,,,,,,,,,,,,,,,,,,,,,,,,,,,,,,,,,,,0.0,0.0,1.0,0.0,1024.0,0.005516,,,,,,,,,,,,,,,,,,,,,,,,,,,,,,,,,,,,,,,,,,,,,,,,,,,,,,,,,,,,,,,,,,,,,,
1725717337.484858,1725717337.485142,157.0,0.0,4277.94873,4261.153809,4274.102539,4272.05127,4240.128418,4281.538574,4339.615234,4237.179688,4247.94873,4237.94873,4484.358887,4516.153809,4381.282227,4419.358887,3847.0,0.0,11.0,,,,0.0,4.0,4.0,4.0,4.0,4.0,4.0,4.0,4.0,4.0,4.0,4.0,4.0,4.0,4.0,100.0,,,,,,,,,,,,,,,,,,,,,,,,,,,,,,,,,,,,,,,,,,,,,,,,,,,,,,,,,,,,,,,,,,,,,,,,,,,,,,,,,,,,,,,,,,,,,,,,,,,,,,,,,,,,,,,,,,,,,,,,,,,,,,,,,,,
1725717337.488762,1725717337.489046,158.0,0.0,4282.94873,4271.153809,4279.487305,4279.230957,4245.769043,4286.025879,4342.05127,4243.717773,4248.589844,4240.769043,4490.384766,4521.922852,4385.512695,4427.307617,2887.0,0.0,11.0,,,,0.0,4.0,4.0,4.0,4.0,4.0,4.0,4.0,4.0,4.0,4.0,4.0,4.0,4.0,4.0,100.0,,,,,,,,,,,,,,,,,,,,,,,,,,,,,,,,,,,,,,,,,,,,,,,,,,,,,,,,,,,,,,,,,,,,,,,,,,,,,,,,,,,,,,,,,,,,,,,,,,,,,,,,,,,,,,,,,,,,,,,,,,,,,,,,,,,
1725717337.492666,1725717337.49305,159.0,0.0,4285.128418,4282.05127,4285.512695,4285.0,4250.0,4289.102539,4345.0,4250.512695,4251.538574,4242.05127,4492.436035,4527.179688,4383.461426,4432.563965,3116.0,0.0,11.0,,,,0.0,4.0,4.0,4.0,4.0,4.0,4.0,4.0,4.0,4.0,4.0,4.0,4.0,4.0,4.0,100.0,,,,,,,,,,,,,,,,,,,,,,,,,,,,,,,,,,,,,,,,,,,,,,,,,,,,,,,,,,,,,,,,,,,,,,,,,,,,,,,,,,,,,,,,,,,,,,,,,,,,,,,,,,,,,,,,,,,,,,,,,,,,,,,,,,,
1725717337.49657,1725717337.496954,160.0,0.0,4283.974121,4287.692383,4289.230957,4286.282227,4251.153809,4288.974121,4345.897461,4254.358887,4256.410156,4242.05127,4489.743652,4529.230957,4376.153809,4432.692383,3386.0,0.0,11.0,,,,0.0,4.0,4.0,4.0,4.0,4.0,4.0,4.0,4.0,4.0,4.0,4.0,4.0,4.0,4.0,100.0,,,,,,,,,,,,,,,,,,,,,,,,,,,,,,,,,,,,,,,,,,,,,,,,,,,,,,,,,,,,,,,,,,,,,,,,,,,,,,,,,,,,,,,,,,,,,,,,,,,,,,,,,,,,,,,,,,,,,,,,,,,,,,,,,,,
1725717337.500474,1725717337.500858,161.0,0.0,4280.897461,4284.358887,4288.974121,4283.077148,4249.102539,4285.897461,4343.333496,4253.589844,4261.666504,4243.205078,4485.256348,4527.307617,4368.846191,4428.589844,3847.0,0.0,11.0,,,,0.0,4.0,4.0,4.0,4.0,4.0,4.0,4.0,4.0,4.0,4.0,4.0,4.0,4.0,4.0,100.0,,,,,,,,,,,,,,,,,,,,,,,,,,,,,,,,,,,,,,,,,,,,,,,,,,,,,,,,,,,,,,,,,,,,,,,,,,,,,,,,,,,,,,,,,,,,,,,,,,,,,,,,,,,,,,,,,,,,,,,,,,,,,,,,,,,
1725717337.504378,1725717337.504862,162.0,0.0,4277.820313,4273.717773,4285.512695,4278.077148,4245.769043,4281.922852,4338.461426,4249.487305,4264.743652,4246.794922,4483.333496,4523.205078,4367.179688,4423.717773,2887.0,0.0,11.0,,,,0.0,4.0,4.0,4.0,4.0,4.0,4.0,4.0,4.0,4.0,4.0,4.0,4.0,4.0,4.0,100.0,,,,,,,,,,,,,,,,,,,,,,,,,,,,,,,,,,,,,,,,,,,,,,,,,,,,,,,,,,,,,,,,,,,,,,,,,,,,,,,,,,,,,,,,,,,,,,,,,,,,,,,,,,,,,,,,,,,,,,,,,,,,,,,,,,,
1725717337.508283,1725717337.508766,163.0,0.0,4276.282227,4262.307617,4280.769043,4274.743652,4243.461426,4279.487305,4333.589844,4245.0,4263.461426,4251.025879,4485.512695,4520.128418,4372.820313,4421.410156,3116.0,0.0,11.0,,,,0.0,4.0,4.0,4.0,4.0,4.0,4.0,4.0,4.0,4.0,4.0,4.0,4.0,4.0,4.0,100.0,,,,,,,,,,,,,,,,,,,,,,,,,,,,,,,,,,,,,,,,,,,,,,,,,,,,,,,,,,,,,,,,,,,,,,,,,,,,,,,,,,,,,,,,,,,,,,,,,,,,,,,,,,,,,,,,,,,,,,,,,,,,,,,,,,,
1725717337.512187,1725717337.512671,164.0,0.0,4276.538574,4257.820313,4277.179688,4274.487305,4243.205078,4279.487305,4331.153809,4243.333496,4258.205078,4251.922852,4489.871582,4521.153809,4381.025879,4423.205078,3386.0,0.0,11.0,,,,0.0,4.0,4.0,4.0,4.0,4.0,4.0,4.0,4.0,4.0,4.0,4.0,4.0,4.0,4.0,100.0,,,,,,,,,,,,,,,,,,,,,,,,,,,,,,,,,,,,,,,,,,,,,,,,,,,,,,,,0.0,0.0,1.0,0.0,1024.0,0.005516,,,,,,,,,,,,,,,,,,,,,,,,,,,,,,,,,,,,,,,,,,,,,,,,,,,,,,,,,,,,,,,,,,,,,,
1725717337.516091,1725717337.516575,165.0,0.0,4278.333496,4263.717773,4276.922852,4276.794922,4244.871582,4281.282227,4331.794922,4245.256348,4252.179688,4247.05127,4492.94873,4526.410156,4385.128418,4428.077148,3847.0,0.0,11.0,,,,0.0,4.0,4.0,4.0,4.0,4.0,4.0,4.0,4.0,4.0,4.0,4.0,4.0,4.0,4.0,100.0,,,,,,,,,,,,,,,,,,,,,,,,,,,,,,,,,,,,,,,,,,,,,,,,,,,,,,,,,,,,,,,,,,,,,,,,,,,,,,,,,,,,,,,,,,,,,,,,,,,,,,,,,,,,,,,,,,,,,,,,,,,,,,,,,,,
1725717337.519995,1725717337.520479,166.0,0.0,4281.410156,4277.179688,4280.641113,4280.512695,4247.692383,4282.94873,4334.358887,4249.871582,4249.102539,4239.102539,4492.692383,4533.333496,4382.692383,4433.717773,2887.0,0.0,11.0,,,,0.0,4.0,4.0,4.0,4.0,4.0,4.0,4.0,4.0,4.0,4.0,4.0,4.0,4.0,4.0,100.0,,,,,,,,,,,,,,,,,,,,,,,,,,,,,,,,,,,,,,,,,,,,,,,,,,,,,,,,,,,,,,,,,,,,,,,,,,,,,,,,,,,,,,,,,,,,,,,,,,,,,,,,,,,,,,,,,,,,,,,,,,,,,,,,,,,
1725717337.523899,1725717337.524483,167.0,0.0,4285.641113,4290.897461,4286.794922,4285.0,4250.897461,4283.333496,4336.410156,4254.871582,4251.153809,4234.487305,4490.512695,4539.358887,4377.436035,4438.077148,3116.0,0.0,11.0,,,,0.0,4.0,4.0,4.0,4.0,4.0,4.0,4.0,4.0,4.0,4.0,4.0,4.0,4.0,4.0,100.0,,,,,,,,,,,,,,,,,,,,,,,,,,,,,,,,,,,,,,,,,,,,,,,,,,,,,,,,,,,,,,,,,,,,,,,,,,,,,,,,,,,,,,,,,,,,,,,,,,,,,,,,,,,,,,,,,,,,,,,,,,,,,,,,,,,
1725717337.527803,1725717337.528387,168.0,0.0,4289.871582,4298.589844,4292.94873,4289.230957,4254.102539,4282.563965,4336.282227,4258.461426,4257.179688,4237.94873,4489.743652,4542.692383,4376.410156,4440.769043,3386.0,0.0,11.0,,,,0.0,4.0,4.0,4.0,4.0,4.0,4.0,4.0,4.0,4.0,4.0,4.0,4.0,4.0,4.0,100.0,,,,,,,,,,,,,,,,,,,,,,,,,,,,,,,,,,,,,,,,,,,,,,,,,,,,,,,,,,,,,,,,,,,,,,,,,,,,,,,,,,,,,,,,,,,,,,,,,,,,,,,,,,,,,,,,,,,,,,,,,,,,,,,,,,,
1725717337.531707,1725717337.532291,169.0,0.0,4292.820313,4298.589844,4296.410156,4291.922852,4256.922852,4282.05127,4333.589844,4258.974121,4263.461426,4248.846191,4492.563965,4543.205078,4383.077148,4441.922852,3847.0,0.0,11.0,,,,0.0,4.0,4.0,4.0,4.0,4.0,4.0,4.0,4.0,4.0,4.0,4.0,4.0,4.0,4.0,100.0,,,,,,,,,,,,,,,,,,,,,,,,,,,,,,,,,,,,,,,,,,,,,,,,,,,,,,,,,,,,,,,,,,,,,,,,,,,,,,,,,,,,,,,,,,,,,,,,,,,,,,,,,,,,,,,,,,,,,,,,,,,,,,,,,,,
1725717337.535611,1725717337.536195,170.0,0.0,4294.487305,4295.0,4297.05127,4292.436035,4259.230957,4282.692383,4329.487305,4256.410156,4266.282227,4261.025879,4498.846191,4541.794922,4396.025879,4443.205078,2887.0,0.0,11.0,,,,0.0,4.0,4.0,4.0,4.0,4.0,4.0,4.0,4.0,4.0,4.0,4.0,4.0,4.0,4.0,100.0,,,,,,,,,,,,,,,,,,,,,,,,,,,,,,,,,,,,,,,,,,,,,,,,,,,,,,,,,,,,,,,,,,,,,,,,,,,,,,,,,,,,,,,,,,,,,,,,,,,,,,,,,,,,,,,,,,,,,,,,,,,,,,,,,,,
1725717337.539515,1725717337.540199,171.0,0.0,4296.410156,4293.717773,4296.666504,4291.666504,4260.769043,4284.615234,4326.282227,4252.436035,4265.641113,4267.820313,4507.05127,4541.538574,4409.743652,4446.538574,3116.0,0.0,11.0,,,,0.0,4.0,4.0,4.0,4.0,4.0,4.0,4.0,4.0,4.0,4.0,4.0,4.0,4.0,4.0,100.0,,,,,,,,,,,,,,,,,,,,,,,,,,,,,,,,,,,,,,,,,,,,,,,,,,,,,,,,,,,,,,,,,,,,,,,,,,,,,,,,,,,,,,,,,,,,,,,,,,,,,,,,,,,,,,,,,,,,,,,,,,,,,,,,,,,
1725717337.543419,1725717337.544103,172.0,0.0,4299.743652,4298.717773,4297.436035,4291.410156,4261.922852,4286.922852,4325.128418,4250.128418,4264.230957,4266.666504,4515.897461,4545.384766,4419.102539,4452.692383,3386.0,0.0,11.0,,,,0.0,4.0,4.0,4.0,4.0,4.0,4.0,4.0,4.0,4.0,4.0,4.0,4.0,4.0,4.0,100.0,,,,,,,,,,,,,,,,,,,,,,,,,,,,,,,,,,,,,,,,,,,,,,,,,,,,,,,,0.0,0.0,1.0,0.0,1024.0,0.005516,,,,,,,,,,,,,,,,,,,,,,,,,,,,,,,,,,,,,,,,,,,,,,,,,,,,,,,,,,,,,,,,,,,,,,
1725717337.547323,1725717337.548007,173.0,0.0,4304.102539,4308.077148,4300.128418,4293.333496,4263.205078,4288.974121,4326.153809,4251.794922,4264.743652,4260.384766,4523.717773,4552.94873,4421.922852,4460.256348,3847.0,0.0,11.0,,,,0.0,4.0,4.0,4.0,4.0,4.0,4.0,4.0,4.0,4.0,4.0,4.0,4.0,4.0,4.0,100.0,,,,,,,,,,,,,,,,,,,,,,,,,,,,,,,,,,,,,,,,,,,,,,,,,,,,,,,,,,,,,,,,,,,,,,,,,,,,,,,,,,,,,,,,,,,,,,,,,,,,,,,,,,,,,,,,,,,,,,,,,,,,,,,,,,,
1725717337.551227,1725717337.551911,174.0,0.0,4307.94873,4316.666504,4303.589844,4297.179688,4264.743652,4290.641113,4327.692383,4256.794922,4266.922852,4254.102539,4528.589844,4560.384766,4418.333496,4465.512695,2887.0,0.0,11.0,,,,0.0,4.0,4.0,4.0,4.0,4.0,4.0,4.0,4.0,4.0,4.0,4.0,4.0,4.0,4.0,100.0,,,,,,,,,,,,,,,,,,,,,,,,,,,,,,,,,,,,,,,,,,,,,,,,,,,,,,,,,,,,,,,,,,,,,,,,,,,,,,,,,,,,,,,,,,,,,,,,,,,,,,,,,,,,,,,,,,,,,,,,,,,,,,,,,,,
1725717337.555132,1725717337.555716,175.0,0.0,4308.974121,4319.102539,4306.282227,4300.769043,4266.153809,4291.410156,4328.461426,4260.897461,4268.077148,4251.153809,4528.846191,4562.05127,4410.384766,4464.743652,3116.0,0.0,11.0,,,,0.0,4.0,4.0,4.0,4.0,4.0,4.0,4.0,4.0,4.0,4.0,4.0,4.0,4.0,4.0,100.0,,,,,,,,,,,,,,,,,,,,,,,,,,,,,,,,,,,,,,,,,,,,,,,,,,,,,,,,,,,,,,,,,,,,,,,,,,,,,,,,,,,,,,,,,,,,,,,,,,,,,,,,,,,,,,,,,,,,,,,,,,,,,,,,,,,
1725717337.559036,1725717337.55962,176.0,0.0,4306.025879,4314.102539,4306.794922,4301.538574,4266.410156,4290.641113,4327.436035,4259.615234,4265.512695,4251.153809,4523.846191,4555.0,4400.512695,4456.794922,3386.0,0.0,11.0,,,,0.0,4.0,4.0,4.0,4.0,4.0,4.0,4.0,4.0,4.0,4.0,4.0,4.0,4.0,4.0,100.0,,,,,,,,,,,,,,,,,,,,,,,,,,,,,,,,,,,,,,,,,,,,,,,,,,,,,,,,,,,,,,,,,,,,,,,,,,,,,,,,,,,,,,,,,,,,,,,,,,,,,,,,,,,,,,,,,,,,,,,,,,,,,,,,,,,
1725717337.56294,1725717337.563524,177.0,0.0,4299.743652,4305.128418,4303.974121,4298.077148,4265.128418,4287.94873,4324.871582,4251.666504,4258.846191,4251.282227,4515.256348,4541.410156,4391.410156,4444.615234,3847.0,0.0,11.0,,,,0.0,4.0,4.0,4.0,4.0,4.0,4.0,4.0,4.0,4.0,4.0,4.0,4.0,4.0,4.0,100.0,,,,,,,,,,,,,,,,,,,,,,,,,,,,,,,,,,,,,,,,,,,,,,,,,,,,,,,,,,,,,,,,,,,,,,,,,,,,,,,,,,,,,,,,,,,,,,,,,,,,,,,,,,,,,,,,,,,,,,,,,,,,,,,,,,,
1725717337.566844,1725717337.567428,178.0,0.0,4291.794922,4297.436035,4298.461426,4291.153809,4262.94873,4283.589844,4321.794922,4240.128418,4250.641113,4248.205078,4505.641113,4526.922852,4384.871582,4432.94873,2887.0,0.0,11.0,,,,0.0,4.0,4.0,4.0,4.0,4.0,4.0,4.0,4.0,4.0,4.0,4.0,4.0,4.0,4.0,100.0,,,,,,,,,,,,,,,,,,,,,,,,,,,,,,,,,,,,,,,,,,,,,,,,,,,,,,,,,,,,,,,,,,,,,,,,,,,,,,,,,,,,,,,,,,,,,,,,,,,,,,,,,,,,,,,,,,,,,,,,,,,,,,,,,,,
1725717337.570748,1725717337.571232,179.0,0.0,4285.256348,4293.846191,4292.179688,4283.974121,4261.282227,4279.358887,4319.487305,4230.897461,4245.0,4241.538574,4497.563965,4517.179688,4382.436035,4425.897461,3116.0,0.0,11.0,,,,0.0,4.0,4.0,4.0,4.0,4.0,4.0,4.0,4.0,4.0,4.0,4.0,4.0,4.0,4.0,100.0,,,,,,,,,,,,,,,,,,,,,,,,,,,,,,,,,,,,,,,,,,,,,,,,,,,,,,,,,,,,,,,,,,,,,,,,,,,,,,,,,,,,,,,,,,,,,,,,,,,,,,,,,,,,,,,,,,,,,,,,,,,,,,,,,,,
1725717337.574652,1725717337.575136,180.0,0.0,4281.922852,4294.743652,4286.794922,4279.487305,4260.897461,4276.922852,4318.589844,4228.333496,4243.846191,4233.589844,4492.94873,4514.743652,4383.205078,4424.871582,3386.0,0.0,11.0,,,,0.0,4.0,4.0,4.0,4.0,4.0,4.0,4.0,4.0,4.0,4.0,4.0,4.0,4.0,4.0,100.0,1.0,75.0,4.0,4.0,4.0,4.0,4.0,4.0,1.0,4.0,4.0,4.0,4.0,4.0,4.0,4.0,1.0,0.0,0.0,,,,,,,,,,,,,,,,,,,,,,,,,,,,,,,,,,,,,0.0,0.0,1.0,0.0,1024.0,0.0,3.678738,3.295891,1.32128,0.362738,0.173608,19.950335,14.439152,5.108135,1.167235,0.531741,2.48157,2.638481,0.705651,0.28247,0.148909,1.247493,1.427719,0.510359,0.252301,0.116013,0.65341,0.431408,0.360406,0.125874,0.064592,1.756271,0.386969,0.552391,0.178702,0.08117,11.168007,1.836298,1.162096,0.216479,0.123077,0.943097,3.090108,0.688595,0.675439,0.228391,1.327359,2.891539,0.747594,0.494747,0.211734,2.556886,4.276501,1.118536,0.842207,0.29275,2.324906,7.511889,1.611645,0.978205,0.635584,3.756917,8.209049,1.319534,0.693249,0.328249,2.544537,5.893611,1.621945,0.7564,0.280426,2.398907,5.967592,1.18002,0.418209,0.195023
1725717337.578556,1725717337.57904,181.0,0.0,4281.410156,4297.563965,4283.333496,4279.358887,4261.794922,4277.179688,4318.974121,4232.179688,4246.282227,4228.077148,4491.922852,4518.333496,4384.615234,4427.94873,3847.0,0.0,11.0,,,,0.0,4.0,4.0,4.0,4.0,4.0,4.0,4.0,4.0,4.0,4.0,4.0,4.0,4.0,4.0,100.0,,,,,,,,,,,,,,,,,,,,,,,,,,,,,,,,,,,,,,,,,,,,,,,,,,,,,,,,,,,,,,,,,,,,,,,,,,,,,,,,,,,,,,,,,,,,,,,,,,,,,,,,,,,,,,,,,,,,,,,,,,,,,,,,,,,
1725717337.58246,1725717337.583044,182.0,0.0,4281.666504,4300.0,4281.410156,4281.794922,4262.436035,4278.974121,4319.230957,4239.102539,4249.102539,4226.922852,4492.820313,4523.846191,4384.230957,4431.410156,2887.0,0.0,11.0,,,,0.0,4.0,4.0,4.0,4.0,4.0,4.0,4.0,4.0,4.0,4.0,4.0,4.0,4.0,4.0,100.0,,,,,,,,,,,,,,,,,,,,,,,,,,,,,,,,,,,,,,,,,,,,,,,,,,,,,,,,,,,,,,,,,,,,,,,,,,,,,,,,,,,,,,,,,,,,,,,,,,,,,,,,,,,,,,,,,,,,,,,,,,,,,,,,,,,
1725717337.586364,1725717337.586948,183.0,0.0,4281.153809,4300.384766,4280.128418,4283.974121,4261.153809,4280.0,4318.589844,4244.871582,4250.256348,4230.0,4493.461426,4527.307617,4381.794922,4432.563965,3116.0,0.0,11.0,,,,0.0,4.0,4.0,4.0,4.0,4.0,4.0,4.0,4.0,4.0,4.0,4.0,4.0,4.0,4.0,100.0,,,,,,,,,,,,,,,,,,,,,,,,,,,,,,,,,,,,,,,,,,,,,,,,,,,,,,,,,,,,,,,,,,,,,,,,,,,,,,,,,,,,,,,,,,,,,,,,,,,,,,,,,,,,,,,,,,,,,,,,,,,,,,,,,,,
1725717337.590268,1725717337.590853,184.0,0.0,4279.487305,4298.589844,4279.230957,4283.077148,4257.563965,4278.461426,4316.666504,4247.436035,4249.871582,4235.769043,4492.563965,4526.410156,4379.487305,4430.641113,3386.0,0.0,11.0,,,,0.0,4.0,4.0,4.0,4.0,4.0,4.0,4.0,4.0,4.0,4.0,4.0,4.0,4.0,4.0,100.0,,,,,,,,,,,,,,,,,,,,,,,,,,,,,,,,,,,,,,,,,,,,,,,,,,,,,,,,,,,,,,,,,,,,,,,,,,,,,,,,,,,,,,,,,,,,,,,,,,,,,,,,,,,,,,,,,,,,,,,,,,,,,,,,,,,
1725717337.594173,1725717337.594757,185.0,0.0,4277.307617,4296.153809,4278.717773,4278.974121,4252.94873,4273.717773,4313.717773,4247.179688,4249.743652,4242.05127,4491.025879,4522.307617,4380.128418,4427.179688,3847.0,0.0,11.0,,,,0.0,4.0,4.0,4.0,4.0,4.0,4.0,4.0,4.0,4.0,4.0,4.0,4.0,4.0,4.0,100.0,,,,,,,,,,,,,,,,,,,,,,,,,,,,,,,,,,,,,,,,,,,,,,,,,,,,,,,,,,,,,,,,,,,,,,,,,,,,,,,,,,,,,,,,,,,,,,,,,,,,,,,,,,,,,,,,,,,,,,,,,,,,,,,,,,,
1725717337.598077,1725717337.598761,186.0,0.0,4275.256348,4294.871582,4278.974121,4274.102539,4249.102539,4267.563965,4310.641113,4246.282227,4251.538574,4246.922852,4490.256348,4518.974121,4384.615234,4425.0,2887.0,0.0,11.0,,,,0.0,4.0,4.0,4.0,4.0,4.0,4.0,4.0,4.0,4.0,4.0,4.0,4.0,4.0,4.0,100.0,,,,,,,,,,,,,,,,,,,,,,,,,,,,,,,,,,,,,,,,,,,,,,,,,,,,,,,,,,,,,,,,,,,,,,,,,,,,,,,,,,,,,,,,,,,,,,,,,,,,,,,,,,,,,,,,,,,,,,,,,,,,,,,,,,,
1725717337.601981,1725717337.602665,187.0,0.0,4273.974121,4295.897461,4280.128418,4271.794922,4247.436035,4263.205078,4308.717773,4246.282227,4255.641113,4248.974121,4491.025879,4519.615234,4390.384766,4426.282227,3116.0,0.0,11.0,,,,0.0,4.0,4.0,4.0,4.0,4.0,4.0,4.0,4.0,4.0,4.0,4.0,4.0,4.0,4.0,100.0,,,,,,,,,,,,,,,,,,,,,,,,,,,,,,,,,,,,,,,,,,,,,,,,,,,,,,,,,,,,,,,,,,,,,,,,,,,,,,,,,,,,,,,,,,,,,,,,,,,,,,,,,,,,,,,,,,,,,,,,,,,,,,,,,,,
1725717337.605885,1725717337.606569,188.0,0.0,4274.743652,4299.358887,4282.05127,4273.717773,4248.333496,4263.077148,4308.974121,4246.666504,4260.641113,4248.717773,4494.102539,4524.487305,4394.230957,4431.410156,3386.0,0.0,11.0,,,,0.0,4.0,4.0,4.0,4.0,4.0,4.0,4.0,4.0,4.0,4.0,4.0,4.0,4.0,4.0,100.0,,,,,,,,,,,,,,,,,,,,,,,,,,,,,,,,,,,,,,,,,,,,,,,,,,,,,,,,0.0,0.0,1.0,0.0,1024.0,0.0,,,,,,,,,,,,,,,,,,,,,,,,,,,,,,,,,,,,,,,,,,,,,,,,,,,,,,,,,,,,,,,,,,,,,,
1725717337.609789,1725717337.610573,189.0,0.0,4277.820313,4303.589844,4284.487305,4278.974121,4250.769043,4266.153809,4311.538574,4246.153809,4264.615234,4248.589844,4500.0,4530.897461,4394.871582,4438.589844,3847.0,0.0,11.0,,,,0.0,4.0,4.0,4.0,4.0,4.0,4.0,4.0,4.0,4.0,4.0,4.0,4.0,4.0,4.0,100.0,,,,,,,,,,,,,,,,,,,,,,,,,,,,,,,,,,,,,,,,,,,,,,,,,,,,,,,,,,,,,,,,,,,,,,,,,,,,,,,,,,,,,,,,,,,,,,,,,,,,,,,,,,,,,,,,,,,,,,,,,,,,,,,,,,,
1725717337.613693,1725717337.614477,190.0,0.0,4282.563965,4306.538574,4287.820313,4283.589844,4253.461426,4269.743652,4315.256348,4244.743652,4266.153809,4250.384766,4507.820313,4536.282227,4394.102539,4444.871582,2887.0,0.0,11.0,,,,0.0,4.0,4.0,4.0,4.0,4.0,4.0,4.0,4.0,4.0,4.0,4.0,4.0,4.0,4.0,100.0,,,,,,,,,,,,,,,,,,,,,,,,,,,,,,,,,,,,,,,,,,,,,,,,,,,,,,,,,,,,,,,,,,,,,,,,,,,,,,,,,,,,,,,,,,,,,,,,,,,,,,,,,,,,,,,,,,,,,,,,,,,,,,,,,,,
1725717337.617597,1725717337.618381,191.0,0.0,4287.307617,4307.179688,4291.794922,4285.0,4255.641113,4271.153809,4318.461426,4244.743652,4265.384766,4253.717773,4514.358887,4540.512695,4394.487305,4448.077148,3116.0,0.0,11.0,,,,0.0,4.0,4.0,4.0,4.0,4.0,4.0,4.0,4.0,4.0,4.0,4.0,4.0,4.0,4.0,100.0,,,,,,,,,,,,,,,,,,,,,,,,,,,,,,,,,,,,,,,,,,,,,,,,,,,,,,,,,,,,,,,,,,,,,,,,,,,,,,,,,,,,,,,,,,,,,,,,,,,,,,,,,,,,,,,,,,,,,,,,,,,,,,,,,,,
1725717337.621501,1725717337.622285,192.0,0.0,4290.641113,4306.538574,4295.897461,4283.077148,4257.563965,4270.256348,4319.871582,4248.461426,4263.846191,4256.410156,4515.897461,4545.0,4396.025879,4447.692383,3386.0,0.0,11.0,,,,0.0,4.0,4.0,4.0,4.0,4.0,4.0,4.0,4.0,4.0,4.0,4.0,4.0,4.0,4.0,100.0,,,,,,,,,,,,,,,,,,,,,,,,,,,,,,,,,,,,,,,,,,,,,,,,,,,,,,,,,,,,,,,,,,,,,,,,,,,,,,,,,,,,,,,,,,,,,,,,,,,,,,,,,,,,,,,,,,,,,,,,,,,,,,,,,,,
1725717337.625405,1725717337.626189,193.0,0.0,4292.692383,4306.153809,4299.102539,4281.025879,4259.358887,4268.333496,4319.743652,4255.641113,4263.205078,4257.05127,4511.410156,4550.512695,4396.794922,4445.384766,3847.0,0.0,11.0,,,,0.0,4.0,4.0,4.0,4.0,4.0,4.0,4.0,4.0,4.0,4.0,4.0,4.0,4.0,4.0,100.0,,,,,,,,,,,,,,,,,,,,,,,,,,,,,,,,,,,,,,,,,,,,,,,,,,,,,,,,,,,,,,,,,,,,,,,,,,,,,,,,,,,,,,,,,,,,,,,,,,,,,,,,,,,,,,,,,,,,,,,,,,,,,,,,,,,
1725717337.62931,1725717337.630193,194.0,0.0,4294.358887,4307.307617,4301.025879,4281.282227,4261.410156,4267.563965,4318.846191,4262.820313,4264.487305,4255.256348,4503.461426,4555.384766,4395.256348,4443.717773,2887.0,0.0,11.0,,,,0.0,4.0,4.0,4.0,4.0,4.0,4.0,4.0,4.0,4.0,4.0,4.0,4.0,4.0,4.0,100.0,,,,,,,,,,,,,,,,,,,,,,,,,,,,,,,,,,,,,,,,,,,,,,,,,,,,,,,,,,,,,,,,,,,,,,,,,,,,,,,,,,,,,,,,,,,,,,,,,,,,,,,,,,,,,,,,,,,,,,,,,,,,,,,,,,,
1725717337.633214,1725717337.634097,195.0,0.0,4295.641113,4309.871582,4301.282227,4283.974121,4262.820313,4268.333496,4318.205078,4265.641113,4266.794922,4252.307617,4497.05127,4557.692383,4391.538574,4443.589844,3116.0,0.0,11.0,,,,0.0,4.0,4.0,4.0,4.0,4.0,4.0,4.0,4.0,4.0,4.0,4.0,4.0,4.0,4.0,100.0,,,,,,,,,,,,,,,,,,,,,,,,,,,,,,,,,,,,,,,,,,,,,,,,,,,,,,,,,,,,,,,,,,,,,,,,,,,,,,,,,,,,,,,,,,,,,,,,,,,,,,,,,,,,,,,,,,,,,,,,,,,,,,,,,,,
1725717337.637118,1725717337.638001,196.0,0.0,4296.153809,4312.05127,4299.871582,4286.794922,4263.333496,4270.0,4318.077148,4262.179688,4267.692383,4249.615234,4495.641113,4555.769043,4386.794922,4444.487305,3386.0,0.0,11.0,,,,0.0,4.0,4.0,4.0,4.0,4.0,4.0,4.0,4.0,4.0,4.0,4.0,4.0,4.0,4.0,100.0,,,,,,,,,,,,,,,,,,,,,,,,,,,,,,,,,,,,,,,,,,,,,,,,,,,,,,,,0.0,0.0,1.0,0.0,1024.0,0.0,,,,,,,,,,,,,,,,,,,,,,,,,,,,,,,,,,,,,,,,,,,,,,,,,,,,,,,,,,,,,,,,,,,,,,
1725717337.641022,1725717337.641906,197.0,0.0,4295.641113,4311.666504,4297.179688,4287.692383,4262.820313,4270.512695,4318.333496,4254.358887,4264.743652,4247.94873,4500.0,4550.128418,4382.436035,4444.743652,3847.0,0.0,11.0,,,,0.0,4.0,4.0,4.0,4.0,4.0,4.0,4.0,4.0,4.0,4.0,4.0,4.0,4.0,4.0,100.0,,,,,,,,,,,,,,,,,,,,,,,,,,,,,,,,,,,,,,,,,,,,,,,,,,,,,,,,,,,,,,,,,,,,,,,,,,,,,,,,,,,,,,,,,,,,,,,,,,,,,,,,,,,,,,,,,,,,,,,,,,,,,,,,,,,
1725717337.644926,1725717337.64571,198.0,0.0,4294.743652,4308.717773,4294.743652,4286.025879,4261.922852,4268.974121,4318.846191,4246.538574,4258.205078,4246.922852,4507.05127,4542.692383,4378.974121,4444.230957,2887.0,0.0,11.0,,,,0.0,4.0,4.0,4.0,4.0,4.0,4.0,4.0,4.0,4.0,4.0,4.0,4.0,4.0,4.0,100.0,,,,,,,,,,,,,,,,,,,,,,,,,,,,,,,,,,,,,,,,,,,,,,,,,,,,,,,,,,,,,,,,,,,,,,,,,,,,,,,,,,,,,,,,,,,,,,,,,,,,,,,,,,,,,,,,,,,,,,,,,,,,,,,,,,,
1725717337.64883,1725717337.649614,199.0,0.0,4294.230957,4305.641113,4293.846191,4282.94873,4261.538574,4266.025879,4318.846191,4243.205078,4251.153809,4246.025879,4512.436035,4536.666504,4376.666504,4443.205078,3116.0,0.0,11.0,,,,0.0,4.0,4.0,4.0,4.0,4.0,4.0,4.0,4.0,4.0,4.0,4.0,4.0,4.0,4.0,100.0,,,,,,,,,,,,,,,,,,,,,,,,,,,,,,,,,,,,,,,,,,,,,,,,,,,,,,,,,,,,,,,,,,,,,,,,,,,,,,,,,,,,,,,,,,,,,,,,,,,,,,,,,,,,,,,,,,,,,,,,,,,,,,,,,,,
1725717337.652734,1725717337.653518,200.0,0.0,4293.974121,4304.487305,4294.487305,4280.769043,4261.538574,4263.846191,4317.436035,4245.256348,4248.205078,4245.384766,4512.563965,4535.0,4375.641113,4442.563965,3386.0,0.0,11.0,,,,0.0,4.0,4.0,4.0,4.0,4.0,4.0,4.0,4.0,4.0,4.0,4.0,4.0,4.0,4.0,100.0,,,,,,,,,,,,,,,,,,,,,,,,,,,,,,,,,,,,,,,,,,,,,,,,,,,,,,,,,,,,,,,,,,,,,,,,,,,,,,,,,,,,,,,,,,,,,,,,,,,,,,,,,,,,,,,,,,,,,,,,,,,,,,,,,,,
1725717337.656638,1725717337.657422,201.0,0.0,4293.717773,4305.512695,4295.769043,4280.512695,4261.666504,4264.358887,4315.0,4250.512695,4251.153809,4245.769043,4507.179688,4538.846191,4375.769043,4442.820313,3847.0,0.0,11.0,,,,0.0,4.0,4.0,4.0,4.0,4.0,4.0,4.0,4.0,4.0,4.0,4.0,4.0,4.0,4.0,100.0,,,,,,,,,,,,,,,,,,,,,,,,,,,,,,,,,,,,,,,,,,,,,,,,,,,,,,,,,,,,,,,,,,,,,,,,,,,,,,,,,,,,,,,,,,,,,,,,,,,,,,,,,,,,,,,,,,,,,,,,,,,,,,,,,,,
1725717337.660542,1725717337.661226,202.0,0.0,4293.461426,4306.410156,4296.666504,4281.794922,4261.538574,4267.307617,4312.692383,4255.641113,4258.205078,4247.563965,4498.846191,4546.282227,4377.307617,4444.102539,2887.0,0.0,11.0,,,,0.0,4.0,4.0,4.0,4.0,4.0,4.0,4.0,4.0,4.0,4.0,4.0,4.0,4.0,4.0,100.0,,,,,,,,,,,,,,,,,,,,,,,,,,,,,,,,,,,,,,,,,,,,,,,,,,,,,,,,,,,,,,,,,,,,,,,,,,,,,,,,,,,,,,,,,,,,,,,,,,,,,,,,,,,,,,,,,,,,,,,,,,,,,,,,,,,
1725717337.664446,1725717337.66513,203.0,0.0,4293.974121,4304.871582,4296.922852,4283.589844,4261.025879,4271.153809,4311.538574,4258.077148,4265.128418,4249.743652,4492.307617,4553.333496,4379.871582,4445.769043,3116.0,0.0,11.0,,,,0.0,4.0,4.0,4.0,4.0,4.0,4.0,4.0,4.0,4.0,4.0,4.0,4.0,4.0,4.0,100.0,,,,,,,,,,,,,,,,,,,,,,,,,,,,,,,,,,,,,,,,,,,,,,,,,,,,,,,,,,,,,,,,,,,,,,,,,,,,,,,,,,,,,,,,,,,,,,,,,,,,,,,,,,,,,,,,,,,,,,,,,,,,,,,,,,,
1725717337.668351,1725717337.669035,204.0,0.0,4295.256348,4300.769043,4296.922852,4284.743652,4260.769043,4273.461426,4311.922852,4256.922852,4267.94873,4250.256348,4490.384766,4556.025879,4381.794922,4446.666504,3386.0,0.0,11.0,,,,0.0,4.0,4.0,4.0,4.0,4.0,4.0,4.0,4.0,4.0,4.0,4.0,4.0,4.0,4.0,100.0,,,,,,,,,,,,,,,,,,,,,,,,,,,,,,,,,,,,,,,,,,,,,,,,,,,,,,,,0.0,0.0,1.0,0.0,1024.0,0.0,,,,,,,,,,,,,,,,,,,,,,,,,,,,,,,,,,,,,,,,,,,,,,,,,,,,,,,,,,,,,,,,,,,,,,
1725717337.672255,1725717337.672939,205.0,0.0,4296.153809,4296.666504,4296.794922,4284.358887,4261.153809,4272.94873,4313.205078,4253.717773,4265.897461,4248.205078,4491.794922,4553.589844,4381.922852,4445.897461,3847.0,0.0,11.0,,,,0.0,4.0,4.0,4.0,4.0,4.0,4.0,4.0,4.0,4.0,4.0,4.0,4.0,4.0,4.0,100.0,,,,,,,,,,,,,,,,,,,,,,,,,,,,,,,,,,,,,,,,,,,,,,,,,,,,,,,,,,,,,,,,,,,,,,,,,,,,,,,,,,,,,,,,,,,,,,,,,,,,,,,,,,,,,,,,,,,,,,,,,,,,,,,,,,,
1725717337.676159,1725717337.676743,206.0,0.0,4295.384766,4295.256348,4296.666504,4282.94873,4262.820313,4270.256348,4314.358887,4250.256348,4262.05127,4245.256348,4492.692383,4547.820313,4381.153809,4442.94873,2887.0,0.0,11.0,,,,0.0,4.0,4.0,4.0,4.0,4.0,4.0,4.0,4.0,4.0,4.0,4.0,4.0,4.0,4.0,100.0,,,,,,,,,,,,,,,,,,,,,,,,,,,,,,,,,,,,,,,,,,,,,,,,,,,,,,,,,,,,,,,,,,,,,,,,,,,,,,,,,,,,,,,,,,,,,,,,,,,,,,,,,,,,,,,,,,,,,,,,,,,,,,,,,,,
1725717337.680063,1725717337.680647,207.0,0.0,4292.563965,4297.05127,4296.282227,4281.922852,4265.256348,4267.307617,4314.358887,4248.461426,4260.641113,4244.615234,4490.769043,4541.922852,4380.897461,4438.717773,3116.0,0.0,11.0,,,,0.0,4.0,4.0,4.0,4.0,4.0,4.0,4.0,4.0,4.0,4.0,4.0,4.0,4.0,4.0,100.0,,,,,,,,,,,,,,,,,,,,,,,,,,,,,,,,,,,,,,,,,,,,,,,,,,,,,,,,,,,,,,,,,,,,,,,,,,,,,,,,,,,,,,,,,,,,,,,,,,,,,,,,,,,,,,,,,,,,,,,,,,,,,,,,,,,
1725717337.683967,1725717337.684551,208.0,0.0,4288.974121,4300.512695,4295.512695,4282.179688,4267.307617,4265.641113,4312.692383,4247.94873,4262.820313,4247.692383,4486.666504,4538.589844,4381.025879,4434.358887,3386.0,0.0,11.0,,,,0.0,4.0,4.0,4.0,4.0,4.0,4.0,4.0,4.0,4.0,4.0,4.0,4.0,4.0,4.0,100.0,,,,,,,,,,,,,,,,,,,,,,,,,,,,,,,,,,,,,,,,,,,,,,,,,,,,,,,,,,,,,,,,,,,,,,,,,,,,,,,,,,,,,,,,,,,,,,,,,,,,,,,,,,,,,,,,,,,,,,,,,,,,,,,,,,,
1725717337.687871,1725717337.688555,209.0,0.0,4286.410156,4302.692383,4294.102539,4283.205078,4267.307617,4264.743652,4309.615234,4247.820313,4265.641113,4251.794922,4482.94873,4538.333496,4378.974121,4431.153809,3847.0,0.0,11.0,,,,0.0,4.0,4.0,4.0,4.0,4.0,4.0,4.0,4.0,4.0,4.0,4.0,4.0,4.0,4.0,100.0,,,,,,,,,,,,,,,,,,,,,,,,,,,,,,,,,,,,,,,,,,,,,,,,,,,,,,,,,,,,,,,,,,,,,,,,,,,,,,,,,,,,,,,,,,,,,,,,,,,,,,,,,,,,,,,,,,,,,,,,,,,,,,,,,,,
1725717337.691775,1725717337.692459,210.0,0.0,4285.641113,4302.05127,4292.692383,4284.102539,4265.128418,4263.846191,4306.538574,4247.307617,4264.871582,4252.563965,4481.282227,4539.230957,4373.461426,4429.743652,2887.0,0.0,11.0,,,,0.0,4.0,4.0,4.0,4.0,4.0,4.0,4.0,4.0,4.0,4.0,4.0,4.0,4.0,4.0,100.0,,,,,,,,,,,,,,,,,,,,,,,,,,,,,,,,,,,,,,,,,,,,,,,,,,,,,,,,,,,,,,,,,,,,,,,,,,,,,,,,,,,,,,,,,,,,,,,,,,,,,,,,,,,,,,,,,,,,,,,,,,,,,,,,,,,
1725717337.695679,1725717337.696363,211.0,0.0,4286.922852,4298.974121,4291.538574,4284.615234,4262.307617,4263.205078,4304.358887,4247.307617,4260.641113,4248.077148,4482.94873,4539.487305,4366.794922,4430.256348,3116.0,0.0,11.0,,,,0.0,4.0,4.0,4.0,4.0,4.0,4.0,4.0,4.0,4.0,4.0,4.0,4.0,4.0,4.0,100.0,,,,,,,,,,,,,,,,,,,,,,,,,,,,,,,,,,,,,,,,,,,,,,,,,,,,,,,,,,,,,,,,,,,,,,,,,,,,,,,,,,,,,,,,,,,,,,,,,,,,,,,,,,,,,,,,,,,,,,,,,,,,,,,,,,,
1725717337.699583,1725717337.700267,212.0,0.0,4289.487305,4295.512695,4291.282227,4285.256348,4260.897461,4263.589844,4303.974121,4249.358887,4257.05127,4240.769043,4488.717773,4538.846191,4364.230957,4431.922852,3386.0,0.0,11.0,,,,0.0,4.0,4.0,4.0,4.0,4.0,4.0,4.0,4.0,4.0,4.0,4.0,4.0,4.0,4.0,100.0,,,,,,,,,,,,,,,,,1.0,0.0,0.0,,,,,,,,,,,,,,,,,,,,,,,,,,,,,,,,,,,,,0.0,0.0,1.0,0.0,1024.0,0.00173,3.999059,3.593916,1.205081,0.356596,0.179959,27.47666,18.75252,6.618349,1.511289,0.666914,3.051513,2.557027,0.761153,0.297357,0.158493,1.507144,1.5237,0.520146,0.247435,0.110048,0.704214,0.427821,0.409313,0.130707,0.066716,2.333905,0.376795,0.583147,0.203811,0.087438,14.694626,2.304331,1.478688,0.281345,0.13163,1.050185,3.564483,0.789514,0.731725,0.236943,1.509604,3.347757,0.801119,0.544947,0.205407,2.887054,4.654463,1.259661,0.882091,0.290836,2.667931,8.545127,1.878291,0.993969,0.576693,4.490835,9.187646,1.482354,0.759534,0.331157,2.90554,6.780477,1.803174,0.856737,0.31671,2.896581,6.754364,1.365944,0.462079,0.197739
1725717337.703488,1725717337.704271,213.0,0.0,4291.025879,4293.974121,4292.05127,4286.025879,4261.410156,4265.0,4304.615234,4254.230957,4258.077148,4235.384766,4496.922852,4538.717773,4368.461426,4434.230957,3847.0,0.0,11.0,,,,0.0,4.0,4.0,4.0,4.0,4.0,4.0,4.0,4.0,4.0,4.0,4.0,4.0,4.0,4.0,100.0,,,,,,,,,,,,,,,,,,,,,,,,,,,,,,,,,,,,,,,,,,,,,,,,,,,,,,,,,,,,,,,,,,,,,,,,,,,,,,,,,,,,,,,,,,,,,,,,,,,,,,,,,,,,,,,,,,,,,,,,,,,,,,,,,,,
1725717337.707392,1725717337.708175,214.0,0.0,4289.230957,4294.487305,4292.820313,4285.384766,4262.820313,4265.769043,4304.615234,4260.384766,4263.077148,4234.230957,4502.179688,4539.743652,4375.897461,4435.256348,2887.0,0.0,11.0,,,,0.0,4.0,4.0,4.0,4.0,4.0,4.0,4.0,4.0,4.0,4.0,4.0,4.0,4.0,4.0,100.0,,,,,,,,,,,,,,,,,,,,,,,,,,,,,,,,,,,,,,,,,,,,,,,,,,,,,,,,,,,,,,,,,,,,,,,,,,,,,,,,,,,,,,,,,,,,,,,,,,,,,,,,,,,,,,,,,,,,,,,,,,,,,,,,,,,
1725717337.711295,1725717337.71208,215.0,0.0,4283.077148,4294.871582,4291.282227,4281.922852,4262.05127,4264.102539,4302.179688,4264.358887,4266.538574,4235.128418,4498.205078,4539.743652,4377.820313,4432.307617,3116.0,0.0,11.0,,,,0.0,4.0,4.0,4.0,4.0,4.0,4.0,4.0,4.0,4.0,4.0,4.0,4.0,4.0,4.0,100.0,,,,,,,,,,,,,,,,,,,,,,,,,,,,,,,,,,,,,,,,,,,,,,,,,,,,,,,,,,,,,,,,,,,,,,,,,,,,,,,,,,,,,,,,,,,,,,,,,,,,,,,,,,,,,,,,,,,,,,,,,,,,,,,,,,,
1725717337.7152,1725717337.716084,216.0,0.0,4274.230957,4291.666504,4285.897461,4275.512695,4256.666504,4259.743652,4296.666504,4262.94873,4263.461426,4233.717773,4482.94873,4535.0,4367.94873,4423.974121,3386.0,0.0,11.0,,,,0.0,4.0,4.0,4.0,4.0,4.0,4.0,4.0,4.0,4.0,4.0,4.0,4.0,4.0,4.0,100.0,,,,,,,,,,,,,,,,,,,,,,,,,,,,,,,,,,,,,,,,,,,,,,,,,,,,,,,,,,,,,,,,,,,,,,,,,,,,,,,,,,,,,,,,,,,,,,,,,,,,,,,,,,,,,,,,,,,,,,,,,,,,,,,,,,,
1725717337.719104,1725717337.719988,217.0,0.0,4265.512695,4283.333496,4276.922852,4267.563965,4246.922852,4254.487305,4289.102539,4255.769043,4253.333496,4227.179688,4461.666504,4524.230957,4347.94873,4411.410156,3847.0,0.0,11.0,,,,0.0,4.0,4.0,4.0,4.0,4.0,4.0,4.0,4.0,4.0,4.0,4.0,4.0,4.0,4.0,100.0,,,,,,,,,,,,,,,,,,,,,,,,,,,,,,,,,,,,,,,,,,,,,,,,,,,,,,,,,,,,,,,,,,,,,,,,,,,,,,,,,,,,,,,,,,,,,,,,,,,,,,,,,,,,,,,,,,,,,,,,,,,,,,,,,,,
1725717337.723008,1725717337.723892,218.0,0.0,4259.487305,4271.794922,4267.820313,4261.025879,4236.282227,4251.153809,4281.666504,4246.410156,4241.282227,4217.436035,4443.974121,4510.897461,4326.666504,4399.102539,2887.0,0.0,11.0,,,,0.0,4.0,4.0,4.0,4.0,4.0,4.0,4.0,4.0,4.0,4.0,4.0,4.0,4.0,4.0,100.0,,,,,,,,,,,,,,,,,,,,,,,,,,,,,,,,,,,,,,,,,,,,,,,,,,,,,,,,,,,,,,,,,,,,,,,,,,,,,,,,,,,,,,,,,,,,,,,,,,,,,,,,,,,,,,,,,,,,,,,,,,,,,,,,,,,
1725717337.726912,1725717337.727796,219.0,0.0,4256.666504,4261.794922,4262.179688,4258.589844,4228.974121,4251.666504,4276.922852,4240.256348,4233.589844,4210.512695,4437.94873,4502.179688,4313.974121,4391.538574,3116.0,0.0,11.0,,,,0.0,4.0,4.0,4.0,4.0,4.0,4.0,4.0,4.0,4.0,4.0,4.0,4.0,4.0,4.0,100.0,,,,,,,,,,,,,,,,,,,,,,,,,,,,,,,,,,,,,,,,,,,,,,,,,,,,,,,,,,,,,,,,,,,,,,,,,,,,,,,,,,,,,,,,,,,,,,,,,,,,,,,,,,,,,,,,,,,,,,,,,,,,,,,,,,,
1725717337.730816,1725717337.7317,220.0,0.0,4256.153809,4258.205078,4262.179688,4261.025879,4227.436035,4256.025879,4275.897461,4240.384766,4233.846191,4210.897461,4444.743652,4503.077148,4313.846191,4391.538574,3386.0,0.0,11.0,,,,0.0,4.0,4.0,4.0,4.0,4.0,4.0,4.0,4.0,4.0,4.0,4.0,4.0,4.0,4.0,100.0,,,,,,,,,,,,,,,,,,,,,,,,,,,,,,,,,,,,,,,,,,,,,,,,,,,,,,,,0.0,0.0,1.0,0.0,1024.0,0.00173,,,,,,,,,,,,,,,,,,,,,,,,,,,,,,,,,,,,,,,,,,,,,,,,,,,,,,,,,,,,,,,,,,,,,,
1725717337.73472,1725717337.735504,221.0,0.0,4257.563965,4263.077148,4267.563965,4267.307617,4231.282227,4262.05127,4279.102539,4246.794922,4241.025879,4219.102539,4458.333496,4514.358887,4323.461426,4398.974121,3847.0,0.0,11.0,,,,0.0,4.0,4.0,4.0,4.0,4.0,4.0,4.0,4.0,4.0,4.0,4.0,4.0,4.0,4.0,100.0,,,,,,,,,,,,,,,,,,,,,,,,,,,,,,,,,,,,,,,,,,,,,,,,,,,,,,,,,,,,,,,,,,,,,,,,,,,,,,,,,,,,,,,,,,,,,,,,,,,,,,,,,,,,,,,,,,,,,,,,,,,,,,,,,,,
1725717337.738624,1725717337.739408,222.0,0.0,4261.538574,4274.743652,4276.794922,4275.128418,4238.461426,4267.05127,4285.256348,4256.666504,4251.025879,4230.512695,4470.512695,4531.410156,4337.179688,4411.794922,2887.0,0.0,11.0,,,,0.0,4.0,4.0,4.0,4.0,4.0,4.0,4.0,4.0,4.0,4.0,4.0,4.0,4.0,4.0,100.0,,,,,,,,,,,,,,,,,,,,,,,,,,,,,,,,,,,,,,,,,,,,,,,,,,,,,,,,,,,,,,,,,,,,,,,,,,,,,,,,,,,,,,,,,,,,,,,,,,,,,,,,,,,,,,,,,,,,,,,,,,,,,,,,,,,
1725717337.742528,1725717337.743312,223.0,0.0,4269.487305,4288.333496,4287.820313,4282.563965,4246.538574,4270.0,4292.94873,4267.05127,4260.256348,4240.0,4476.410156,4548.461426,4350.384766,4426.922852,3116.0,0.0,11.0,,,,0.0,4.0,4.0,4.0,4.0,4.0,4.0,4.0,4.0,4.0,4.0,4.0,4.0,4.0,4.0,100.0,,,,,,,,,,,,,,,,,,,,,,,,,,,,,,,,,,,,,,,,,,,,,,,,,,,,,,,,,,,,,,,,,,,,,,,,,,,,,,,,,,,,,,,,,,,,,,,,,,,,,,,,,,,,,,,,,,,,,,,,,,,,,,,,,,,
1725717337.746432,1725717337.747217,224.0,0.0,4280.641113,4299.615234,4297.94873,4288.974121,4253.717773,4271.666504,4300.256348,4274.871582,4267.436035,4245.0,4477.692383,4561.282227,4362.179688,4441.282227,3386.0,0.0,11.0,,,,0.0,4.0,4.0,4.0,4.0,4.0,4.0,4.0,4.0,4.0,4.0,4.0,4.0,4.0,4.0,100.0,,,,,,,,,,,,,,,,,,,,,,,,,,,,,,,,,,,,,,,,,,,,,,,,,,,,,,,,,,,,,,,,,,,,,,,,,,,,,,,,,,,,,,,,,,,,,,,,,,,,,,,,,,,,,,,,,,,,,,,,,,,,,,,,,,,
1725717337.750337,1725717337.751021,225.0,0.0,4292.563965,4306.794922,4305.256348,4294.615234,4259.358887,4273.846191,4306.025879,4278.077148,4272.94873,4247.692383,4479.615234,4568.461426,4373.974121,4452.307617,3847.0,0.0,11.0,,,,0.0,4.0,4.0,4.0,4.0,4.0,4.0,4.0,4.0,4.0,4.0,4.0,4.0,4.0,4.0,100.0,,,,,,,,,,,,,,,,,,,,,,,,,,,,,,,,,,,,,,,,,,,,,,,,,,,,,,,,,,,,,,,,,,,,,,,,,,,,,,,,,,,,,,,,,,,,,,,,,,,,,,,,,,,,,,,,,,,,,,,,,,,,,,,,,,,
1725717337.754241,1725717337.754925,226.0,0.0,4302.692383,4310.769043,4309.230957,4300.512695,4263.205078,4277.436035,4309.487305,4275.897461,4277.436035,4252.179688,4486.666504,4571.282227,4386.922852,4459.487305,2887.0,0.0,11.0,,,,0.0,4.0,4.0,4.0,4.0,4.0,4.0,4.0,4.0,4.0,4.0,4.0,4.0,4.0,4.0,100.0,,,,,,,,,,,,,,,,,,,,,,,,,,,,,,,,,,,,,,,,,,,,,,,,,,,,,,,,,,,,,,,,,,,,,,,,,,,,,,,,,,,,,,,,,,,,,,,,,,,,,,,,,,,,,,,,,,,,,,,,,,,,,,,,,,,
1725717337.758145,1725717337.758829,227.0,0.0,4309.871582,4314.230957,4311.025879,4306.922852,4265.384766,4281.410156,4311.282227,4269.871582,4280.0,4260.384766,4499.615234,4572.179688,4399.743652,4463.589844,3116.0,0.0,11.0,,,,0.0,4.0,4.0,4.0,4.0,4.0,4.0,4.0,4.0,4.0,4.0,4.0,4.0,4.0,4.0,100.0,,,,,,,,,,,,,,,,,,,,,,,,,,,,,,,,,,,,,,,,,,,,,,,,,,,,,,,,,,,,,,,,,,,,,,,,,,,,,,,,,,,,,,,,,,,,,,,,,,,,,,,,,,,,,,,,,,,,,,,,,,,,,,,,,,,
1725717337.762049,1725717337.762733,228.0,0.0,4313.589844,4317.820313,4311.922852,4312.820313,4266.153809,4283.205078,4312.05127,4263.846191,4279.358887,4269.102539,4513.205078,4573.077148,4408.717773,4466.025879,3386.0,0.0,11.0,,,,0.0,4.0,4.0,4.0,4.0,4.0,4.0,4.0,4.0,4.0,4.0,4.0,4.0,4.0,4.0,100.0,,,,,,,,,,,,,,,,,,,,,,,,,,,,,,,,,,,,,,,,,,,,,,,,,,,,,,,,0.0,0.0,1.0,0.0,1024.0,0.00173,,,,,,,,,,,,,,,,,,,,,,,,,,,,,,,,,,,,,,,,,,,,,,,,,,,,,,,,,,,,,,,,,,,,,,
1725717337.765953,1725717337.766537,229.0,0.0,4314.615234,4320.641113,4312.820313,4316.538574,4266.025879,4281.025879,4312.436035,4261.025879,4275.512695,4272.692383,4520.641113,4574.487305,4410.641113,4467.307617,3847.0,0.0,11.0,,,,0.0,4.0,4.0,4.0,4.0,4.0,4.0,4.0,4.0,4.0,4.0,4.0,4.0,4.0,4.0,100.0,,,,,,,,,,,,,,,,,,,,,,,,,,,,,,,,,,,,,,,,,,,,,,,,,,,,,,,,,,,,,,,,,,,,,,,,,,,,,,,,,,,,,,,,,,,,,,,,,,,,,,,,,,,,,,,,,,,,,,,,,,,,,,,,,,,
1725717337.769857,1725717337.770441,230.0,0.0,4313.589844,4320.641113,4313.333496,4316.666504,4266.025879,4275.769043,4312.820313,4261.922852,4270.512695,4267.692383,4518.717773,4575.0,4405.769043,4467.05127,2887.0,0.0,11.0,,,,0.0,4.0,4.0,4.0,4.0,4.0,4.0,4.0,4.0,4.0,4.0,4.0,4.0,4.0,4.0,100.0,,,,,,,,,,,,,,,,,,,,,,,,,,,,,,,,,,,,,,,,,,,,,,,,,,,,,,,,,,,,,,,,,,,,,,,,,,,,,,,,,,,,,,,,,,,,,,,,,,,,,,,,,,,,,,,,,,,,,,,,,,,,,,,,,,,
1725717337.773761,1725717337.774345,231.0,0.0,4311.025879,4317.179688,4312.307617,4313.974121,4266.282227,4270.0,4312.692383,4263.974121,4267.563965,4257.307617,4510.256348,4572.563965,4396.922852,4464.230957,3116.0,0.0,11.0,,,,0.0,4.0,4.0,4.0,4.0,4.0,4.0,4.0,4.0,4.0,4.0,4.0,4.0,4.0,4.0,100.0,,,,,,,,,,,,,,,,,,,,,,,,,,,,,,,,,,,,,,,,,,,,,,,,,,,,,,,,,,,,,,,,,,,,,,,,,,,,,,,,,,,,,,,,,,,,,,,,,,,,,,,,,,,,,,,,,,,,,,,,,,,,,,,,,,,
1725717337.777665,1725717337.77825,232.0,0.0,4306.794922,4311.282227,4308.846191,4309.102539,4266.410156,4265.512695,4312.05127,4263.333496,4267.307617,4248.717773,4501.025879,4566.282227,4388.205078,4458.846191,3386.0,0.0,11.0,,,,0.0,4.0,4.0,4.0,4.0,4.0,4.0,4.0,4.0,4.0,4.0,4.0,4.0,4.0,4.0,100.0,,,,,,,,,,,,,,,,,,,,,,,,,,,,,,,,,,,,,,,,,,,,,,,,,,,,,,,,,,,,,,,,,,,,,,,,,,,,,,,,,,,,,,,,,,,,,,,,,,,,,,,,,,,,,,,,,,,,,,,,,,,,,,,,,,,
1725717337.781569,1725717337.782054,233.0,0.0,4301.666504,4305.641113,4302.94873,4303.077148,4265.897461,4262.563965,4310.897461,4258.461426,4267.436035,4246.794922,4495.641113,4556.410156,4382.307617,4452.179688,3847.0,0.0,11.0,,,,0.0,4.0,4.0,4.0,4.0,4.0,4.0,4.0,4.0,4.0,4.0,4.0,4.0,4.0,4.0,100.0,,,,,,,,,,,,,,,,,,,,,,,,,,,,,,,,,,,,,,,,,,,,,,,,,,,,,,,,,,,,,,,,,,,,,,,,,,,,,,,,,,,,,,,,,,,,,,,,,,,,,,,,,,,,,,,,,,,,,,,,,,,,,,,,,,,
1725717337.785473,1725717337.785958,234.0,0.0,4296.922852,4302.436035,4296.410156,4297.179688,4264.743652,4260.897461,4309.358887,4251.282227,4265.897461,4251.153809,4494.230957,4546.025879,4379.871582,4446.025879,2887.0,0.0,11.0,,,,0.0,4.0,4.0,4.0,4.0,4.0,4.0,4.0,4.0,4.0,4.0,4.0,4.0,4.0,4.0,100.0,,,,,,,,,,,,,,,,,,,,,,,,,,,,,,,,,,,,,,,,,,,,,,,,,,,,,,,,,,,,,,,,,,,,,,,,,,,,,,,,,,,,,,,,,,,,,,,,,,,,,,,,,,,,,,,,,,,,,,,,,,,,,,,,,,,
1725717337.789378,1725717337.789862,235.0,0.0,4294.743652,4302.563965,4291.922852,4292.820313,4263.589844,4260.897461,4308.077148,4245.897461,4263.205078,4257.05127,4494.358887,4538.333496,4379.743652,4441.666504,3116.0,0.0,11.0,,,,0.0,4.0,4.0,4.0,4.0,4.0,4.0,4.0,4.0,4.0,4.0,4.0,4.0,4.0,4.0,100.0,,,,,,,,,,,,,,,,,,,,,,,,,,,,,,,,,,,,,,,,,,,,,,,,,,,,,,,,,,,,,,,,,,,,,,,,,,,,,,,,,,,,,,,,,,,,,,,,,,,,,,,,,,,,,,,,,,,,,,,,,,,,,,,,,,,
1725717337.793282,1725717337.793866,236.0,0.0,4294.743652,4304.487305,4291.025879,4291.025879,4263.333496,4262.692383,4308.205078,4244.743652,4261.794922,4259.871582,4493.333496,4536.025879,4379.743652,4439.615234,3386.0,0.0,11.0,,,,0.0,4.0,4.0,4.0,4.0,4.0,4.0,4.0,4.0,4.0,4.0,4.0,4.0,4.0,4.0,100.0,,,,,,,,,,,,,,,,,,,,,,,,,,,,,,,,,,,,,,,,,,,,,,,,,,,,,,,,0.0,0.0,1.0,0.0,1024.0,0.00173,,,,,,,,,,,,,,,,,,,,,,,,,,,,,,,,,,,,,,,,,,,,,,,,,,,,,,,,,,,,,,,,,,,,,,
1725717337.797186,1725717337.79777,237.0,0.0,4294.871582,4305.641113,4292.94873,4291.410156,4264.102539,4265.0,4309.743652,4247.05127,4262.563965,4258.077148,4490.0,4537.94873,4377.436035,4438.333496,3847.0,0.0,11.0,,,,0.0,4.0,4.0,4.0,4.0,4.0,4.0,4.0,4.0,4.0,4.0,4.0,4.0,4.0,4.0,100.0,,,,,,,,,,,,,,,,,,,,,,,,,,,,,,,,,,,,,,,,,,,,,,,,,,,,,,,,,,,,,,,,,,,,,,,,,,,,,,,,,,,,,,,,,,,,,,,,,,,,,,,,,,,,,,,,,,,,,,,,,,,,,,,,,,,
1725717337.80109,1725717337.801674,238.0,0.0,4292.692383,4304.230957,4295.0,4292.563965,4265.512695,4265.641113,4311.282227,4249.615234,4263.589844,4253.461426,4484.358887,4540.512695,4371.794922,4435.641113,2887.0,0.0,11.0,,,,0.0,4.0,4.0,4.0,4.0,4.0,4.0,4.0,4.0,4.0,4.0,4.0,4.0,4.0,4.0,100.0,,,,,,,,,,,,,,,,,,,,,,,,,,,,,,,,,,,,,,,,,,,,,,,,,,,,,,,,,,,,,,,,,,,,,,,,,,,,,,,,,,,,,,,,,,,,,,,,,,,,,,,,,,,,,,,,,,,,,,,,,,,,,,,,,,,
1725717337.804994,1725717337.805578,239.0,0.0,4288.077148,4300.384766,4294.615234,4293.077148,4266.025879,4263.077148,4311.153809,4249.615234,4262.05127,4248.717773,4477.692383,4540.384766,4364.743652,4430.641113,3116.0,0.0,11.0,,,,0.0,4.0,4.0,4.0,4.0,4.0,4.0,4.0,4.0,4.0,4.0,4.0,4.0,4.0,4.0,100.0,,,,,,,,,,,,,,,,,,,,,,,,,,,,,,,,,,,,,,,,,,,,,,,,,,,,,,,,,,,,,,,,,,,,,,,,,,,,,,,,,,,,,,,,,,,,,,,,,,,,,,,,,,,,,,,,,,,,,,,,,,,,,,,,,,,
1725717337.808898,1725717337.809582,240.0,0.0,4283.461426,4295.769043,4291.922852,4292.692383,4265.128418,4257.692383,4308.205078,4247.05127,4257.307617,4245.128418,4471.922852,4537.436035,4359.743652,4425.769043,3386.0,0.0,11.0,,,,0.0,4.0,4.0,4.0,4.0,4.0,4.0,4.0,4.0,4.0,4.0,4.0,4.0,4.0,4.0,100.0,,,,,,,,,,,,,,,,,,,,,,,,,,,,,,,,,,,,,,,,,,,,,,,,,,,,,,,,,,,,,,,,,,,,,,,,,,,,,,,,,,,,,,,,,,,,,,,,,,,,,,,,,,,,,,,,,,,,,,,,,,,,,,,,,,,
1725717337.812802,1725717337.813486,241.0,0.0,4281.794922,4293.077148,4289.358887,4292.436035,4263.461426,4251.794922,4303.077148,4244.230957,4251.538574,4242.436035,4468.589844,4534.102539,4359.487305,4424.615234,3847.0,0.0,11.0,,,,0.0,4.0,4.0,4.0,4.0,4.0,4.0,4.0,4.0,4.0,4.0,4.0,4.0,4.0,4.0,100.0,,,,,,,,,,,,,,,,,,,,,,,,,,,,,,,,,,,,,,,,,,,,,,,,,,,,,,,,,,,,,,,,,,,,,,,,,,,,,,,,,,,,,,,,,,,,,,,,,,,,,,,,,,,,,,,,,,,,,,,,,,,,,,,,,,,
1725717337.816706,1725717337.81739,242.0,0.0,4284.230957,4293.717773,4288.974121,4292.820313,4262.436035,4248.077148,4298.077148,4243.717773,4248.589844,4240.512695,4469.358887,4533.205078,4363.846191,4428.461426,2887.0,0.0,11.0,,,,0.0,4.0,4.0,4.0,4.0,4.0,4.0,4.0,4.0,4.0,4.0,4.0,4.0,4.0,4.0,100.0,,,,,,,,,,,,,,,,,,,,,,,,,,,,,,,,,,,,,,,,,,,,,,,,,,,,,,,,,,,,,,,,,,,,,,,,,,,,,,,,,,,,,,,,,,,,,,,,,,,,,,,,,,,,,,,,,,,,,,,,,,,,,,,,,,,
1725717337.82061,1725717337.821394,243.0,0.0,4288.974121,4297.436035,4290.641113,4293.717773,4262.179688,4248.589844,4295.256348,4245.897461,4250.512695,4240.384766,4473.974121,4535.512695,4369.230957,4435.128418,3116.0,0.0,11.0,,,,0.0,4.0,4.0,4.0,4.0,4.0,4.0,4.0,4.0,4.0,4.0,4.0,4.0,4.0,4.0,100.0,,,,,,,,,,,,,,,,,,,,,,,,,,,,,,,,,,,,,,,,,,,,,,,,,,,,,,,,,,,,,,,,,,,,,,,,,,,,,,,,,,,,,,,,,,,,,,,,,,,,,,,,,,,,,,,,,,,,,,,,,,,,,,,,,,,
1725717337.824515,1725717337.825299,244.0,0.0,4292.94873,4302.436035,4292.94873,4294.487305,4262.820313,4252.692383,4295.0,4249.358887,4256.794922,4243.077148,4480.897461,4540.384766,4372.563965,4440.769043,3386.0,0.0,11.0,,,,0.0,4.0,4.0,4.0,4.0,4.0,4.0,4.0,4.0,4.0,4.0,4.0,4.0,4.0,4.0,100.0,,,,,,,,,,,,,,,,,1.0,0.0,0.0,,,,,,,,,,,,,,,,,,,,,,,,,,,,,,,,,,,,,0.0,0.0,1.0,0.0,1024.0,0.015947,3.866876,3.538783,0.999482,0.332729,0.177756,31.943459,20.846373,7.392509,1.714005,0.747394,3.362847,2.377429,0.744213,0.290068,0.159967,1.653355,1.518197,0.499815,0.235908,0.104929,0.750202,0.409783,0.424136,0.129298,0.065963,2.662734,0.35684,0.550631,0.209478,0.088389,16.928162,2.61561,1.633378,0.333171,0.133389,1.108922,3.708435,0.81114,0.744633,0.240053,1.567261,3.447504,0.758969,0.549729,0.193987,2.942003,4.571571,1.251012,0.875942,0.285963,2.768342,8.665711,1.98111,0.999285,0.532018,4.850811,9.339312,1.503234,0.800937,0.328398,3.020731,6.915528,1.816392,0.915922,0.349198,3.126704,6.852169,1.414719,0.481914,0.196426
1725717337.828419,1725717337.829203,245.0,0.0,4294.615234,4307.05127,4294.615234,4294.871582,4264.102539,4258.077148,4296.666504,4251.794922,4263.974121,4249.102539,4487.692383,4546.282227,4373.461426,4443.077148,3847.0,0.0,11.0,,,,0.0,4.0,4.0,4.0,4.0,4.0,4.0,4.0,4.0,4.0,4.0,4.0,4.0,4.0,4.0,100.0,,,,,,,,,,,,,,,,,,,,,,,,,,,,,,,,,,,,,,,,,,,,,,,,,,,,,,,,,,,,,,,,,,,,,,,,,,,,,,,,,,,,,,,,,,,,,,,,,,,,,,,,,,,,,,,,,,,,,,,,,,,,,,,,,,,
1725717337.832323,1725717337.833107,246.0,0.0,4294.743652,4309.871582,4295.897461,4295.769043,4265.641113,4262.179688,4298.333496,4252.05127,4268.205078,4256.282227,4492.307617,4551.922852,4373.333496,4443.077148,2887.0,0.0,11.0,,,,0.0,4.0,4.0,4.0,4.0,4.0,4.0,4.0,4.0,4.0,4.0,4.0,4.0,4.0,4.0,100.0,,,,,,,,,,,,,,,,,,,,,,,,,,,,,,,,,,,,,,,,,,,,,,,,,,,,,,,,,,,,,,,,,,,,,,,,,,,,,,,,,,,,,,,,,,,,,,,,,,,,,,,,,,,,,,,,,,,,,,,,,,,,,,,,,,,
1725717337.836227,1725717337.837011,247.0,0.0,4295.256348,4310.897461,4297.563965,4298.333496,4267.179688,4263.846191,4298.717773,4250.384766,4267.94873,4260.769043,4494.230957,4555.384766,4373.589844,4443.077148,3116.0,0.0,11.0,,,,0.0,4.0,4.0,4.0,4.0,4.0,4.0,4.0,4.0,4.0,4.0,4.0,4.0,4.0,4.0,100.0,,,,,,,,,,,,,,,,,,,,,,,,,,,,,,,,,,,,,,,,,,,,,,,,,,,,,,,,,,,,,,,,,,,,,,,,,,,,,,,,,,,,,,,,,,,,,,,,,,,,,,,,,,,,,,,,,,,,,,,,,,,,,,,,,,,
1725717337.840131,1725717337.840815,248.0,0.0,4296.794922,4310.641113,4299.358887,4302.307617,4267.820313,4263.589844,4297.692383,4248.589844,4265.128418,4260.0,4493.974121,4554.871582,4374.487305,4444.615234,3386.0,0.0,11.0,,,,0.0,4.0,4.0,4.0,4.0,4.0,4.0,4.0,4.0,4.0,4.0,4.0,4.0,4.0,4.0,100.0,,,,,,,,,,,,,,,,,,,,,,,,,,,,,,,,,,,,,,,,,,,,,,,,,,,,,,,,,,,,,,,,,,,,,,,,,,,,,,,,,,,,,,,,,,,,,,,,,,,,,,,,,,,,,,,,,,,,,,,,,,,,,,,,,,,
1725717337.844035,1725717337.844719,249.0,0.0,4297.94873,4309.615234,4300.641113,4306.025879,4267.307617,4262.820313,4296.025879,4248.077148,4262.94873,4255.384766,4492.307617,4551.025879,4376.025879,4447.05127,3847.0,0.0,11.0,,,,0.0,4.0,4.0,4.0,4.0,4.0,4.0,4.0,4.0,4.0,4.0,4.0,4.0,4.0,4.0,100.0,,,,,,,,,,,,,,,,,,,,,,,,,,,,,,,,,,,,,,,,,,,,,,,,,,,,,,,,,,,,,,,,,,,,,,,,,,,,,,,,,,,,,,,,,,,,,,,,,,,,,,,,,,,,,,,,,,,,,,,,,,,,,,,,,,,
1725717337.847939,1725717337.848623,250.0,0.0,4297.05127,4307.94873,4300.256348,4307.307617,4266.025879,4262.179688,4294.871582,4248.846191,4262.820313,4250.897461,4489.871582,4545.769043,4377.307617,4447.94873,2887.0,0.0,11.0,,,,0.0,4.0,4.0,4.0,4.0,4.0,4.0,4.0,4.0,4.0,4.0,4.0,4.0,4.0,4.0,100.0,,,,,,,,,,,,,,,,,,,,,,,,,,,,,,,,,,,,,,,,,,,,,,,,,,,,,,,,,,,,,,,,,,,,,,,,,,,,,,,,,,,,,,,,,,,,,,,,,,,,,,,,,,,,,,,,,,,,,,,,,,,,,,,,,,,
1725717337.851843,1725717337.852527,251.0,0.0,4293.589844,4305.128418,4298.461426,4305.256348,4264.487305,4260.769043,4294.871582,4249.615234,4263.461426,4249.871582,4487.05127,4541.282227,4377.179688,4445.641113,3116.0,0.0,11.0,,,,0.0,4.0,4.0,4.0,4.0,4.0,4.0,4.0,4.0,4.0,4.0,4.0,4.0,4.0,4.0,100.0,,,,,,,,,,,,,,,,,,,,,,,,,,,,,,,,,,,,,,,,,,,,,,,,,,,,,,,,,,,,,,,,,,,,,,,,,,,,,,,,,,,,,,,,,,,,,,,,,,,,,,,,,,,,,,,,,,,,,,,,,,,,,,,,,,,
1725717337.855747,1725717337.856332,252.0,0.0,4288.589844,4301.538574,4296.025879,4300.384766,4263.589844,4257.692383,4295.384766,4248.077148,4261.666504,4251.153809,4483.205078,4538.333496,4374.358887,4440.384766,3386.0,0.0,11.0,,,,0.0,4.0,4.0,4.0,4.0,4.0,4.0,4.0,4.0,4.0,4.0,4.0,4.0,4.0,4.0,100.0,,,,,,,,,,,,,,,,,,,,,,,,,,,,,,,,,,,,,,,,,,,,,,,,,,,,,,,,0.0,0.0,1.0,0.0,1024.0,0.015947,,,,,,,,,,,,,,,,,,,,,,,,,,,,,,,,,,,,,,,,,,,,,,,,,,,,,,,,,,,,,,,,,,,,,,
1725717337.859651,1725717337.860236,253.0,0.0,4283.846191,4297.94873,4294.102539,4295.128418,4263.205078,4253.461426,4295.128418,4243.333496,4256.282227,4251.666504,4478.077148,4536.410156,4369.615234,4434.743652,3847.0,0.0,11.0,,,,0.0,4.0,4.0,4.0,4.0,4.0,4.0,4.0,4.0,4.0,4.0,4.0,4.0,4.0,4.0,100.0,,,,,,,,,,,,,,,,,,,,,,,,,,,,,,,,,,,,,,,,,,,,,,,,,,,,,,,,,,,,,,,,,,,,,,,,,,,,,,,,,,,,,,,,,,,,,,,,,,,,,,,,,,,,,,,,,,,,,,,,,,,,,,,,,,,
1725717337.863556,1725717337.86414,254.0,0.0,4281.794922,4296.153809,4293.589844,4292.179688,4262.94873,4249.615234,4294.102539,4237.436035,4249.358887,4249.615234,4473.333496,4535.512695,4365.641113,4432.05127,2887.0,0.0,11.0,,,,0.0,4.0,4.0,4.0,4.0,4.0,4.0,4.0,4.0,4.0,4.0,4.0,4.0,4.0,4.0,100.0,,,,,,,,,,,,,,,,,,,,,,,,,,,,,,,,,,,,,,,,,,,,,,,,,,,,,,,,,,,,,,,,,,,,,,,,,,,,,,,,,,,,,,,,,,,,,,,,,,,,,,,,,,,,,,,,,,,,,,,,,,,,,,,,,,,
1725717337.86746,1725717337.868144,255.0,0.0,4282.820313,4296.666504,4294.743652,4292.692383,4262.692383,4247.692383,4293.205078,4233.846191,4245.256348,4246.282227,4472.05127,4536.282227,4365.384766,4434.102539,11.0,0.0,11.0,,,,0.0,4.0,4.0,4.0,4.0,4.0,4.0,4.0,4.0,4.0,4.0,4.0,4.0,4.0,4.0,100.0,,,,,,,,,,,,,,,,,,,,,,,,,,,,,,,,,,,,,,,,,,,,,,,,,,,,,,,,,,,,,,,,,,,,,,,,,,,,,,,,,,,,,,,,,,,,,,,,,,,,,,,,,,,,,,,,,,,,,,,,,,,,,,,,,,,
1725717337.871364,1725717337.872048,0.0,0.0,4285.769043,4299.487305,4296.666504,4295.0,4262.307617,4248.205078,4293.846191,4235.641113,4246.153809,4245.128418,4476.282227,4538.717773,4368.717773,4440.128418,2690.0,0.0,11.0,,,,0.0,4.0,4.0,4.0,4.0,4.0,4.0,4.0,4.0,4.0,4.0,4.0,4.0,4.0,4.0,100.0,,,,,,,,,,,,,,,,,,,,,,,,,,,,,,,,,,,,,,,,,,,,,,,,,,,,,,,,,,,,,,,,,,,,,,,,,,,,,,,,,,,,,,,,,,,,,,,,,,,,,,,,,,,,,,,,,,,,,,,,,,,,,,,,,,,
1725717337.875268,1725717337.875952,1.0,0.0,4288.589844,4302.94873,4298.333496,4296.666504,4262.05127,4250.0,4295.128418,4241.922852,4250.641113,4246.922852,4483.846191,4542.05127,4373.205078,4446.282227,2571.0,0.0,11.0,,,,0.0,4.0,4.0,4.0,4.0,4.0,4.0,4.0,4.0,4.0,4.0,4.0,4.0,4.0,4.0,100.0,,,,,,,,,,,,,,,,,,,,,,,,,,,,,,,,,,,,,,,,,,,,,,,,,,,,,,,,,,,,,,,,,,,,,,,,,,,,,,,,,,,,,,,,,,,,,,,,,,,,,,,,,,,,,,,,,,,,,,,,,,,,,,,,,,,
1725717337.879172,1725717337.879856,2.0,0.0,4289.358887,4305.384766,4298.589844,4295.641113,4262.307617,4251.410156,4294.871582,4248.461426,4254.743652,4250.128418,4490.0,4544.615234,4375.128418,4448.589844,2503.0,0.0,11.0,,,,0.0,4.0,4.0,4.0,4.0,4.0,4.0,4.0,4.0,4.0,4.0,4.0,4.0,4.0,4.0,100.0,,,,,,,,,,,,,,,,,,,,,,,,,,,,,,,,,,,,,,,,,,,,,,,,,,,,,,,,,,,,,,,,,,,,,,,,,,,,,,,,,,,,,,,,,,,,,,,,,,,,,,,,,,,,,,,,,,,,,,,,,,,,,,,,,,,
1725717337.883076,1725717337.88376,3.0,0.0,4287.307617,4305.641113,4297.179688,4292.05127,4262.94873,4251.538574,4291.922852,4250.769043,4255.641113,4251.794922,4490.769043,4545.512695,4373.333496,4445.769043,2454.0,0.0,11.0,,,,0.0,4.0,4.0,4.0,4.0,4.0,4.0,4.0,4.0,4.0,4.0,4.0,4.0,4.0,4.0,100.0,,,,,,,,,,,,,,,,,,,,,,,,,,,,,,,,,,,,,,,,,,,,,,,,,,,,,,,,,,,,,,,,,,,,,,,,,,,,,,,,,,,,,,,,,,,,,,,,,,,,,,,,,,,,,,,,,,,,,,,,,,,,,,,,,,,
1725717337.88698,1725717337.887564,4.0,0.0,4283.717773,4303.589844,4295.0,4287.179688,4263.461426,4250.641113,4287.307617,4247.307617,4252.94873,4250.897461,4485.641113,4544.615234,4369.230957,4439.487305,2433.0,0.0,11.0,,,,0.0,4.0,4.0,4.0,4.0,4.0,4.0,4.0,4.0,4.0,4.0,4.0,4.0,4.0,4.0,100.0,,,,,,,,,,,,,,,,,,,,,,,,,,,,,,,,,,,,,,,,,,,,,,,,,,,,,,,,0.0,0.0,1.0,0.0,1024.0,0.015947,,,,,,,,,,,,,,,,,,,,,,,,,,,,,,,,,,,,,,,,,,,,,,,,,,,,,,,,,,,,,,,,,,,,,,
1725717337.890884,1725717337.891469,5.0,0.0,4281.025879,4300.128418,4293.077148,4282.692383,4263.461426,4249.615234,4283.461426,4240.256348,4248.589844,4248.717773,4478.205078,4542.436035,4365.641113,4433.333496,2399.0,0.0,11.0,,,,0.0,4.0,4.0,4.0,4.0,4.0,4.0,4.0,4.0,4.0,4.0,4.0,4.0,4.0,4.0,100.0,,,,,,,,,,,,,,,,,,,,,,,,,,,,,,,,,,,,,,,,,,,,,,,,,,,,,,,,,,,,,,,,,,,,,,,,,,,,,,,,,,,,,,,,,,,,,,,,,,,,,,,,,,,,,,,,,,,,,,,,,,,,,,,,,,,
1725717337.894788,1725717337.895373,6.0,0.0,4280.641113,4297.436035,4292.94873,4280.256348,4263.077148,4248.846191,4282.563965,4233.974121,4245.512695,4246.666504,4472.820313,4539.102539,4364.615234,4430.0,2449.0,0.0,11.0,,,,0.0,4.0,4.0,4.0,4.0,4.0,4.0,4.0,4.0,4.0,4.0,4.0,4.0,4.0,4.0,100.0,,,,,,,,,,,,,,,,,,,,,,,,,,,,,,,,,,,,,,,,,,,,,,,,,,,,,,,,,,,,,,,,,,,,,,,,,,,,,,,,,,,,,,,,,,,,,,,,,,,,,,,,,,,,,,,,,,,,,,,,,,,,,,,,,,,
1725717337.898692,1725717337.899377,7.0,0.0,4281.922852,4296.794922,4294.358887,4280.256348,4263.333496,4248.461426,4284.358887,4231.538574,4245.256348,4245.769043,4471.922852,4535.384766,4365.769043,4430.128418,2471.0,0.0,11.0,,,,0.0,4.0,4.0,4.0,4.0,4.0,4.0,4.0,4.0,4.0,4.0,4.0,4.0,4.0,4.0,100.0,,,,,,,,,,,,,,,,,,,,,,,,,,,,,,,,,,,,,,,,,,,,,,,,,,,,,,,,,,,,,,,,,,,,,,,,,,,,,,,,,,,,,,,,,,,,,,,,,,,,,,,,,,,,,,,,,,,,,,,,,,,,,,,,,,,
1725717337.902596,1725717337.903281,8.0,0.0,4281.922852,4297.436035,4296.282227,4281.666504,4264.615234,4248.333496,4286.538574,4233.333496,4247.05127,4245.128418,4475.128418,4531.282227,4366.538574,4431.538574,2454.0,0.0,11.0,,,,0.0,4.0,4.0,4.0,4.0,4.0,4.0,4.0,4.0,4.0,4.0,4.0,4.0,4.0,4.0,100.0,,,,,,,,,,,,,,,,,,,,,,,,,,,,,,,,,,,,,,,,,,,,,,,,,,,,,,,,,,,,,,,,,,,,,,,,,,,,,,,,,,,,,,,,,,,,,,,,,,,,,,,,,,,,,,,,,,,,,,,,,,,,,,,,,,,
1725717337.9065,1725717337.907185,9.0,0.0,4278.846191,4297.692383,4296.538574,4282.436035,4266.538574,4248.333496,4286.794922,4236.410156,4248.461426,4243.717773,4479.615234,4527.05127,4364.487305,4431.410156,2545.0,0.0,11.0,,,,0.0,4.0,4.0,4.0,4.0,4.0,4.0,4.0,4.0,4.0,4.0,4.0,4.0,4.0,4.0,100.0,,,,,,,,,,,,,,,,,,,,,,,,,,,,,,,,,,,,,,,,,,,,,,,,,,,,,,,,,,,,,,,,,,,,,,,,,,,,,,,,,,,,,,,,,,,,,,,,,,,,,,,,,,,,,,,,,,,,,,,,,,,,,,,,,,,
1725717337.910405,1725717337.911089,10.0,0.0,4273.333496,4295.897461,4293.589844,4281.153809,4267.307617,4248.461426,4284.487305,4237.436035,4247.94873,4241.282227,4482.436035,4523.461426,4359.358887,4428.717773,2880.0,0.0,11.0,,,,0.0,4.0,4.0,4.0,4.0,4.0,4.0,4.0,4.0,4.0,4.0,4.0,4.0,4.0,4.0,100.0,,,,,,,,,,,,,,,,,,,,,,,,,,,,,,,,,,,,,,,,,,,,,,,,,,,,,,,,,,,,,,,,,,,,,,,,,,,,,,,,,,,,,,,,,,,,,,,,,,,,,,,,,,,,,,,,,,,,,,,,,,,,,,,,,,,
1725717337.914309,1725717337.915093,11.0,0.0,4268.205078,4292.179688,4288.205078,4277.436035,4265.512695,4248.077148,4281.153809,4234.487305,4244.871582,4238.205078,4481.025879,4521.794922,4352.94873,4424.102539,3112.0,0.0,11.0,,,,0.0,4.0,4.0,4.0,4.0,4.0,4.0,4.0,4.0,4.0,4.0,4.0,4.0,4.0,4.0,100.0,,,,,,,,,,,,,,,,,,,,,,,,,,,,,,,,,,,,,,,,,,,,,,,,,,,,,,,,,,,,,,,,,,,,,,,,,,,,,,,,,,,,,,,,,,,,,,,,,,,,,,,,,,,,,,,,,,,,,,,,,,,,,,,,,,,
1725717337.918213,1725717337.918997,12.0,0.0,4265.897461,4287.563965,4282.820313,4272.563965,4261.153809,4246.153809,4278.717773,4228.589844,4239.743652,4234.487305,4474.230957,4521.282227,4347.563965,4418.589844,3395.0,0.0,11.0,,,,0.0,4.0,4.0,4.0,4.0,4.0,4.0,4.0,4.0,4.0,4.0,4.0,4.0,4.0,4.0,100.0,,,,,,,,,,,,,,,,,,,,,,,,,,,,,,,,,,,,,,,,,,,,,,,,,,,,,,,,0.0,0.0,1.0,0.0,1024.0,0.015947,,,,,,,,,,,,,,,,,,,,,,,,,,,,,,,,,,,,,,,,,,,,,,,,,,,,,,,,,,,,,,,,,,,,,,
1725717337.922117,1725717337.922901,13.0,0.0,4265.769043,4283.333496,4279.487305,4267.820313,4255.897461,4242.179688,4278.077148,4222.307617,4233.461426,4229.871582,4463.846191,4519.230957,4343.846191,4412.94873,3844.0,0.0,11.0,,,,0.0,4.0,4.0,4.0,4.0,4.0,4.0,4.0,4.0,4.0,4.0,4.0,4.0,4.0,4.0,100.0,,,,,,,,,,,,,,,,,,,,,,,,,,,,,,,,,,,,,,,,,,,,,,,,,,,,,,,,,,,,,,,,,,,,,,,,,,,,,,,,,,,,,,,,,,,,,,,,,,,,,,,,,,,,,,,,,,,,,,,,,,,,,,,,,,,
1725717337.926021,1725717337.926905,14.0,0.0,4265.641113,4279.743652,4278.717773,4263.846191,4251.922852,4237.307617,4278.589844,4217.436035,4227.94873,4224.230957,4453.589844,4512.94873,4340.769043,4407.179688,2880.0,0.0,11.0,,,,0.0,4.0,4.0,4.0,4.0,4.0,4.0,4.0,4.0,4.0,4.0,4.0,4.0,4.0,4.0,100.0,,,,,,,,,,,,,,,,,,,,,,,,,,,,,,,,,,,,,,,,,,,,,,,,,,,,,,,,,,,,,,,,,,,,,,,,,,,,,,,,,,,,,,,,,,,,,,,,,,,,,,,,,,,,,,,,,,,,,,,,,,,,,,,,,,,
1725717337.929925,1725717337.930809,15.0,0.0,4263.077148,4276.538574,4278.589844,4260.769043,4250.256348,4233.333496,4278.717773,4215.384766,4225.128418,4218.846191,4446.282227,4503.333496,4337.563965,4402.05127,3112.0,0.0,11.0,,,,0.0,4.0,4.0,4.0,4.0,4.0,4.0,4.0,4.0,4.0,4.0,4.0,4.0,4.0,4.0,100.0,,,,,,,,,,,,,,,,,,,,,,,,,,,,,,,,,,,,,,,,,,,,,,,,,,,,,,,,,,,,,,,,,,,,,,,,,,,,,,,,,,,,,,,,,,,,,,,,,,,,,,,,,,,,,,,,,,,,,,,,,,,,,,,,,,,
1725717337.933829,1725717337.934713,16.0,0.0,4257.436035,4273.974121,4276.666504,4257.692383,4250.384766,4231.794922,4277.692383,4216.794922,4225.256348,4215.897461,4441.282227,4495.0,4334.102539,4398.589844,3395.0,0.0,11.0,,,,0.0,4.0,4.0,4.0,4.0,4.0,4.0,4.0,4.0,4.0,4.0,4.0,4.0,4.0,4.0,100.0,,,,,,,,,,,,,,,,,,,,,,,,,,,,,,,,,,,,,,,,,,,,,,,,,,,,,,,,,,,,,,,,,,,,,,,,,,,,,,,,,,,,,,,,,,,,,,,,,,,,,,,,,,,,,,,,,,,,,,,,,,,,,,,,,,,
1725717337.937733,1725717337.938618,17.0,0.0,4250.641113,4272.94873,4272.692383,4254.358887,4251.025879,4232.436035,4276.282227,4219.871582,4226.794922,4215.897461,4435.384766,4493.077148,4330.512695,4397.05127,3844.0,0.0,11.0,,,,0.0,4.0,4.0,4.0,4.0,4.0,4.0,4.0,4.0,4.0,4.0,4.0,4.0,4.0,4.0,100.0,,,,,,,,,,,,,,,,,,,,,,,,,,,,,,,,,,,,,,,,,,,,,,,,,,,,,,,,,,,,,,,,,,,,,,,,,,,,,,,,,,,,,,,,,,,,,,,,,,,,,,,,,,,,,,,,,,,,,,,,,,,,,,,,,,,
1725717337.941637,1725717337.942522,18.0,0.0,4246.282227,4273.589844,4267.94873,4250.897461,4250.897461,4234.487305,4276.025879,4221.666504,4226.794922,4216.922852,4426.025879,4497.820313,4326.538574,4396.153809,2880.0,0.0,11.0,,,,0.0,4.0,4.0,4.0,4.0,4.0,4.0,4.0,4.0,4.0,4.0,4.0,4.0,4.0,4.0,100.0,,,,,,,,,,,,,,,,,,,,,,,,,,,,,,,,,,,,,,,,,,,,,,,,,,,,,,,,,,,,,,,,,,,,,,,,,,,,,,,,,,,,,,,,,,,,,,,,,,,,,,,,,,,,,,,,,,,,,,,,,,,,,,,,,,,
1725717337.945542,1725717337.946326,19.0,0.0,4246.025879,4274.871582,4264.743652,4248.461426,4249.615234,4236.153809,4277.179688,4220.256348,4223.717773,4215.897461,4414.743652,4504.102539,4322.05127,4394.871582,3112.0,0.0,11.0,,,,0.0,4.0,4.0,4.0,4.0,4.0,4.0,4.0,4.0,4.0,4.0,4.0,4.0,4.0,4.0,100.0,,,,,,,,,,,,,,,,,,,,,,,,,,,,,,,,,,,,,,,,,,,,,,,,,,,,,,,,,,,,,,,,,,,,,,,,,,,,,,,,,,,,,,,,,,,,,,,,,,,,,,,,,,,,,,,,,,,,,,,,,,,,,,,,,,,
1725717337.949446,1725717337.95023,20.0,0.0,4248.461426,4275.0,4263.846191,4248.205078,4247.820313,4236.666504,4278.846191,4216.794922,4218.974121,4211.410156,4406.410156,4505.256348,4317.436035,4392.692383,3395.0,0.0,11.0,,,,0.0,4.0,4.0,4.0,4.0,4.0,4.0,4.0,4.0,4.0,4.0,4.0,4.0,4.0,4.0,100.0,,,,,,,,,,,,,,,,,1.0,0.0,0.0,,,,,,,,,,,,,,,,,,,,,,,,,,,,,,,,,,,,,0.0,0.0,1.0,0.0,1024.0,0.107313,3.408856,3.142856,0.793392,0.301957,0.166716,31.78829,19.947386,7.171181,1.701957,0.751767,3.314875,2.093966,0.686869,0.265878,0.15164,1.648128,1.395833,0.457927,0.216229,0.103452,0.793475,0.370755,0.407109,0.123461,0.062798,2.635936,0.329376,0.466368,0.196472,0.083131,17.027147,2.667154,1.57453,0.358033,0.126965,1.107938,3.445043,0.742367,0.710479,0.24472,1.492692,3.137449,0.650298,0.506851,0.180073,2.701491,3.986534,1.132155,0.811906,0.275902,2.606795,7.785025,1.903712,0.991928,0.499383,4.676703,8.555651,1.426464,0.805483,0.323789,2.813853,6.217071,1.730263,0.920944,0.370769,3.028271,6.180648,1.351001,0.475647,0.189909
1725717337.95335,1725717337.954134,21.0,0.0,4250.769043,4272.94873,4264.615234,4249.871582,4246.025879,4235.897461,4279.615234,4215.384766,4216.538574,4205.641113,4406.153809,4499.871582,4314.615234,4390.512695,3844.0,0.0,11.0,,,,0.0,4.0,4.0,4.0,4.0,4.0,4.0,4.0,4.0,4.0,4.0,4.0,4.0,4.0,4.0,100.0,,,,,,,,,,,,,,,,,,,,,,,,,,,,,,,,,,,,,,,,,,,,,,,,,,,,,,,,,,,,,,,,,,,,,,,,,,,,,,,,,,,,,,,,,,,,,,,,,,,,,,,,,,,,,,,,,,,,,,,,,,,,,,,,,,,
1725717337.957254,1725717337.958038,22.0,0.0,4251.538574,4269.358887,4265.512695,4252.05127,4245.384766,4234.743652,4279.102539,4219.102539,4219.615234,4202.692383,4414.871582,4492.563965,4316.025879,4390.128418,2880.0,0.0,11.0,,,,0.0,4.0,4.0,4.0,4.0,4.0,4.0,4.0,4.0,4.0,4.0,4.0,4.0,4.0,4.0,100.0,,,,,,,,,,,,,,,,,,,,,,,,,,,,,,,,,,,,,,,,,,,,,,,,,,,,,,,,,,,,,,,,,,,,,,,,,,,,,,,,,,,,,,,,,,,,,,,,,,,,,,,,,,,,,,,,,,,,,,,,,,,,,,,,,,,
1725717337.961158,1725717337.961842,23.0,0.0,4251.538574,4266.282227,4265.897461,4252.94873,4245.897461,4233.846191,4278.205078,4225.769043,4227.307617,4205.384766,4427.692383,4489.358887,4321.410156,4391.282227,3112.0,0.0,11.0,,,,0.0,4.0,4.0,4.0,4.0,4.0,4.0,4.0,4.0,4.0,4.0,4.0,4.0,4.0,4.0,100.0,,,,,,,,,,,,,,,,,,,,,,,,,,,,,,,,,,,,,,,,,,,,,,,,,,,,,,,,,,,,,,,,,,,,,,,,,,,,,,,,,,,,,,,,,,,,,,,,,,,,,,,,,,,,,,,,,,,,,,,,,,,,,,,,,,,
1725717337.965062,1725717337.965746,24.0,0.0,4251.794922,4265.128418,4265.769043,4251.794922,4246.794922,4233.974121,4277.179688,4229.487305,4234.743652,4211.922852,4436.153809,4491.153809,4327.307617,4391.922852,3395.0,0.0,11.0,,,,0.0,4.0,4.0,4.0,4.0,4.0,4.0,4.0,4.0,4.0,4.0,4.0,4.0,4.0,4.0,100.0,,,,,,,,,,,,,,,,,,,,,,,,,,,,,,,,,,,,,,,,,,,,,,,,,,,,,,,,,,,,,,,,,,,,,,,,,,,,,,,,,,,,,,,,,,,,,,,,,,,,,,,,,,,,,,,,,,,,,,,,,,,,,,,,,,,
1725717337.968966,1725717337.969651,25.0,0.0,4251.794922,4265.769043,4264.871582,4249.487305,4246.922852,4234.358887,4275.769043,4225.512695,4236.282227,4217.820313,4434.230957,4493.333496,4329.615234,4389.743652,3844.0,0.0,11.0,,,,0.0,4.0,4.0,4.0,4.0,4.0,4.0,4.0,4.0,4.0,4.0,4.0,4.0,4.0,4.0,100.0,,,,,,,,,,,,,,,,,,,,,,,,,,,,,,,,,,,,,,,,,,,,,,,,,,,,,,,,,,,,,,,,,,,,,,,,,,,,,,,,,,,,,,,,,,,,,,,,,,,,,,,,,,,,,,,,,,,,,,,,,,,,,,,,,,,
1725717337.97287,1725717337.973655,26.0,0.0,4250.384766,4266.794922,4263.461426,4247.436035,4245.256348,4234.615234,4273.077148,4214.615234,4230.641113,4218.974121,4423.846191,4491.922852,4327.179688,4385.0,2880.0,0.0,11.0,,,,0.0,4.0,4.0,4.0,4.0,4.0,4.0,4.0,4.0,4.0,4.0,4.0,4.0,4.0,4.0,100.0,,,,,,,,,,,,,,,,,,,,,,,,,,,,,,,,,,,,,,,,,,,,,,,,,,,,,,,,,,,,,,,,,,,,,,,,,,,,,,,,,,,,,,,,,,,,,,,,,,,,,,,,,,,,,,,,,,,,,,,,,,,,,,,,,,,
1725717337.976774,1725717337.977559,27.0,0.0,4247.179688,4266.666504,4262.05127,4246.794922,4241.794922,4234.487305,4269.358887,4203.333496,4221.538574,4215.384766,4413.717773,4487.307617,4322.563965,4380.641113,3112.0,0.0,11.0,,,,0.0,4.0,4.0,4.0,4.0,4.0,4.0,4.0,4.0,4.0,4.0,4.0,4.0,4.0,4.0,100.0,,,,,,,,,,,,,,,,,,,,,,,,,,,,,,,,,,,,,,,,,,,,,,,,,,,,,,,,,,,,,,,,,,,,,,,,,,,,,,,,,,,,,,,,,,,,,,,,,,,,,,,,,,,,,,,,,,,,,,,,,,,,,,,,,,,
1725717337.980678,1725717337.981463,28.0,0.0,4244.230957,4264.871582,4261.538574,4247.179688,4237.692383,4234.487305,4266.025879,4198.589844,4214.871582,4211.025879,4412.436035,4482.94873,4319.871582,4379.871582,3395.0,0.0,11.0,,,,0.0,4.0,4.0,4.0,4.0,4.0,4.0,4.0,4.0,4.0,4.0,4.0,4.0,4.0,4.0,100.0,,,,,,,,,,,,,,,,,,,,,,,,,,,,,,,,,,,,,,,,,,,,,,,,,,,,,,,,0.0,0.0,1.0,0.0,1024.0,0.107313,,,,,,,,,,,,,,,,,,,,,,,,,,,,,,,,,,,,,,,,,,,,,,,,,,,,,,,,,,,,,,,,,,,,,,
1725717337.984583,1725717337.985367,29.0,0.0,4243.846191,4262.307617,4261.794922,4248.461426,4234.615234,4234.743652,4264.358887,4202.692383,4214.358887,4210.384766,4420.641113,4481.538574,4321.410156,4383.205078,3844.0,0.0,11.0,,,,0.0,4.0,4.0,4.0,4.0,4.0,4.0,4.0,4.0,4.0,4.0,4.0,4.0,4.0,4.0,100.0,,,,,,,,,,,,,,,,,,,,,,,,,,,,,,,,,,,,,,,,,,,,,,,,,,,,,,,,,,,,,,,,,,,,,,,,,,,,,,,,,,,,,,,,,,,,,,,,,,,,,,,,,,,,,,,,,,,,,,,,,,,,,,,,,,,
1725717337.988487,1725717337.989271,30.0,0.0,4245.769043,4260.384766,4261.538574,4250.0,4233.461426,4234.743652,4264.358887,4211.410156,4218.461426,4214.230957,4430.384766,4483.077148,4325.128418,4387.179688,2880.0,0.0,11.0,,,,0.0,4.0,4.0,4.0,4.0,4.0,4.0,4.0,4.0,4.0,4.0,4.0,4.0,4.0,4.0,100.0,,,,,,,,,,,,,,,,,,,,,,,,,,,,,,,,,,,,,,,,,,,,,,,,,,,,,,,,,,,,,,,,,,,,,,,,,,,,,,,,,,,,,,,,,,,,,,,,,,,,,,,,,,,,,,,,,,,,,,,,,,,,,,,,,,,
1725717337.992391,1725717337.993075,31.0,0.0,4247.307617,4260.0,4259.358887,4251.025879,4233.974121,4233.717773,4264.743652,4218.077148,4222.05127,4218.717773,4431.410156,4484.871582,4327.05127,4388.205078,3112.0,0.0,11.0,,,,0.0,4.0,4.0,4.0,4.0,4.0,4.0,4.0,4.0,4.0,4.0,4.0,4.0,4.0,4.0,100.0,,,,,,,,,,,,,,,,,,,,,,,,,,,,,,,,,,,,,,,,,,,,,,,,,,,,,,,,,,,,,,,,,,,,,,,,,,,,,,,,,,,,,,,,,,,,,,,,,,,,,,,,,,,,,,,,,,,,,,,,,,,,,,,,,,,
1725717337.996295,1725717337.996979,32.0,0.0,4246.538574,4260.897461,4255.384766,4250.641113,4234.871582,4232.563965,4264.102539,4218.461426,4221.538574,4219.743652,4420.641113,4485.0,4325.769043,4385.256348,0.0,0.0,11.0,,,,0.0,4.0,4.0,4.0,4.0,4.0,4.0,4.0,4.0,4.0,4.0,4.0,4.0,4.0,4.0,100.0,,,,,,,,,,,,,,,,,,,,,,,,,,,,,,,,,,,,,,,,,,,,,,,,,,,,,,,,,,,,,,,,,,,,,,,,,,,,,,,,,,,,,,,,,,,,,,,,,,,,,,,,,,,,,,,,,,,,,,,,,,,,,,,,,,,
1725717338.000199,1725717338.000883,33.0,0.0,4243.461426,4262.05127,4251.794922,4248.974121,4235.0,4232.563965,4262.436035,4213.974121,4218.205078,4217.05127,4405.769043,4483.589844,4324.230957,4381.794922,0.0,0.0,11.0,,,,0.0,4.0,4.0,4.0,4.0,4.0,4.0,4.0,4.0,4.0,4.0,4.0,4.0,4.0,4.0,100.0,,,,,,,,,,,,,,,,,,,,,,,,,,,,,,,,,,,,,,,,,,,,,,,,,,,,,,,,,,,,,,,,,,,,,,,,,,,,,,,,,,,,,,,,,,,,,,,,,,,,,,,,,,,,,,,,,,,,,,,,,,,,,,,,,,,
1725717338.004103,1725717338.004887,34.0,0.0,4240.641113,4262.820313,4251.282227,4247.563965,4234.230957,4234.871582,4260.897461,4209.743652,4216.410156,4214.615234,4398.333496,4483.589844,4326.922852,4382.307617,0.0,0.0,11.0,,,,0.0,4.0,4.0,4.0,4.0,4.0,4.0,4.0,4.0,4.0,4.0,4.0,4.0,4.0,4.0,100.0,,,,,,,,,,,,,,,,,,,,,,,,,,,,,,,,,,,,,,,,,,,,,,,,,,,,,,,,,,,,,,,,,,,,,,,,,,,,,,,,,,,,,,,,,,,,,,,,,,,,,,,,,,,,,,,,,,,,,,,,,,,,,,,,,,,
1725717338.008007,1725717338.008791,35.0,0.0,4240.256348,4263.589844,4254.615234,4248.461426,4233.846191,4239.230957,4260.769043,4210.512695,4219.615234,4217.05127,4404.743652,4486.538574,4335.128418,4388.461426,0.0,0.0,11.0,,,,0.0,4.0,4.0,4.0,4.0,4.0,4.0,4.0,4.0,4.0,4.0,4.0,4.0,4.0,4.0,100.0,,,,,,,,,,,,,,,,,,,,,,,,,,,,,,,,,,,,,,,,,,,,,,,,,,,,,,,,,,,,,,,,,,,,,,,,,,,,,,,,,,,,,,,,,,,,,,,,,,,,,,,,,,,,,,,,,,,,,,,,,,,,,,,,,,,
1725717338.011911,1725717338.012696,36.0,0.0,4242.436035,4264.358887,4260.0,4252.692383,4235.128418,4243.846191,4262.307617,4215.641113,4226.666504,4224.871582,4421.025879,4491.153809,4345.256348,4397.307617,0.0,0.0,11.0,,,,0.0,4.0,4.0,4.0,4.0,4.0,4.0,4.0,4.0,4.0,4.0,4.0,4.0,4.0,4.0,100.0,,,,,,,,,,,,,,,,,,,,,,,,,,,,,,,,,,,,,,,,,,,,,,,,,,,,,,,,0.0,0.0,1.0,0.0,1024.0,0.107313,,,,,,,,,,,,,,,,,,,,,,,,,,,,,,,,,,,,,,,,,,,,,,,,,,,,,,,,,,,,,,,,,,,,,,
1725717338.015815,1725717338.0166,37.0,0.0,4245.641113,4265.0,4264.230957,4258.974121,4238.333496,4247.307617,4264.102539,4220.641113,4233.333496,4232.94873,4437.94873,4494.102539,4351.538574,4403.461426,0.0,0.0,11.0,,,,0.0,4.0,4.0,4.0,4.0,4.0,4.0,4.0,4.0,4.0,4.0,4.0,4.0,4.0,4.0,100.0,,,,,,,,,,,,,,,,,,,,,,,,,,,,,,,,,,,,,,,,,,,,,,,,,,,,,,,,,,,,,,,,,,,,,,,,,,,,,,,,,,,,,,,,,,,,,,,,,,,,,,,,,,,,,,,,,,,,,,,,,,,,,,,,,,,
1725717338.019719,1725717338.020604,38.0,0.0,4248.333496,4265.769043,4265.384766,4265.256348,4242.436035,4248.974121,4265.0,4221.538574,4236.410156,4235.128418,4447.692383,4494.102539,4351.025879,4403.846191,0.0,0.0,11.0,,,,0.0,4.0,4.0,4.0,4.0,4.0,4.0,4.0,4.0,4.0,4.0,4.0,4.0,4.0,4.0,100.0,,,,,,,,,,,,,,,,,,,,,,,,,,,,,,,,,,,,,,,,,,,,,,,,,,,,,,,,,,,,,,,,,,,,,,,,,,,,,,,,,,,,,,,,,,,,,,,,,,,,,,,,,,,,,,,,,,,,,,,,,,,,,,,,,,,
1725717338.023624,1725717338.024508,39.0,0.0,4249.487305,4267.563965,4264.102539,4269.102539,4245.641113,4248.846191,4264.615234,4219.102539,4235.256348,4229.102539,4448.974121,4492.94873,4345.384766,4399.871582,0.0,0.0,11.0,,,,0.0,4.0,4.0,4.0,4.0,4.0,4.0,4.0,4.0,4.0,4.0,4.0,4.0,4.0,4.0,100.0,,,,,,,,,,,,,,,,,,,,,,,,,,,,,,,,,,,,,,,,,,,,,,,,,,,,,,,,,,,,,,,,,,,,,,,,,,,,,,,,,,,,,,,,,,,,,,,,,,,,,,,,,,,,,,,,,,,,,,,,,,,,,,,,,,,
1725717338.027528,1725717338.028412,40.0,0.0,4248.974121,4271.153809,4262.94873,4269.487305,4247.05127,4248.333496,4264.230957,4217.436035,4232.820313,4219.102539,4446.282227,4493.846191,4339.615234,4396.153809,0.0,0.0,11.0,,,,0.0,4.0,4.0,4.0,4.0,4.0,4.0,4.0,4.0,4.0,4.0,4.0,4.0,4.0,4.0,100.0,,,,,,,,,,,,,,,,,,,,,,,,,,,,,,,,,,,,,,,,,,,,,,,,,,,,,,,,,,,,,,,,,,,,,,,,,,,,,,,,,,,,,,,,,,,,,,,,,,,,,,,,,,,,,,,,,,,,,,,,,,,,,,,,,,,
1725717338.031432,1725717338.032416,41.0,0.0,4247.307617,4275.769043,4264.487305,4267.307617,4246.794922,4248.077148,4265.897461,4219.871582,4231.666504,4212.692383,4443.846191,4498.077148,4338.974121,4396.282227,0.0,0.0,11.0,,,,0.0,4.0,4.0,4.0,4.0,4.0,4.0,4.0,4.0,4.0,4.0,4.0,4.0,4.0,4.0,100.0,,,,,,,,,,,,,,,,,,,,,,,,,,,,,,,,,,,,,,,,,,,,,,,,,,,,,,,,,,,,,,,,,,,,,,,,,,,,,,,,,,,,,,,,,,,,,,,,,,,,,,,,,,,,,,,,,,,,,,,,,,,,,,,,,,,
1725717338.035336,1725717338.03632,42.0,0.0,4246.282227,4278.974121,4269.102539,4265.128418,4246.282227,4248.333496,4270.0,4225.256348,4232.563965,4214.230957,4442.94873,4504.487305,4343.846191,4400.769043,0.0,0.0,11.0,,,,0.0,4.0,4.0,4.0,4.0,4.0,4.0,4.0,4.0,4.0,4.0,4.0,4.0,4.0,4.0,100.0,,,,,,,,,,,,,,,,,,,,,,,,,,,,,,,,,,,,,,,,,,,,,,,,,,,,,,,,,,,,,,,,,,,,,,,,,,,,,,,,,,,,,,,,,,,,,,,,,,,,,,,,,,,,,,,,,,,,,,,,,,,,,,,,,,,
1725717338.03924,1725717338.040224,43.0,0.0,4247.05127,4278.846191,4274.615234,4265.512695,4246.538574,4248.589844,4275.384766,4229.871582,4234.358887,4221.538574,4442.692383,4509.615234,4350.384766,4406.794922,0.0,0.0,11.0,,,,0.0,4.0,4.0,4.0,4.0,4.0,4.0,4.0,4.0,4.0,4.0,4.0,4.0,4.0,4.0,100.0,,,,,,,,,,,,,,,,,,,,,,,,,,,,,,,,,,,,,,,,,,,,,,,,,,,,,,,,,,,,,,,,,,,,,,,,,,,,,,,,,,,,,,,,,,,,,,,,,,,,,,,,,,,,,,,,,,,,,,,,,,,,,,,,,,,
1725717338.043144,1725717338.044128,44.0,0.0,4250.128418,4276.282227,4278.589844,4268.846191,4247.563965,4248.205078,4280.0,4231.410156,4235.384766,4228.974121,4443.333496,4511.666504,4353.589844,4411.282227,0.0,0.0,11.0,,,,0.0,4.0,4.0,4.0,4.0,4.0,4.0,4.0,4.0,4.0,4.0,4.0,4.0,4.0,4.0,100.0,,,,,,,,,,,,,,,,,,,,,,,,,,,,,,,,,,,,,,,,,,,,,,,,,,,,,,,,0.0,0.0,1.0,0.0,1024.0,0.107313,,,,,,,,,,,,,,,,,,,,,,,,,,,,,,,,,,,,,,,,,,,,,,,,,,,,,,,,,,,,,,,,,,,,,,
1725717338.047048,1725717338.048132,45.0,0.0,4254.743652,4274.615234,4279.615234,4273.461426,4248.717773,4247.436035,4282.563965,4230.769043,4234.871582,4231.538574,4446.282227,4511.922852,4351.922852,4413.077148,0.0,0.0,11.0,,,,0.0,4.0,4.0,4.0,4.0,4.0,4.0,4.0,4.0,4.0,4.0,4.0,4.0,4.0,4.0,100.0,,,,,,,,,,,,,,,,,,,,,,,,,,,,,,,,,,,,,,,,,,,,,,,,,,,,,,,,,,,,,,,,,,,,,,,,,,,,,,,,,,,,,,,,,,,,,,,,,,,,,,,,,,,,,,,,,,,,,,,,,,,,,,,,,,,
1725717338.050952,1725717338.052036,46.0,0.0,4259.102539,4276.410156,4278.846191,4277.307617,4249.615234,4246.666504,4282.94873,4230.384766,4233.589844,4228.846191,4451.538574,4513.846191,4348.077148,4413.717773,0.0,0.0,11.0,,,,0.0,4.0,4.0,4.0,4.0,4.0,4.0,4.0,4.0,4.0,4.0,4.0,4.0,4.0,4.0,100.0,,,,,,,,,,,,,,,,,,,,,,,,,,,,,,,,,,,,,,,,,,,,,,,,,,,,,,,,,,,,,,,,,,,,,,,,,,,,,,,,,,,,,,,,,,,,,,,,,,,,,,,,,,,,,,,,,,,,,,,,,,,,,,,,,,,
1725717338.054856,1725717338.05594,47.0,0.0,4261.794922,4280.256348,4277.820313,4279.230957,4250.128418,4246.282227,4282.05127,4231.282227,4232.692383,4224.615234,4455.512695,4518.589844,4345.641113,4414.230957,0.0,0.0,11.0,,,,0.0,4.0,4.0,4.0,4.0,4.0,4.0,4.0,4.0,4.0,4.0,4.0,4.0,4.0,4.0,100.0,,,,,,,,,,,,,,,,,,,,,,,,,,,,,,,,,,,,,,,,,,,,,,,,,,,,,,,,,,,,,,,,,,,,,,,,,,,,,,,,,,,,,,,,,,,,,,,,,,,,,,,,,,,,,,,,,,,,,,,,,,,,,,,,,,,
1725717338.05876,1725717338.059845,48.0,0.0,4262.05127,4282.307617,4277.563965,4279.487305,4250.0,4246.538574,4280.897461,4232.436035,4232.94873,4222.692383,4453.974121,4523.461426,4345.897461,4414.743652,0.0,0.0,11.0,,,,0.0,4.0,4.0,4.0,4.0,4.0,4.0,4.0,4.0,4.0,4.0,4.0,4.0,4.0,4.0,100.0,,,,,,,,,,,,,,,,,,,,,,,,,,,,,,,,,,,,,,,,,,,,,,,,,,,,,,,,,,,,,,,,,,,,,,,,,,,,,,,,,,,,,,,,,,,,,,,,,,,,,,,,,,,,,,,,,,,,,,,,,,,,,,,,,,,
1725717338.062664,1725717338.063749,49.0,0.0,4260.897461,4279.743652,4277.692383,4279.102539,4248.974121,4246.922852,4280.256348,4231.922852,4234.102539,4224.358887,4445.128418,4524.871582,4347.94873,4414.615234,0.0,0.0,11.0,,,,0.0,4.0,4.0,4.0,4.0,4.0,4.0,4.0,4.0,4.0,4.0,4.0,4.0,4.0,4.0,100.0,,,,,,,,,,,,,,,,,,,,,,,,,,,,,,,,,,,,,,,,,,,,,,,,,,,,,,,,,,,,,,,,,,,,,,,,,,,,,,,,,,,,,,,,,,,,,,,,,,,,,,,,,,,,,,,,,,,,,,,,,,,,,,,,,,,
1725717338.066568,1725717338.067553,50.0,0.0,4260.384766,4273.846191,4277.820313,4278.717773,4247.692383,4247.307617,4280.384766,4228.333496,4234.230957,4226.922852,4433.077148,4521.794922,4349.358887,4414.102539,0.0,0.0,11.0,,,,0.0,4.0,4.0,4.0,4.0,4.0,4.0,4.0,4.0,4.0,4.0,4.0,4.0,4.0,4.0,100.0,,,,,,,,,,,,,,,,,,,,,,,,,,,,,,,,,,,,,,,,,,,,,,,,,,,,,,,,,,,,,,,,,,,,,,,,,,,,,,,,,,,,,,,,,,,,,,,,,,,,,,,,,,,,,,,,,,,,,,,,,,,,,,,,,,,
1725717338.070473,1725717338.071457,51.0,0.0,4261.025879,4268.717773,4278.077148,4278.205078,4246.794922,4247.820313,4281.025879,4222.307617,4232.307617,4227.179688,4425.384766,4515.641113,4348.461426,4413.717773,0.0,0.0,11.0,,,,0.0,4.0,4.0,4.0,4.0,4.0,4.0,4.0,4.0,4.0,4.0,4.0,4.0,4.0,4.0,100.0,,,,,,,,,,,,,,,,,,,,,,,,,,,,,,,,,,,,,,,,,,,,,,,,,,,,,,,,,,,,,,,,,,,,,,,,,,,,,,,,,,,,,,,,,,,,,,,,,,,,,,,,,,,,,,,,,,,,,,,,,,,,,,,,,,,
1725717338.074377,1725717338.075361,52.0,0.0,4261.538574,4267.436035,4278.717773,4277.820313,4247.05127,4248.461426,4282.05127,4216.282227,4228.717773,4223.974121,4427.307617,4509.487305,4345.0,4413.717773,0.0,0.0,11.0,,,,0.0,4.0,4.0,4.0,4.0,4.0,4.0,4.0,4.0,4.0,4.0,4.0,4.0,4.0,4.0,100.0,1.0,75.0,4.0,4.0,4.0,4.0,4.0,4.0,1.0,4.0,4.0,4.0,4.0,4.0,4.0,4.0,1.0,0.0,0.0,,,,,,,,,,,,,,,,,,,,,,,,,,,,,,,,,,,,,0.0,0.0,1.0,0.0,1024.0,0.361821,2.849819,2.623784,0.709902,0.278408,0.149689,27.293295,16.445807,6.092515,1.48967,0.686787,2.964522,1.79409,0.665879,0.238363,0.13648,1.554084,1.240123,0.449869,0.195249,0.106651,0.88427,0.347282,0.39056,0.120198,0.058727,2.265321,0.316441,0.364983,0.17347,0.07418,15.040956,2.459464,1.341068,0.35472,0.114019,1.039195,2.867145,0.619344,0.648762,0.259963,1.307075,2.532858,0.56326,0.440599,0.169875,2.256531,3.092676,1.018872,0.707214,0.261844,2.308009,6.263631,1.7904,0.982639,0.478837,4.044186,7.152583,1.396039,0.786166,0.323577,2.415943,5.023293,1.756868,0.892271,0.379525,2.734545,5.062376,1.302918,0.465072,0.182504
1725717338.078281,1725717338.079365,53.0,0.0,4260.256348,4269.871582,4278.974121,4277.94873,4248.205078,4249.102539,4282.820313,4212.94873,4225.0,4219.358887,4437.179688,4504.871582,4340.512695,4413.077148,0.0,0.0,11.0,,,,0.0,4.0,4.0,4.0,4.0,4.0,4.0,4.0,4.0,4.0,4.0,4.0,4.0,4.0,4.0,100.0,,,,,,,,,,,,,,,,,,,,,,,,,,,,,,,,,,,,,,,,,,,,,,,,,,,,,,,,,,,,,,,,,,,,,,,,,,,,,,,,,,,,,,,,,,,,,,,,,,,,,,,,,,,,,,,,,,,,,,,,,,,,,,,,,,,
1725717338.082185,1725717338.083269,54.0,0.0,4256.666504,4272.820313,4278.333496,4278.717773,4248.846191,4249.230957,4283.077148,4213.717773,4223.205078,4216.153809,4447.94873,4502.563965,4337.05127,4411.153809,0.0,0.0,11.0,,,,0.0,4.0,4.0,4.0,4.0,4.0,4.0,4.0,4.0,4.0,4.0,4.0,4.0,4.0,4.0,100.0,,,,,,,,,,,,,,,,,,,,,,,,,,,,,,,,,,,,,,,,,,,,,,,,,,,,,,,,,,,,,,,,,,,,,,,,,,,,,,,,,,,,,,,,,,,,,,,,,,,,,,,,,,,,,,,,,,,,,,,,,,,,,,,,,,,
1725717338.086089,1725717338.087173,55.0,0.0,4253.205078,4272.94873,4276.922852,4280.512695,4248.077148,4249.230957,4282.820313,4217.307617,4224.102539,4215.256348,4452.179688,4502.820313,4335.512695,4408.205078,0.0,0.0,11.0,,,,0.0,4.0,4.0,4.0,4.0,4.0,4.0,4.0,4.0,4.0,4.0,4.0,4.0,4.0,4.0,100.0,,,,,,,,,,,,,,,,,,,,,,,,,,,,,,,,,,,,,,,,,,,,,,,,,,,,,,,,,,,,,,,,,,,,,,,,,,,,,,,,,,,,,,,,,,,,,,,,,,,,,,,,,,,,,,,,,,,,,,,,,,,,,,,,,,,
1725717338.089993,1725717338.091077,56.0,0.0,4252.436035,4269.358887,4275.512695,4282.436035,4246.794922,4249.358887,4282.307617,4220.512695,4227.436035,4215.897461,4448.589844,4504.743652,4335.128418,4405.769043,0.0,0.0,11.0,,,,0.0,4.0,4.0,4.0,4.0,4.0,4.0,4.0,4.0,4.0,4.0,4.0,4.0,4.0,4.0,100.0,,,,,,,,,,,,,,,,,,,,,,,,,,,,,,,,,,,,,,,,,,,,,,,,,,,,,,,,,,,,,,,,,,,,,,,,,,,,,,,,,,,,,,,,,,,,,,,,,,,,,,,,,,,,,,,,,,,,,,,,,,,,,,,,,,,
1725717338.093897,1725717338.095081,57.0,0.0,4255.256348,4264.358887,4274.615234,4284.102539,4246.025879,4249.743652,4281.922852,4221.410156,4231.282227,4216.538574,4441.794922,4506.922852,4334.358887,4404.871582,0.0,0.0,11.0,,,,0.0,4.0,4.0,4.0,4.0,4.0,4.0,4.0,4.0,4.0,4.0,4.0,4.0,4.0,4.0,100.0,,,,,,,,,,,,,,,,,,,,,,,,,,,,,,,,,,,,,,,,,,,,,,,,,,,,,,,,,,,,,,,,,,,,,,,,,,,,,,,,,,,,,,,,,,,,,,,,,,,,,,,,,,,,,,,,,,,,,,,,,,,,,,,,,,,
1725717338.097801,1725717338.098985,58.0,0.0,4258.589844,4261.153809,4273.589844,4284.743652,4245.769043,4249.743652,4282.179688,4219.871582,4233.589844,4216.538574,4437.563965,4507.820313,4332.179688,4404.487305,0.0,0.0,11.0,,,,0.0,4.0,4.0,4.0,4.0,4.0,4.0,4.0,4.0,4.0,4.0,4.0,4.0,4.0,4.0,100.0,,,,,,,,,,,,,,,,,,,,,,,,,,,,,,,,,,,,,,,,,,,,,,,,,,,,,,,,,,,,,,,,,,,,,,,,,,,,,,,,,,,,,,,,,,,,,,,,,,,,,,,,,,,,,,,,,,,,,,,,,,,,,,,,,,,
1725717338.101705,1725717338.10289,59.0,0.0,4258.589844,4261.153809,4272.307617,4283.717773,4245.384766,4248.974121,4283.717773,4217.563965,4233.461426,4216.666504,4438.077148,4506.538574,4328.974121,4402.94873,0.0,0.0,11.0,,,,0.0,4.0,4.0,4.0,4.0,4.0,4.0,4.0,4.0,4.0,4.0,4.0,4.0,4.0,4.0,100.0,,,,,,,,,,,,,,,,,,,,,,,,,,,,,,,,,,,,,,,,,,,,,,,,,,,,,,,,,,,,,,,,,,,,,,,,,,,,,,,,,,,,,,,,,,,,,,,,,,,,,,,,,,,,,,,,,,,,,,,,,,,,,,,,,,,
1725717338.10561,1725717338.106794,60.0,0.0,4254.487305,4263.205078,4271.794922,4281.794922,4243.846191,4247.563965,4286.410156,4216.153809,4231.538574,4217.307617,4441.410156,4504.102539,4326.153809,4400.512695,0.0,0.0,11.0,,,,0.0,4.0,4.0,4.0,4.0,4.0,4.0,4.0,4.0,4.0,4.0,4.0,4.0,4.0,4.0,100.0,,,,,,,,,,,,,,,,,,,,,,,,,,,,,,,,,,,,,,,,,,,,,,,,,,,,,,,,0.0,0.0,1.0,0.0,1024.0,0.361821,,,,,,,,,,,,,,,,,,,,,,,,,,,,,,,,,,,,,,,,,,,,,,,,,,,,,,,,,,,,,,,,,,,,,,
1725717338.109514,1725717338.110598,61.0,0.0,4248.974121,4264.743652,4272.94873,4280.128418,4241.666504,4246.153809,4288.974121,4216.410156,4229.615234,4218.205078,4443.589844,4502.563965,4324.230957,4398.717773,0.0,0.0,11.0,,,,0.0,4.0,4.0,4.0,4.0,4.0,4.0,4.0,4.0,4.0,4.0,4.0,4.0,4.0,4.0,100.0,,,,,,,,,,,,,,,,,,,,,,,,,,,,,,,,,,,,,,,,,,,,,,,,,,,,,,,,,,,,,,,,,,,,,,,,,,,,,,,,,,,,,,,,,,,,,,,,,,,,,,,,,,,,,,,,,,,,,,,,,,,,,,,,,,,
1725717338.113418,1725717338.114502,62.0,0.0,4246.153809,4264.743652,4275.384766,4279.615234,4240.256348,4245.512695,4289.871582,4217.94873,4229.230957,4218.974121,4442.820313,4503.205078,4322.820313,4399.358887,0.0,0.0,11.0,,,,0.0,4.0,4.0,4.0,4.0,4.0,4.0,4.0,4.0,4.0,4.0,4.0,4.0,4.0,4.0,100.0,,,,,,,,,,,,,,,,,,,,,,,,,,,,,,,,,,,,,,,,,,,,,,,,,,,,,,,,,,,,,,,,,,,,,,,,,,,,,,,,,,,,,,,,,,,,,,,,,,,,,,,,,,,,,,,,,,,,,,,,,,,,,,,,,,,
1725717338.117322,1725717338.118406,63.0,0.0,4247.563965,4263.717773,4276.922852,4280.0,4240.641113,4246.025879,4288.461426,4219.743652,4230.512695,4219.487305,4441.282227,4505.769043,4321.538574,4402.94873,0.0,0.0,11.0,,,,0.0,4.0,4.0,4.0,4.0,4.0,4.0,4.0,4.0,4.0,4.0,4.0,4.0,4.0,4.0,100.0,,,,,,,,,,,,,,,,,,,,,,,,,,,,,,,,,,,,,,,,,,,,,,,,,,,,,,,,,,,,,,,,,,,,,,,,,,,,,,,,,,,,,,,,,,,,,,,,,,,,,,,,,,,,,,,,,,,,,,,,,,,,,,,,,,,
1725717338.121226,1725717338.12231,64.0,0.0,4250.641113,4263.077148,4275.512695,4280.641113,4241.922852,4246.794922,4285.641113,4220.641113,4232.692383,4220.256348,4442.436035,4508.717773,4320.641113,4407.692383,0.0,0.0,11.0,,,,0.0,4.0,4.0,4.0,4.0,4.0,4.0,4.0,4.0,4.0,4.0,4.0,4.0,4.0,4.0,100.0,,,,,,,,,,,,,,,,,,,,,,,,,,,,,,,,,,,,,,,,,,,,,,,,,,,,,,,,,,,,,,,,,,,,,,,,,,,,,,,,,,,,,,,,,,,,,,,,,,,,,,,,,,,,,,,,,,,,,,,,,,,,,,,,,,,
1725717338.12513,1725717338.126114,65.0,0.0,4252.05127,4263.333496,4270.897461,4280.641113,4242.307617,4246.922852,4283.077148,4220.0,4233.974121,4221.282227,4447.05127,4510.128418,4321.153809,4410.769043,0.0,0.0,11.0,,,,0.0,4.0,4.0,4.0,4.0,4.0,4.0,4.0,4.0,4.0,4.0,4.0,4.0,4.0,4.0,100.0,,,,,,,,,,,,,,,,,,,,,,,,,,,,,,,,,,,,,,,,,,,,,,,,,,,,,,,,,,,,,,,,,,,,,,,,,,,,,,,,,,,,,,,,,,,,,,,,,,,,,,,,,,,,,,,,,,,,,,,,,,,,,,,,,,,
1725717338.129034,1725717338.130019,66.0,0.0,4250.769043,4263.461426,4265.512695,4280.384766,4240.384766,4246.153809,4282.436035,4218.077148,4233.846191,4221.282227,4452.307617,4509.230957,4323.333496,4410.512695,0.0,0.0,11.0,,,,0.0,4.0,4.0,4.0,4.0,4.0,4.0,4.0,4.0,4.0,4.0,4.0,4.0,4.0,4.0,100.0,,,,,,,,,,,,,,,,,,,,,,,,,,,,,,,,,,,,,,,,,,,,,,,,,,,,,,,,,,,,,,,,,,,,,,,,,,,,,,,,,,,,,,,,,,,,,,,,,,,,,,,,,,,,,,,,,,,,,,,,,,,,,,,,,,,
1725717338.132938,1725717338.133923,67.0,0.0,4248.461426,4263.333496,4263.205078,4280.128418,4236.794922,4245.0,4283.974121,4216.794922,4232.692383,4219.487305,4455.0,4506.666504,4327.05127,4407.94873,0.0,0.0,11.0,,,,0.0,4.0,4.0,4.0,4.0,4.0,4.0,4.0,4.0,4.0,4.0,4.0,4.0,4.0,4.0,100.0,,,,,,,,,,,,,,,,,,,,,,,,,,,,,,,,,,,,,,,,,,,,,,,,,,,,,,,,,,,,,,,,,,,,,,,,,,,,,,,,,,,,,,,,,,,,,,,,,,,,,,,,,,,,,,,,,,,,,,,,,,,,,,,,,,,
1725717338.136842,1725717338.137927,68.0,0.0,4247.436035,4263.717773,4265.897461,4280.384766,4234.358887,4244.358887,4287.307617,4217.94873,4231.794922,4217.94873,4455.512695,4504.358887,4332.179688,4405.769043,0.0,0.0,11.0,,,,0.0,4.0,4.0,4.0,4.0,4.0,4.0,4.0,4.0,4.0,4.0,4.0,4.0,4.0,4.0,100.0,,,,,,,,,,,,,,,,,,,,,,,,,,,,,,,,,,,,,,,,,,,,,,,,,,,,,,,,0.0,0.0,1.0,0.0,1024.0,0.361821,,,,,,,,,,,,,,,,,,,,,,,,,,,,,,,,,,,,,,,,,,,,,,,,,,,,,,,,,,,,,,,,,,,,,,
1725717338.140746,1725717338.141831,69.0,0.0,4248.717773,4265.256348,4272.436035,4281.538574,4235.641113,4245.128418,4291.282227,4221.794922,4231.794922,4219.871582,4456.538574,4504.487305,4338.461426,4406.538574,0.0,0.0,11.0,,,,0.0,4.0,4.0,4.0,4.0,4.0,4.0,4.0,4.0,4.0,4.0,4.0,4.0,4.0,4.0,100.0,,,,,,,,,,,,,,,,,,,,,,,,,,,,,,,,,,,,,,,,,,,,,,,,,,,,,,,,,,,,,,,,,,,,,,,,,,,,,,,,,,,,,,,,,,,,,,,,,,,,,,,,,,,,,,,,,,,,,,,,,,,,,,,,,,,
1725717338.144651,1725717338.145735,70.0,0.0,4251.153809,4267.179688,4278.974121,4283.205078,4240.641113,4246.922852,4294.230957,4227.05127,4232.692383,4226.025879,4461.025879,4507.820313,4343.461426,4410.256348,0.0,0.0,11.0,,,,0.0,4.0,4.0,4.0,4.0,4.0,4.0,4.0,4.0,4.0,4.0,4.0,4.0,4.0,4.0,100.0,,,,,,,,,,,,,,,,,,,,,,,,,,,,,,,,,,,,,,,,,,,,,,,,,,,,,,,,,,,,,,,,,,,,,,,,,,,,,,,,,,,,,,,,,,,,,,,,,,,,,,,,,,,,,,,,,,,,,,,,,,,,,,,,,,,
1725717338.148555,1725717338.149639,71.0,0.0,4252.94873,4267.692383,4281.922852,4284.487305,4246.282227,4248.717773,4295.384766,4231.025879,4233.846191,4233.333496,4468.333496,4513.461426,4344.743652,4414.487305,0.0,0.0,11.0,,,,0.0,4.0,4.0,4.0,4.0,4.0,4.0,4.0,4.0,4.0,4.0,4.0,4.0,4.0,4.0,100.0,,,,,,,,,,,,,,,,,,,,,,,,,,,,,,,,,,,,,,,,,,,,,,,,,,,,,,,,,,,,,,,,,,,,,,,,,,,,,,,,,,,,,,,,,,,,,,,,,,,,,,,,,,,,,,,,,,,,,,,,,,,,,,,,,,,
1725717338.152459,1725717338.153643,72.0,0.0,4253.333496,4266.922852,4280.641113,4283.846191,4248.717773,4249.230957,4294.615234,4232.563965,4234.743652,4237.307617,4475.128418,4519.487305,4341.538574,4416.282227,0.0,0.0,11.0,,,,0.0,4.0,4.0,4.0,4.0,4.0,4.0,4.0,4.0,4.0,4.0,4.0,4.0,4.0,4.0,100.0,,,,,,,,,,,,,,,,,,,,,,,,,,,,,,,,,,,,,,,,,,,,,,,,,,,,,,,,,,,,,,,,,,,,,,,,,,,,,,,,,,,,,,,,,,,,,,,,,,,,,,,,,,,,,,,,,,,,,,,,,,,,,,,,,,,
1725717338.156363,1725717338.157547,73.0,0.0,4253.205078,4266.025879,4277.94873,4281.410156,4246.666504,4248.461426,4293.333496,4232.05127,4235.128418,4235.256348,4477.307617,4524.102539,4335.769043,4415.0,0.0,0.0,11.0,,,,0.0,4.0,4.0,4.0,4.0,4.0,4.0,4.0,4.0,4.0,4.0,4.0,4.0,4.0,4.0,100.0,,,,,,,,,,,,,,,,,,,,,,,,,,,,,,,,,,,,,,,,,,,,,,,,,,,,,,,,,,,,,,,,,,,,,,,,,,,,,,,,,,,,,,,,,,,,,,,,,,,,,,,,,,,,,,,,,,,,,,,,,,,,,,,,,,,
1725717338.160267,1725717338.161451,74.0,0.0,4254.230957,4267.179688,4276.666504,4279.487305,4242.563965,4247.436035,4292.94873,4231.282227,4234.743652,4228.846191,4473.205078,4526.922852,4330.256348,4412.94873,0.0,0.0,11.0,,,,0.0,4.0,4.0,4.0,4.0,4.0,4.0,4.0,4.0,4.0,4.0,4.0,4.0,4.0,4.0,100.0,,,,,,,,,,,,,,,,,,,,,,,,,,,,,,,,,,,,,,,,,,,,,,,,,,,,,,,,,,,,,,,,,,,,,,,,,,,,,,,,,,,,,,,,,,,,,,,,,,,,,,,,,,,,,,,,,,,,,,,,,,,,,,,,,,,
1725717338.164171,1725717338.165355,75.0,0.0,4257.05127,4270.897461,4277.94873,4280.641113,4240.512695,4247.436035,4294.615234,4231.410156,4234.230957,4222.436035,4465.641113,4528.717773,4326.922852,4412.692383,0.0,0.0,11.0,,,,0.0,4.0,4.0,4.0,4.0,4.0,4.0,4.0,4.0,4.0,4.0,4.0,4.0,4.0,4.0,100.0,,,,,,,,,,,,,,,,,,,,,,,,,,,,,,,,,,,,,,,,,,,,,,,,,,,,,,,,,,,,,,,,,,,,,,,,,,,,,,,,,,,,,,,,,,,,,,,,,,,,,,,,,,,,,,,,,,,,,,,,,,,,,,,,,,,
1725717338.168075,1725717338.169259,76.0,0.0,4261.025879,4276.410156,4280.641113,4285.256348,4242.692383,4249.102539,4297.820313,4232.436035,4234.102539,4220.0,4459.615234,4530.256348,4326.153809,4415.256348,0.0,0.0,11.0,,,,0.0,4.0,4.0,4.0,4.0,4.0,4.0,4.0,4.0,4.0,4.0,4.0,4.0,4.0,4.0,100.0,,,,,,,,,,,,,,,,,,,,,,,,,,,,,,,,,,,,,,,,,,,,,,,,,,,,,,,,0.0,0.0,1.0,0.0,1024.0,0.361821,,,,,,,,,,,,,,,,,,,,,,,,,,,,,,,,,,,,,,,,,,,,,,,,,,,,,,,,,,,,,,,,,,,,,,
1725717338.171979,1725717338.173064,77.0,0.0,4264.615234,4281.666504,4282.692383,4291.025879,4247.307617,4251.410156,4300.897461,4233.077148,4234.230957,4222.436035,4459.487305,4531.153809,4327.05127,4418.846191,0.0,0.0,11.0,,,,0.0,4.0,4.0,4.0,4.0,4.0,4.0,4.0,4.0,4.0,4.0,4.0,4.0,4.0,4.0,100.0,,,,,,,,,,,,,,,,,,,,,,,,,,,,,,,,,,,,,,,,,,,,,,,,,,,,,,,,,,,,,,,,,,,,,,,,,,,,,,,,,,,,,,,,,,,,,,,,,,,,,,,,,,,,,,,,,,,,,,,,,,,,,,,,,,,
1725717338.175883,1725717338.176968,78.0,0.0,4265.769043,4284.743652,4283.077148,4294.487305,4251.025879,4252.94873,4302.179688,4232.179688,4234.487305,4227.563965,4465.641113,4529.615234,4328.974121,4420.769043,0.0,0.0,11.0,,,,0.0,4.0,4.0,4.0,4.0,4.0,4.0,4.0,4.0,4.0,4.0,4.0,4.0,4.0,4.0,100.0,,,,,,,,,,,,,,,,,,,,,,,,,,,,,,,,,,,,,,,,,,,,,,,,,,,,,,,,,,,,,,,,,,,,,,,,,,,,,,,,,,,,,,,,,,,,,,,,,,,,,,,,,,,,,,,,,,,,,,,,,,,,,,,,,,,
1725717338.179788,1725717338.180872,79.0,0.0,4263.717773,4284.230957,4281.666504,4293.333496,4251.666504,4253.077148,4301.153809,4230.128418,4234.487305,4231.922852,4474.102539,4524.358887,4330.256348,4420.0,0.0,0.0,11.0,,,,0.0,4.0,4.0,4.0,4.0,4.0,4.0,4.0,4.0,4.0,4.0,4.0,4.0,4.0,4.0,100.0,,,,,,,,,,,,,,,,,,,,,,,,,,,,,,,,,,,,,,,,,,,,,,,,,,,,,,,,,,,,,,,,,,,,,,,,,,,,,,,,,,,,,,,,,,,,,,,,,,,,,,,,,,,,,,,,,,,,,,,,,,,,,,,,,,,
1725717338.183692,1725717338.184776,80.0,0.0,4259.102539,4280.384766,4279.487305,4288.589844,4249.743652,4251.666504,4298.846191,4228.333496,4234.230957,4233.717773,4479.743652,4516.153809,4329.743652,4417.436035,0.0,0.0,11.0,,,,0.0,4.0,4.0,4.0,4.0,4.0,4.0,4.0,4.0,4.0,4.0,4.0,4.0,4.0,4.0,100.0,,,,,,,,,,,,,,,,,,,,,,,,,,,,,,,,,,,,,,,,,,,,,,,,,,,,,,,,,,,,,,,,,,,,,,,,,,,,,,,,,,,,,,,,,,,,,,,,,,,,,,,,,,,,,,,,,,,,,,,,,,,,,,,,,,,
1725717338.187596,1725717338.18858,81.0,0.0,4253.589844,4274.871582,4276.922852,4283.077148,4247.307617,4249.743652,4296.538574,4228.205078,4233.974121,4232.692383,4479.615234,4508.205078,4327.436035,4415.0,0.0,0.0,11.0,,,,0.0,4.0,4.0,4.0,4.0,4.0,4.0,4.0,4.0,4.0,4.0,4.0,4.0,4.0,4.0,100.0,,,,,,,,,,,,,,,,,,,,,,,,,,,,,,,,,,,,,,,,,,,,,,,,,,,,,,,,,,,,,,,,,,,,,,,,,,,,,,,,,,,,,,,,,,,,,,,,,,,,,,,,,,,,,,,,,,,,,,,,,,,,,,,,,,,
1725717338.1915,1725717338.192484,82.0,0.0,4249.358887,4269.871582,4274.871582,4279.615234,4246.025879,4248.461426,4295.641113,4230.256348,4233.333496,4230.384766,4475.256348,4504.871582,4324.230957,4414.102539,0.0,0.0,11.0,,,,0.0,4.0,4.0,4.0,4.0,4.0,4.0,4.0,4.0,4.0,4.0,4.0,4.0,4.0,4.0,100.0,,,,,,,,,,,,,,,,,,,,,,,,,,,,,,,,,,,,,,,,,,,,,,,,,,,,,,,,,,,,,,,,,,,,,,,,,,,,,,,,,,,,,,,,,,,,,,,,,,,,,,,,,,,,,,,,,,,,,,,,,,,,,,,,,,,
1725717338.195404,1725717338.196388,83.0,0.0,4247.820313,4266.666504,4274.358887,4279.102539,4246.153809,4248.461426,4296.282227,4233.205078,4232.94873,4227.94873,4471.282227,4508.205078,4321.794922,4414.230957,0.0,0.0,11.0,,,,0.0,4.0,4.0,4.0,4.0,4.0,4.0,4.0,4.0,4.0,4.0,4.0,4.0,4.0,4.0,100.0,,,,,,,,,,,,,,,,,,,,,,,,,,,,,,,,,,,,,,,,,,,,,,,,,,,,,,,,,,,,,,,,,,,,,,,,,,,,,,,,,,,,,,,,,,,,,,,,,,,,,,,,,,,,,,,,,,,,,,,,,,,,,,,,,,,
1725717338.199308,1725717338.200193,84.0,0.0,4248.846191,4265.384766,4275.897461,4280.256348,4246.794922,4249.487305,4297.563965,4235.128418,4233.077148,4225.512695,4471.153809,4516.153809,4321.153809,4414.871582,0.0,0.0,11.0,,,,0.0,4.0,4.0,4.0,4.0,4.0,4.0,4.0,4.0,4.0,4.0,4.0,4.0,4.0,4.0,100.0,,,,,,,,,,,,,,,,,1.0,0.0,0.0,,,,,,,,,,,,,,,,,,,,,,,,,,,,,,,,,,,,,0.0,0.0,1.0,0.0,1024.0,0.263538,2.464631,2.245764,0.824969,0.27249,0.130866,20.176216,11.62015,4.587741,1.16509,0.581834,2.502976,1.594404,0.746845,0.220771,0.120349,1.509443,1.15967,0.531159,0.180413,0.113571,1.064783,0.384514,0.411034,0.12668,0.055657,1.694769,0.341197,0.286557,0.153061,0.066067,11.557929,2.084799,1.029096,0.331159,0.098709,0.933167,2.168011,0.494851,0.586052,0.289958,1.081563,1.839127,0.583867,0.385745,0.168997,1.822699,2.1963,1.023431,0.594881,0.24758,2.141338,4.683399,1.822538,0.983962,0.472532,3.255382,5.660094,1.545449,0.76383,0.331911,2.113956,3.866656,2.086913,0.865102,0.37791,2.50894,3.997953,1.399882,0.476205,0.180441
1725717338.203212,1725717338.204097,85.0,0.0,4250.897461,4265.128418,4278.333496,4280.897461,4247.05127,4250.641113,4297.94873,4234.871582,4233.846191,4223.205078,4473.846191,4523.589844,4322.307617,4415.384766,0.0,0.0,11.0,,,,0.0,4.0,4.0,4.0,4.0,4.0,4.0,4.0,4.0,4.0,4.0,4.0,4.0,4.0,4.0,100.0,,,,,,,,,,,,,,,,,,,,,,,,,,,,,,,,,,,,,,,,,,,,,,,,,,,,,,,,,,,,,,,,,,,,,,,,,,,,,,,,,,,,,,,,,,,,,,,,,,,,,,,,,,,,,,,,,,,,,,,,,,,,,,,,,,,
1725717338.207116,1725717338.208001,86.0,0.0,4251.794922,4265.128418,4279.743652,4279.871582,4246.794922,4251.153809,4296.922852,4233.461426,4234.743652,4220.897461,4475.512695,4526.025879,4324.615234,4415.384766,0.0,0.0,11.0,,,,0.0,4.0,4.0,4.0,4.0,4.0,4.0,4.0,4.0,4.0,4.0,4.0,4.0,4.0,4.0,100.0,,,,,,,,,,,,,,,,,,,,,,,,,,,,,,,,,,,,,,,,,,,,,,,,,,,,,,,,,,,,,,,,,,,,,,,,,,,,,,,,,,,,,,,,,,,,,,,,,,,,,,,,,,,,,,,,,,,,,,,,,,,,,,,,,,,
1725717338.21102,1725717338.211905,87.0,0.0,4250.512695,4265.0,4278.205078,4278.077148,4246.410156,4251.282227,4295.256348,4232.05127,4235.128418,4218.974121,4474.102539,4522.820313,4327.436035,4415.0,0.0,0.0,11.0,,,,0.0,4.0,4.0,4.0,4.0,4.0,4.0,4.0,4.0,4.0,4.0,4.0,4.0,4.0,4.0,100.0,,,,,,,,,,,,,,,,,,,,,,,,,,,,,,,,,,,,,,,,,,,,,,,,,,,,,,,,,,,,,,,,,,,,,,,,,,,,,,,,,,,,,,,,,,,,,,,,,,,,,,,,,,,,,,,,,,,,,,,,,,,,,,,,,,,
1725717338.214924,1725717338.215709,88.0,0.0,4247.563965,4265.0,4273.717773,4277.179688,4246.153809,4251.153809,4294.615234,4231.538574,4234.230957,4217.692383,4472.179688,4515.512695,4329.615234,4414.230957,0.0,0.0,11.0,,,,0.0,4.0,4.0,4.0,4.0,4.0,4.0,4.0,4.0,4.0,4.0,4.0,4.0,4.0,4.0,100.0,,,,,,,,,,,,,,,,,,,,,,,,,,,,,,,,,,,,,,,,,,,,,,,,,,,,,,,,,,,,,,,,,,,,,,,,,,,,,,,,,,,,,,,,,,,,,,,,,,,,,,,,,,,,,,,,,,,,,,,,,,,,,,,,,,,
1725717338.218829,1725717338.219613,89.0,0.0,4244.487305,4265.128418,4268.077148,4277.692383,4246.153809,4251.153809,4295.0,4231.666504,4232.307617,4217.179688,4473.717773,4507.563965,4330.256348,4413.077148,0.0,0.0,11.0,,,,0.0,4.0,4.0,4.0,4.0,4.0,4.0,4.0,4.0,4.0,4.0,4.0,4.0,4.0,4.0,100.0,,,,,,,,,,,,,,,,,,,,,,,,,,,,,,,,,,,,,,,,,,,,,,,,,,,,,,,,,,,,,,,,,,,,,,,,,,,,,,,,,,,,,,,,,,,,,,,,,,,,,,,,,,,,,,,,,,,,,,,,,,,,,,,,,,,
1725717338.222732,1725717338.223517,90.0,0.0,4243.205078,4265.384766,4263.846191,4278.205078,4246.025879,4251.282227,4295.641113,4231.794922,4230.384766,4217.563965,4479.102539,4502.307617,4329.230957,4411.794922,0.0,0.0,11.0,,,,0.0,4.0,4.0,4.0,4.0,4.0,4.0,4.0,4.0,4.0,4.0,4.0,4.0,4.0,4.0,100.0,,,,,,,,,,,,,,,,,,,,,,,,,,,,,,,,,,,,,,,,,,,,,,,,,,,,,,,,,,,,,,,,,,,,,,,,,,,,,,,,,,,,,,,,,,,,,,,,,,,,,,,,,,,,,,,,,,,,,,,,,,,,,,,,,,,
1725717338.226637,1725717338.227521,91.0,0.0,4244.230957,4265.769043,4262.820313,4276.794922,4245.641113,4251.153809,4294.871582,4231.538574,4229.743652,4218.333496,4483.846191,4502.179688,4327.563965,4411.153809,0.0,0.0,11.0,,,,0.0,4.0,4.0,4.0,4.0,4.0,4.0,4.0,4.0,4.0,4.0,4.0,4.0,4.0,4.0,100.0,,,,,,,,,,,,,,,,,,,,,,,,,,,,,,,,,,,,,,,,,,,,,,,,,,,,,,,,,,,,,,,,,,,,,,,,,,,,,,,,,,,,,,,,,,,,,,,,,,,,,,,,,,,,,,,,,,,,,,,,,,,,,,,,,,,
1725717338.230541,1725717338.231425,92.0,0.0,4246.153809,4266.282227,4264.358887,4272.820313,4245.128418,4250.641113,4292.94873,4231.025879,4230.641113,4219.487305,4483.205078,4506.794922,4326.410156,4411.666504,0.0,0.0,11.0,,,,0.0,4.0,4.0,4.0,4.0,4.0,4.0,4.0,4.0,4.0,4.0,4.0,4.0,4.0,4.0,100.0,,,,,,,,,,,,,,,,,,,,,,,,,,,,,,,,,,,,,,,,,,,,,,,,,,,,,,,,0.0,0.0,1.0,0.0,1024.0,0.263538,,,,,,,,,,,,,,,,,,,,,,,,,,,,,,,,,,,,,,,,,,,,,,,,,,,,,,,,,,,,,,,,,,,,,,
1725717338.234445,1725717338.235329,93.0,0.0,4247.307617,4266.153809,4266.153809,4268.077148,4244.358887,4249.743652,4291.025879,4231.153809,4232.307617,4220.384766,4476.282227,4513.077148,4326.410156,4412.820313,0.0,0.0,11.0,,,,0.0,4.0,4.0,4.0,4.0,4.0,4.0,4.0,4.0,4.0,4.0,4.0,4.0,4.0,4.0,100.0,,,,,,,,,,,,,,,,,,,,,,,,,,,,,,,,,,,,,,,,,,,,,,,,,,,,,,,,,,,,,,,,,,,,,,,,,,,,,,,,,,,,,,,,,,,,,,,,,,,,,,,,,,,,,,,,,,,,,,,,,,,,,,,,,,,
1725717338.238349,1725717338.239234,94.0,0.0,4246.794922,4265.512695,4265.897461,4264.230957,4243.205078,4248.974121,4290.512695,4232.05127,4233.589844,4220.384766,4466.922852,4516.922852,4326.922852,4413.205078,0.0,0.0,11.0,,,,0.0,4.0,4.0,4.0,4.0,4.0,4.0,4.0,4.0,4.0,4.0,4.0,4.0,4.0,4.0,100.0,,,,,,,,,,,,,,,,,,,,,,,,,,,,,,,,,,,,,,,,,,,,,,,,,,,,,,,,,,,,,,,,,,,,,,,,,,,,,,,,,,,,,,,,,,,,,,,,,,,,,,,,,,,,,,,,,,,,,,,,,,,,,,,,,,,
1725717338.242253,1725717338.243238,95.0,0.0,4245.256348,4264.487305,4263.461426,4262.692383,4242.563965,4248.717773,4291.282227,4233.205078,4233.846191,4218.974121,4461.025879,4516.025879,4327.179688,4411.922852,0.0,0.0,11.0,,,,0.0,4.0,4.0,4.0,4.0,4.0,4.0,4.0,4.0,4.0,4.0,4.0,4.0,4.0,4.0,100.0,,,,,,,,,,,,,,,,,,,,,,,,,,,,,,,,,,,,,,,,,,,,,,,,,,,,,,,,,,,,,,,,,,,,,,,,,,,,,,,,,,,,,,,,,,,,,,,,,,,,,,,,,,,,,,,,,,,,,,,,,,,,,,,,,,,
1725717338.246157,1725717338.247142,96.0,0.0,4243.717773,4263.717773,4260.897461,4262.820313,4243.077148,4248.974121,4292.307617,4233.461426,4233.205078,4216.922852,4462.563965,4511.153809,4327.179688,4409.230957,0.0,0.0,11.0,,,,0.0,4.0,4.0,4.0,4.0,4.0,4.0,4.0,4.0,4.0,4.0,4.0,4.0,4.0,4.0,100.0,,,,,,,,,,,,,,,,,,,,,,,,,,,,,,,,,,,,,,,,,,,,,,,,,,,,,,,,,,,,,,,,,,,,,,,,,,,,,,,,,,,,,,,,,,,,,,,,,,,,,,,,,,,,,,,,,,,,,,,,,,,,,,,,,,,
1725717338.250061,1725717338.251046,97.0,0.0,4243.205078,4263.461426,4260.256348,4263.205078,4244.230957,4249.487305,4292.05127,4232.05127,4232.05127,4216.025879,4470.897461,4505.256348,4327.436035,4406.538574,0.0,0.0,11.0,,,,0.0,4.0,4.0,4.0,4.0,4.0,4.0,4.0,4.0,4.0,4.0,4.0,4.0,4.0,4.0,100.0,,,,,,,,,,,,,,,,,,,,,,,,,,,,,,,,,,,,,,,,,,,,,,,,,,,,,,,,,,,,,,,,,,,,,,,,,,,,,,,,,,,,,,,,,,,,,,,,,,,,,,,,,,,,,,,,,,,,,,,,,,,,,,,,,,,
1725717338.253965,1725717338.25495,98.0,0.0,4244.102539,4262.820313,4261.538574,4263.077148,4244.487305,4249.487305,4289.615234,4229.358887,4231.282227,4217.692383,4481.025879,4501.410156,4327.820313,4405.641113,0.0,0.0,11.0,,,,0.0,4.0,4.0,4.0,4.0,4.0,4.0,4.0,4.0,4.0,4.0,4.0,4.0,4.0,4.0,100.0,,,,,,,,,,,,,,,,,,,,,,,,,,,,,,,,,,,,,,,,,,,,,,,,,,,,,,,,,,,,,,,,,,,,,,,,,,,,,,,,,,,,,,,,,,,,,,,,,,,,,,,,,,,,,,,,,,,,,,,,,,,,,,,,,,,
1725717338.257869,1725717338.258854,99.0,0.0,4246.153809,4261.666504,4263.205078,4263.077148,4243.077148,4248.846191,4285.641113,4227.05127,4231.025879,4221.025879,4486.922852,4501.153809,4327.436035,4406.922852,0.0,0.0,11.0,,,,0.0,4.0,4.0,4.0,4.0,4.0,4.0,4.0,4.0,4.0,4.0,4.0,4.0,4.0,4.0,100.0,,,,,,,,,,,,,,,,,,,,,,,,,,,,,,,,,,,,,,,,,,,,,,,,,,,,,,,,,,,,,,,,,,,,,,,,,,,,,,,,,,,,,,,,,,,,,,,,,,,,,,,,,,,,,,,,,,,,,,,,,,,,,,,,,,,
