Timestamp,OriginalTimestamp,EEG.Counter,EEG.Interpolated,EEG.AF3,EEG.F7,EEG.F3,EEG.FC5,EEG.T7,EEG.P7,EEG.O1,EEG.O2,EEG.P8,EEG.T8,EEG.FC6,EEG.F4,EEG.F8,EEG.AF4,EEG.RawCq,EEG.Battery,EEG.BatteryPercent,MarkerIndex,MarkerType,MarkerValueInt,EEG.MarkerHardware,CQ.AF3,CQ.F7,CQ.F3,CQ.FC5,CQ.T7,CQ.P7,CQ.O1,CQ.O2,CQ.P8,CQ.T8,CQ.FC6,CQ.F4,CQ.F8,CQ.AF4,CQ.Overall,EQ.SampleRateQuality,EQ.OVERALL,EQ.AF3,EQ.F7,EQ.F3,EQ.FC5,EQ.T7,EQ.P7,EQ.O1,EQ.O2,EQ.P8,EQ.T8,EQ.FC6,EQ.F4,EQ.F8,EQ.AF4,MC.Action,MC.ActionPower,MC.IsActive,PM.Attention.IsActive,PM.Attention.Scaled,PM.Attention.Raw,PM.Attention.Min,PM.Attention.Max,PM.Engagement.IsActive,PM.Engagement.Scaled,PM.Engagement.Raw,PM.Engagement.Min,PM.Engagement.Max,PM.Excitement.IsActive,PM.Excitement.Scaled,PM.Excitement.Raw,PM.Excitement.Min,PM.Excitement.Max,PM.LongTermExcitement,PM.Stress.IsActive,PM.Stress.Scaled,PM.Stress.Raw,PM.Stress.Min,PM.Stress.Max,PM.Relaxation.IsActive,PM.Relaxation.Scaled,PM.Relaxation.Raw,PM.Relaxation.Min,PM.Relaxation.Max,PM.Interest.IsActive,PM.Interest.Scaled,PM.Interest.Raw,PM.Interest.Min,PM.Interest.Max,PM.Focus.IsActive,PM.Focus.Scaled,PM.Focus.Raw,PM.Focus.Min,PM.Focus.Max,FE.BlinkWink,FE.HorizontalEyesDirection,FE.UpperFaceAction,FE.UpperFaceActionPower,FE.LowerFaceAction,FE.LowerFaceActionPower,POW.AF3.Theta,POW.AF3.Alpha,POW.AF3.BetaL,POW.AF3.BetaH,POW.AF3.Gamma,POW.F7.Theta,POW.F7.Alpha,POW.F7.BetaL,POW.F7.BetaH,POW.F7.Gamma,POW.F3.Theta,POW.F3.Alpha,POW.F3.BetaL,POW.F3.BetaH,POW.F3.Gamma,POW.FC5.Theta,POW.FC5.Alpha,POW.FC5.BetaL,POW.FC5.BetaH,POW.FC5.Gamma,POW.T7.Theta,POW.T7.Alpha,POW.T7.BetaL,POW.T7.BetaH,POW.T7.Gamma,POW.P7.Theta,POW.P7.Alpha,POW.P7.BetaL,POW.P7.BetaH,POW.P7.Gamma,POW.O1.Theta,POW.O1.Alpha,POW.O1.BetaL,POW.O1.BetaH,POW.O1.Gamma,POW.O2.Theta,POW.O2.Alpha,POW.O2.BetaL,POW.O2.BetaH,POW.O2.Gamma,POW.P8.Theta,POW.P8.Alpha,POW.P8.BetaL,POW.P8.BetaH,POW.P8.Gamma,POW.T8.Theta,POW.T8.Alpha,POW.T8.BetaL,POW.T8.BetaH,POW.T8.Gamma,POW.FC6.Theta,POW.FC6.Alpha,POW.FC6.BetaL,POW.FC6.BetaH,POW.FC6.Gamma,POW.F4.Theta,POW.F4.Alpha,POW.F4.BetaL,POW.F4.BetaH,POW.F4.Gamma,POW.F8.Theta,POW.F8.Alpha,POW.F8.BetaL,POW.F8.BetaH,POW.F8.Gamma,POW.AF4.Theta,POW.AF4.Alpha,POW.AF4.BetaL,POW.AF4.BetaH,POW.AF4.Gamma
1725715989.907113,1725715989.908671,75.0,0.0,4273.333496,4277.692383,4313.974121,4369.871582,4257.307617,4312.820313,4157.563965,4292.05127,4272.307617,4263.589844,4495.897461,4543.846191,4380.897461,4441.410156,0.0,1.0,15.0,7.0,1.0,1.0,0.0,4.0,4.0,4.0,4.0,4.0,4.0,4.0,4.0,4.0,4.0,4.0,4.0,4.0,4.0,100.0,,,,,,,,,,,,,,,,,,,,,,,,,,,,,,,,,,,,,,,,,,,,,,,,,,,,,,,,,,,,,,,,,,,,,,,,,,,,,,,,,,,,,,,,,,,,,,,,,,,,,,,,,,,,,,,,,,,,,,,,,,,,,,,,,,,
1725715989.911017,1725715989.912576,76.0,0.0,4278.077148,4278.077148,4313.846191,4369.871582,4258.974121,4310.0,4153.205078,4291.410156,4273.333496,4262.820313,4496.025879,4544.102539,4381.282227,4443.717773,0.0,1.0,15.0,,,,0.0,4.0,4.0,4.0,4.0,4.0,4.0,4.0,4.0,4.0,4.0,4.0,4.0,4.0,4.0,100.0,,,,,,,,,,,,,,,,,,,,,,,,,,,,,,,,,,,,,,,,,,,,,,,,,,,,,,,,0.0,0.0,1.0,0.0,1.0,0.0,,,,,,,,,,,,,,,,,,,,,,,,,,,,,,,,,,,,,,,,,,,,,,,,,,,,,,,,,,,,,,,,,,,,,,
1725715989.914921,1725715989.91648,77.0,0.0,4281.282227,4278.333496,4312.94873,4369.615234,4257.307617,4306.153809,4151.410156,4288.846191,4273.846191,4260.512695,4494.871582,4543.717773,4378.333496,4443.077148,0.0,1.0,15.0,,,,0.0,4.0,4.0,4.0,4.0,4.0,4.0,4.0,4.0,4.0,4.0,4.0,4.0,4.0,4.0,100.0,,,,,,,,,,,,,,,,,,,,,,,,,,,,,,,,,,,,,,,,,,,,,,,,,,,,,,,,,,,,,,,,,,,,,,,,,,,,,,,,,,,,,,,,,,,,,,,,,,,,,,,,,,,,,,,,,,,,,,,,,,,,,,,,,,,
1725715989.918826,1725715989.920384,78.0,0.0,4282.820313,4278.846191,4312.307617,4369.871582,4253.974121,4302.94873,4151.922852,4284.871582,4273.717773,4257.307617,4493.589844,4543.461426,4374.871582,4440.128418,0.0,1.0,15.0,,,,0.0,4.0,4.0,4.0,4.0,4.0,4.0,4.0,4.0,4.0,4.0,4.0,4.0,4.0,4.0,100.0,,,,,,,,,,,,,,,,,,,,,,,,,,,,,,,,,,,,,,,,,,,,,,,,,,,,,,,,,,,,,,,,,,,,,,,,,,,,,,,,,,,,,,,,,,,,,,,,,,,,,,,,,,,,,,,,,,,,,,,,,,,,,,,,,,,
1725715989.92273,1725715989.924388,79.0,0.0,4283.205078,4279.358887,4312.563965,4369.743652,4251.025879,4301.410156,4152.820313,4281.410156,4272.820313,4254.230957,4492.563965,4543.461426,4373.333496,4436.538574,0.0,1.0,15.0,,,,0.0,4.0,4.0,4.0,4.0,4.0,4.0,4.0,4.0,4.0,4.0,4.0,4.0,4.0,4.0,100.0,,,,,,,,,,,,,,,,,,,,,,,,,,,,,,,,,,,,,,,,,,,,,,,,,,,,,,,,,,,,,,,,,,,,,,,,,,,,,,,,,,,,,,,,,,,,,,,,,,,,,,,,,,,,,,,,,,,,,,,,,,,,,,,,,,,
1725715989.926634,1725715989.928292,80.0,0.0,4283.333496,4278.846191,4313.077148,4367.307617,4249.871582,4301.410156,4152.307617,4279.871582,4270.641113,4251.922852,4491.153809,4542.436035,4373.717773,4433.717773,0.0,1.0,15.0,,,,0.0,4.0,4.0,4.0,4.0,4.0,4.0,4.0,4.0,4.0,4.0,4.0,4.0,4.0,4.0,100.0,,,,,,,,,,,,,,,,,,,,,,,,,,,,,,,,,,,,,,,,,,,,,,,,,,,,,,,,,,,,,,,,,,,,,,,,,,,,,,,,,,,,,,,,,,,,,,,,,,,,,,,,,,,,,,,,,,,,,,,,,,,,,,,,,,,
1725715989.930538,1725715989.932196,81.0,0.0,4283.846191,4276.922852,4313.333496,4360.897461,4250.128418,4302.05127,4150.256348,4279.871582,4266.922852,4250.384766,4488.205078,4539.102539,4373.846191,4431.538574,0.0,1.0,15.0,,,,0.0,4.0,4.0,4.0,4.0,4.0,4.0,4.0,4.0,4.0,4.0,4.0,4.0,4.0,4.0,100.0,,,,,,,,,,,,,,,,,,,,,,,,,,,,,,,,,,,,,,,,,,,,,,,,,,,,,,,,,,,,,,,,,,,,,,,,,,,,,,,,,,,,,,,,,,,,,,,,,,,,,,,,,,,,,,,,,,,,,,,,,,,,,,,,,,,
1725715989.934442,1725715989.9361,82.0,0.0,4284.358887,4273.333496,4312.563965,4350.512695,4251.025879,4303.077148,4147.94873,4279.615234,4262.94873,4248.846191,4483.589844,4533.589844,4371.282227,4428.717773,0.0,1.0,15.0,,,,0.0,4.0,4.0,4.0,4.0,4.0,4.0,4.0,4.0,4.0,4.0,4.0,4.0,4.0,4.0,100.0,,,,,,,,,,,,,,,,,,,,,,,,,,,,,,,,,,,,,,,,,,,,,,,,,,,,,,,,,,,,,,,,,,,,,,,,,,,,,,,,,,,,,,,,,,,,,,,,,,,,,,,,,,,,,,,,,,,,,,,,,,,,,,,,,,,
1725715989.938346,1725715989.940004,83.0,0.0,4284.358887,4269.102539,4310.897461,4338.333496,4251.794922,4304.102539,4146.538574,4277.436035,4260.128418,4247.179688,4478.589844,4527.05127,4366.282227,4424.102539,0.0,1.0,15.0,,,,0.0,4.0,4.0,4.0,4.0,4.0,4.0,4.0,4.0,4.0,4.0,4.0,4.0,4.0,4.0,100.0,,,,,,,,,,,,,,,,,,,,,,,,,,,,,,,,,,,,,,,,,,,,,,,,,,,,,,,,,,,,,,,,,,,,,,,,,,,,,,,,,,,,,,,,,,,,,,,,,,,,,,,,,,,,,,,,,,,,,,,,,,,,,,,,,,,
1725715989.94225,1725715989.943808,84.0,0.0,4282.94873,4265.641113,4308.589844,4328.205078,4251.410156,4304.358887,4146.282227,4273.846191,4259.743652,4245.769043,4475.128418,4521.666504,4361.153809,4418.333496,0.0,1.0,15.0,,,,0.0,4.0,4.0,4.0,4.0,4.0,4.0,4.0,4.0,4.0,4.0,4.0,4.0,4.0,4.0,100.0,,,,,,,,,,,,,,,,,1.0,0.0,0.0,,,,,,,,,,,,,,,,,,,,,,,,,,,,,,,,,,,,,0.0,0.0,1.0,0.0,1.0,0.0,3.201348,1.684063,0.88274,0.396554,0.132153,1.483687,0.983206,0.542798,0.160999,0.046651,0.800882,0.700402,0.482451,0.143869,0.063831,4.461647,2.566854,0.896213,0.370955,0.111421,0.460252,0.770165,0.232234,0.082739,0.04079,0.156629,0.29148,0.103917,0.056478,0.047752,2.143139,0.800155,0.453199,0.101738,0.071627,1.156432,1.354408,0.330864,0.299989,0.060115,1.095967,0.618772,0.540443,0.233541,0.077202,1.429706,1.028995,0.785026,0.264252,0.054695,1.664289,1.852501,0.763338,0.406804,0.144035,1.984349,2.059828,1.037797,0.434305,0.115554,2.554709,2.006488,0.932886,0.394564,0.184721,1.444794,1.551646,0.876352,0.292554,0.075652
1725715989.946154,1725715989.947712,85.0,0.0,4280.384766,4263.974121,4306.410156,4323.077148,4249.743652,4303.077148,4146.282227,4271.153809,4261.410156,4245.512695,4474.230957,4519.102539,4358.717773,4413.717773,0.0,1.0,15.0,,,,0.0,4.0,4.0,4.0,4.0,4.0,4.0,4.0,4.0,4.0,4.0,4.0,4.0,4.0,4.0,100.0,,,,,,,,,,,,,,,,,,,,,,,,,,,,,,,,,,,,,,,,,,,,,,,,,,,,,,,,,,,,,,,,,,,,,,,,,,,,,,,,,,,,,,,,,,,,,,,,,,,,,,,,,,,,,,,,,,,,,,,,,,,,,,,,,,,
1725715989.950058,1725715989.951617,86.0,0.0,4278.205078,4263.974121,4305.256348,4323.205078,4247.563965,4300.641113,4145.384766,4271.410156,4263.846191,4246.666504,4475.512695,4519.487305,4359.743652,4412.692383,0.0,1.0,15.0,,,,0.0,4.0,4.0,4.0,4.0,4.0,4.0,4.0,4.0,4.0,4.0,4.0,4.0,4.0,4.0,100.0,,,,,,,,,,,,,,,,,,,,,,,,,,,,,,,,,,,,,,,,,,,,,,,,,,,,,,,,,,,,,,,,,,,,,,,,,,,,,,,,,,,,,,,,,,,,,,,,,,,,,,,,,,,,,,,,,,,,,,,,,,,,,,,,,,,
1725715989.953962,1725715989.955621,87.0,0.0,4277.692383,4264.871582,4306.025879,4326.153809,4246.025879,4297.820313,4143.333496,4274.487305,4265.512695,4248.846191,4477.436035,4522.05127,4362.692383,4415.384766,0.0,1.0,15.0,,,,0.0,4.0,4.0,4.0,4.0,4.0,4.0,4.0,4.0,4.0,4.0,4.0,4.0,4.0,4.0,100.0,,,,,,,,,,,,,,,,,,,,,,,,,,,,,,,,,,,,,,,,,,,,,,,,,,,,,,,,,,,,,,,,,,,,,,,,,,,,,,,,,,,,,,,,,,,,,,,,,,,,,,,,,,,,,,,,,,,,,,,,,,,,,,,,,,,
1725715989.957867,1725715989.959525,88.0,0.0,4278.717773,4265.769043,4308.077148,4328.333496,4245.128418,4295.256348,4141.025879,4277.94873,4266.153809,4250.769043,4479.102539,4525.128418,4364.871582,4420.0,0.0,1.0,15.0,,,,0.0,4.0,4.0,4.0,4.0,4.0,4.0,4.0,4.0,4.0,4.0,4.0,4.0,4.0,4.0,100.0,,,,,,,,,,,,,,,,,,,,,,,,,,,,,,,,,,,,,,,,,,,,,,,,,,,,,,,,,,,,,,,,,,,,,,,,,,,,,,,,,,,,,,,,,,,,,,,,,,,,,,,,,,,,,,,,,,,,,,,,,,,,,,,,,,,
1725715989.961771,1725715989.963429,89.0,0.0,4279.871582,4265.897461,4310.256348,4327.94873,4244.487305,4293.717773,4139.871582,4280.0,4266.410156,4252.05127,4480.384766,4527.94873,4365.512695,4423.846191,0.0,1.0,15.0,,,,0.0,4.0,4.0,4.0,4.0,4.0,4.0,4.0,4.0,4.0,4.0,4.0,4.0,4.0,4.0,100.0,,,,,,,,,,,,,,,,,,,,,,,,,,,,,,,,,,,,,,,,,,,,,,,,,,,,,,,,,,,,,,,,,,,,,,,,,,,,,,,,,,,,,,,,,,,,,,,,,,,,,,,,,,,,,,,,,,,,,,,,,,,,,,,,,,,
1725715989.965675,1725715989.967333,90.0,0.0,4280.128418,4265.256348,4311.282227,4325.384766,4243.589844,4293.589844,4139.871582,4281.153809,4267.563965,4252.820313,4482.563965,4530.641113,4365.641113,4426.025879,0.0,1.0,15.0,,,,0.0,4.0,4.0,4.0,4.0,4.0,4.0,4.0,4.0,4.0,4.0,4.0,4.0,4.0,4.0,100.0,,,,,,,,,,,,,,,,,,,,,,,,,,,,,,,,,,,,,,,,,,,,,,,,,,,,,,,,,,,,,,,,,,,,,,,,,,,,,,,,,,,,,,,,,,,,,,,,,,,,,,,,,,,,,,,,,,,,,,,,,,,,,,,,,,,
1725715989.969579,1725715989.971137,91.0,0.0,4280.0,4264.615234,4310.897461,4323.333496,4242.692383,4294.615234,4140.128418,4283.077148,4270.512695,4254.230957,4486.282227,4533.974121,4366.794922,4427.05127,0.0,1.0,15.0,,,,0.0,4.0,4.0,4.0,4.0,4.0,4.0,4.0,4.0,4.0,4.0,4.0,4.0,4.0,4.0,100.0,,,,,,,,,,,,,,,,,,,,,,,,,,,,,,,,,,,,,,,,,,,,,,,,,,,,,,,,,,,,,,,,,,,,,,,,,,,,,,,,,,,,,,,,,,,,,,,,,,,,,,,,,,,,,,,,,,,,,,,,,,,,,,,,,,,
1725715989.973483,1725715989.975041,92.0,0.0,4280.897461,4264.615234,4310.0,4324.358887,4242.94873,4295.769043,4139.743652,4286.666504,4275.128418,4256.794922,4490.769043,4537.94873,4369.230957,4427.563965,0.0,1.0,15.0,,,,0.0,4.0,4.0,4.0,4.0,4.0,4.0,4.0,4.0,4.0,4.0,4.0,4.0,4.0,4.0,100.0,,,,,,,,,,,,,,,,,,,,,,,,,,,,,,,,,,,,,,,,,,,,,,,,,,,,,,,,0.0,0.0,1.0,0.0,1.0,0.0,,,,,,,,,,,,,,,,,,,,,,,,,,,,,,,,,,,,,,,,,,,,,,,,,,,,,,,,,,,,,,,,,,,,,,
1725715989.977387,1725715989.978945,93.0,0.0,4283.589844,4265.256348,4309.615234,4328.205078,4244.358887,4295.512695,4138.461426,4290.512695,4279.615234,4260.256348,4493.461426,4541.025879,4371.922852,4427.94873,0.0,1.0,15.0,,,,0.0,4.0,4.0,4.0,4.0,4.0,4.0,4.0,4.0,4.0,4.0,4.0,4.0,4.0,4.0,100.0,,,,,,,,,,,,,,,,,,,,,,,,,,,,,,,,,,,,,,,,,,,,,,,,,,,,,,,,,,,,,,,,,,,,,,,,,,,,,,,,,,,,,,,,,,,,,,,,,,,,,,,,,,,,,,,,,,,,,,,,,,,,,,,,,,,
1725715989.981291,1725715989.982849,94.0,0.0,4287.307617,4265.897461,4310.128418,4332.692383,4246.025879,4292.94873,4136.794922,4292.820313,4282.692383,4263.461426,4492.563965,4541.282227,4373.846191,4428.333496,0.0,1.0,15.0,,,,0.0,4.0,4.0,4.0,4.0,4.0,4.0,4.0,4.0,4.0,4.0,4.0,4.0,4.0,4.0,100.0,,,,,,,,,,,,,,,,,,,,,,,,,,,,,,,,,,,,,,,,,,,,,,,,,,,,,,,,,,,,,,,,,,,,,,,,,,,,,,,,,,,,,,,,,,,,,,,,,,,,,,,,,,,,,,,,,,,,,,,,,,,,,,,,,,,
1725715989.985195,1725715989.986654,95.0,0.0,4290.641113,4266.025879,4310.769043,4335.384766,4246.666504,4288.205078,4135.512695,4292.692383,4283.205078,4264.487305,4489.102539,4539.102539,4374.487305,4428.846191,0.0,1.0,15.0,,,,0.0,4.0,4.0,4.0,4.0,4.0,4.0,4.0,4.0,4.0,4.0,4.0,4.0,4.0,4.0,100.0,,,,,,,,,,,,,,,,,,,,,,,,,,,,,,,,,,,,,,,,,,,,,,,,,,,,,,,,,,,,,,,,,,,,,,,,,,,,,,,,,,,,,,,,,,,,,,,,,,,,,,,,,,,,,,,,,,,,,,,,,,,,,,,,,,,
1725715989.989099,1725715989.990558,96.0,0.0,4292.436035,4265.897461,4310.769043,4335.897461,4245.641113,4282.820313,4134.871582,4290.769043,4281.794922,4263.461426,4486.538574,4536.922852,4374.871582,4430.128418,0.0,1.0,15.0,,,,0.0,4.0,4.0,4.0,4.0,4.0,4.0,4.0,4.0,4.0,4.0,4.0,4.0,4.0,4.0,100.0,,,,,,,,,,,,,,,,,,,,,,,,,,,,,,,,,,,,,,,,,,,,,,,,,,,,,,,,,,,,,,,,,,,,,,,,,,,,,,,,,,,,,,,,,,,,,,,,,,,,,,,,,,,,,,,,,,,,,,,,,,,,,,,,,,,
1725715989.993003,1725715989.994462,97.0,0.0,4293.205078,4265.769043,4309.871582,4335.256348,4243.974121,4279.102539,4133.974121,4289.102539,4279.871582,4262.05127,4488.461426,4537.436035,4376.282227,4432.94873,0.0,1.0,15.0,,,,0.0,4.0,4.0,4.0,4.0,4.0,4.0,4.0,4.0,4.0,4.0,4.0,4.0,4.0,4.0,100.0,,,,,,,,,,,,,,,,,,,,,,,,,,,,,,,,,,,,,,,,,,,,,,,,,,,,,,,,,,,,,,,,,,,,,,,,,,,,,,,,,,,,,,,,,,,,,,,,,,,,,,,,,,,,,,,,,,,,,,,,,,,,,,,,,,,
1725715989.996908,1725715989.998466,98.0,0.0,4293.717773,4265.897461,4308.846191,4335.384766,4242.820313,4278.077148,4132.179688,4289.615234,4278.974121,4262.307617,4495.0,4541.153809,4379.358887,4437.820313,0.0,1.0,15.0,,,,0.0,4.0,4.0,4.0,4.0,4.0,4.0,4.0,4.0,4.0,4.0,4.0,4.0,4.0,4.0,100.0,,,,,,,,,,,,,,,,,,,,,,,,,,,,,,,,,,,,,,,,,,,,,,,,,,,,,,,,,,,,,,,,,,,,,,,,,,,,,,,,,,,,,,,,,,,,,,,,,,,,,,,,,,,,,,,,,,,,,,,,,,,,,,,,,,,
1725715990.000812,1725715990.00237,99.0,0.0,4294.871582,4266.025879,4308.717773,4337.307617,4242.820313,4279.358887,4129.487305,4292.692383,4279.487305,4264.102539,4502.94873,4545.769043,4383.461426,4443.205078,0.0,1.0,15.0,,,,0.0,4.0,4.0,4.0,4.0,4.0,4.0,4.0,4.0,4.0,4.0,4.0,4.0,4.0,4.0,100.0,,,,,,,,,,,,,,,,,,,,,,,,,,,,,,,,,,,,,,,,,,,,,,,,,,,,,,,,,,,,,,,,,,,,,,,,,,,,,,,,,,,,,,,,,,,,,,,,,,,,,,,,,,,,,,,,,,,,,,,,,,,,,,,,,,,
1725715990.004716,1725715990.006274,100.0,0.0,4297.05127,4266.025879,4309.615234,4340.641113,4243.974121,4281.282227,4126.410156,4296.282227,4280.512695,4265.384766,4507.692383,4548.717773,4386.666504,4446.282227,0.0,1.0,15.0,,,,0.0,4.0,4.0,4.0,4.0,4.0,4.0,4.0,4.0,4.0,4.0,4.0,4.0,4.0,4.0,100.0,,,,,,,,,,,,,,,,,,,,,,,,,,,,,,,,,,,,,,,,,,,,,,,,,,,,,,,,11.0,0.0,1.0,0.0,1.0,0.0,,,,,,,,,,,,,,,,,,,,,,,,,,,,,,,,,,,,,,,,,,,,,,,,,,,,,,,,,,,,,,,,,,,,,,
1725715990.00862,1725715990.010178,101.0,0.0,4299.102539,4265.897461,4310.897461,4343.461426,4245.128418,4282.307617,4123.717773,4297.563965,4280.512695,4264.487305,4506.538574,4548.205078,4386.922852,4444.743652,0.0,1.0,15.0,,,,0.0,4.0,4.0,4.0,4.0,4.0,4.0,4.0,4.0,4.0,4.0,4.0,4.0,4.0,4.0,100.0,,,,,,,,,,,,,,,,,,,,,,,,,,,,,,,,,,,,,,,,,,,,,,,,,,,,,,,,,,,,,,,,,,,,,,,,,,,,,,,,,,,,,,,,,,,,,,,,,,,,,,,,,,,,,,,,,,,,,,,,,,,,,,,,,,,
1725715990.012524,1725715990.014182,102.0,0.0,4299.358887,4265.641113,4311.538574,4344.487305,4245.256348,4281.538574,4122.307617,4294.871582,4278.333496,4261.153809,4500.512695,4544.487305,4383.717773,4439.230957,0.0,1.0,15.0,,,,0.0,4.0,4.0,4.0,4.0,4.0,4.0,4.0,4.0,4.0,4.0,4.0,4.0,4.0,4.0,100.0,,,,,,,,,,,,,,,,,,,,,,,,,,,,,,,,,,,,,,,,,,,,,,,,,,,,,,,,,,,,,,,,,,,,,,,,,,,,,,,,,,,,,,,,,,,,,,,,,,,,,,,,,,,,,,,,,,,,,,,,,,,,,,,,,,,
1725715990.016428,1725715990.018086,103.0,0.0,4297.436035,4265.512695,4311.282227,4343.589844,4244.487305,4279.871582,4122.436035,4289.230957,4273.974121,4256.410156,4493.077148,4539.487305,4378.589844,4432.820313,0.0,1.0,15.0,,,,0.0,4.0,4.0,4.0,4.0,4.0,4.0,4.0,4.0,4.0,4.0,4.0,4.0,4.0,4.0,100.0,,,,,,,,,,,,,,,,,,,,,,,,,,,,,,,,,,,,,,,,,,,,,,,,,,,,,,,,,,,,,,,,,,,,,,,,,,,,,,,,,,,,,,,,,,,,,,,,,,,,,,,,,,,,,,,,,,,,,,,,,,,,,,,,,,,
1725715990.020332,1725715990.02199,104.0,0.0,4293.974121,4265.384766,4310.384766,4341.794922,4243.589844,4278.589844,4123.974121,4283.461426,4268.846191,4251.666504,4487.820313,4535.512695,4373.589844,4428.846191,0.0,1.0,15.0,,,,0.0,4.0,4.0,4.0,4.0,4.0,4.0,4.0,4.0,4.0,4.0,4.0,4.0,4.0,4.0,100.0,,,,,,,,,,,,,,,,,,,,,,,,,,,,,,,,,,,,,,,,,,,,,,,,,,,,,,,,,,,,,,,,,,,,,,,,,,,,,,,,,,,,,,,,,,,,,,,,,,,,,,,,,,,,,,,,,,,,,,,,,,,,,,,,,,,
1725715990.024236,1725715990.025894,105.0,0.0,4291.153809,4265.641113,4309.615234,4341.153809,4243.589844,4278.333496,4126.025879,4279.871582,4264.487305,4248.205078,4485.897461,4533.717773,4370.769043,4427.692383,0.0,1.0,15.0,,,,0.0,4.0,4.0,4.0,4.0,4.0,4.0,4.0,4.0,4.0,4.0,4.0,4.0,4.0,4.0,100.0,,,,,,,,,,,,,,,,,,,,,,,,,,,,,,,,,,,,,,,,,,,,,,,,,,,,,,,,,,,,,,,,,,,,,,,,,,,,,,,,,,,,,,,,,,,,,,,,,,,,,,,,,,,,,,,,,,,,,,,,,,,,,,,,,,,
1725715990.02814,1725715990.029898,106.0,0.0,4290.512695,4266.153809,4309.358887,4342.179688,4245.128418,4279.230957,4127.692383,4278.974121,4262.820313,4246.666504,4486.666504,4534.230957,4370.384766,4428.205078,0.0,1.0,15.0,,,,0.0,4.0,4.0,4.0,4.0,4.0,4.0,4.0,4.0,4.0,4.0,4.0,4.0,4.0,4.0,100.0,,,,,,,,,,,,,,,,,,,,,,,,,,,,,,,,,,,,,,,,,,,,,,,,,,,,,,,,,,,,,,,,,,,,,,,,,,,,,,,,,,,,,,,,,,,,,,,,,,,,,,,,,,,,,,,,,,,,,,,,,,,,,,,,,,,
1725715990.032045,1725715990.033803,107.0,0.0,4292.179688,4266.538574,4309.871582,4344.487305,4247.05127,4280.769043,4127.94873,4279.871582,4264.358887,4247.563965,4488.205078,4535.641113,4371.410156,4428.589844,0.0,1.0,15.0,,,,0.0,4.0,4.0,4.0,4.0,4.0,4.0,4.0,4.0,4.0,4.0,4.0,4.0,4.0,4.0,100.0,,,,,,,,,,,,,,,,,,,,,,,,,,,,,,,,,,,,,,,,,,,,,,,,,,,,,,,,,,,,,,,,,,,,,,,,,,,,,,,,,,,,,,,,,,,,,,,,,,,,,,,,,,,,,,,,,,,,,,,,,,,,,,,,,,,
1725715990.035949,1725715990.037707,108.0,0.0,4294.615234,4266.794922,4310.641113,4346.282227,4248.333496,4281.794922,4126.794922,4281.794922,4268.461426,4250.641113,4489.230957,4537.05127,4372.820313,4428.846191,0.0,1.0,15.0,,,,0.0,4.0,4.0,4.0,4.0,4.0,4.0,4.0,4.0,4.0,4.0,4.0,4.0,4.0,4.0,100.0,,,,,,,,,,,,,,,,,,,,,,,,,,,,,,,,,,,,,,,,,,,,,,,,,,,,,,,,11.0,0.0,1.0,0.0,1.0,0.0,,,,,,,,,,,,,,,,,,,,,,,,,,,,,,,,,,,,,,,,,,,,,,,,,,,,,,,,,,,,,,,,,,,,,,
1725715990.039853,1725715990.041611,109.0,0.0,4296.282227,4266.794922,4311.025879,4346.410156,4248.205078,4281.025879,4124.743652,4284.871582,4273.589844,4254.615234,4489.615234,4538.333496,4374.102539,4429.615234,0.0,1.0,15.0,,,,0.0,4.0,4.0,4.0,4.0,4.0,4.0,4.0,4.0,4.0,4.0,4.0,4.0,4.0,4.0,100.0,,,,,,,,,,,,,,,,,,,,,,,,,,,,,,,,,,,,,,,,,,,,,,,,,,,,,,,,,,,,,,,,,,,,,,,,,,,,,,,,,,,,,,,,,,,,,,,,,,,,,,,,,,,,,,,,,,,,,,,,,,,,,,,,,,,
1725715990.043757,1725715990.045515,110.0,0.0,4296.666504,4266.666504,4310.641113,4345.128418,4247.05127,4277.94873,4122.563965,4288.461426,4277.692383,4257.94873,4490.0,4539.487305,4374.743652,4431.153809,0.0,1.0,15.0,,,,0.0,4.0,4.0,4.0,4.0,4.0,4.0,4.0,4.0,4.0,4.0,4.0,4.0,4.0,4.0,100.0,,,,,,,,,,,,,,,,,,,,,,,,,,,,,,,,,,,,,,,,,,,,,,,,,,,,,,,,,,,,,,,,,,,,,,,,,,,,,,,,,,,,,,,,,,,,,,,,,,,,,,,,,,,,,,,,,,,,,,,,,,,,,,,,,,,
1725715990.047661,1725715990.049319,111.0,0.0,4296.410156,4266.282227,4309.615234,4343.846191,4245.897461,4273.333496,4121.153809,4290.641113,4279.743652,4260.256348,4490.512695,4540.769043,4374.743652,4432.94873,0.0,1.0,15.0,,,,0.0,4.0,4.0,4.0,4.0,4.0,4.0,4.0,4.0,4.0,4.0,4.0,4.0,4.0,4.0,100.0,,,,,,,,,,,,,,,,,,,,,,,,,,,,,,,,,,,,,,,,,,,,,,,,,,,,,,,,,,,,,,,,,,,,,,,,,,,,,,,,,,,,,,,,,,,,,,,,,,,,,,,,,,,,,,,,,,,,,,,,,,,,,,,,,,,
1725715990.051565,1725715990.053223,112.0,0.0,4296.282227,4265.512695,4308.974121,4343.589844,4245.512695,4268.974121,4121.025879,4290.384766,4279.743652,4261.282227,4490.641113,4541.666504,4373.974121,4434.358887,0.0,1.0,15.0,,,,0.0,4.0,4.0,4.0,4.0,4.0,4.0,4.0,4.0,4.0,4.0,4.0,4.0,4.0,4.0,100.0,,,,,,,,,,,,,,,,,,,,,,,,,,,,,,,,,,,,,,,,,,,,,,,,,,,,,,,,,,,,,,,,,,,,,,,,,,,,,,,,,,,,,,,,,,,,,,,,,,,,,,,,,,,,,,,,,,,,,,,,,,,,,,,,,,,
1725715990.055469,1725715990.057127,113.0,0.0,4296.666504,4265.0,4309.743652,4344.615234,4246.282227,4266.794922,4121.666504,4287.94873,4278.589844,4261.282227,4489.743652,4542.05127,4373.717773,4434.743652,0.0,1.0,15.0,,,,0.0,4.0,4.0,4.0,4.0,4.0,4.0,4.0,4.0,4.0,4.0,4.0,4.0,4.0,4.0,100.0,,,,,,,,,,,,,,,,,,,,,,,,,,,,,,,,,,,,,,,,,,,,,,,,,,,,,,,,,,,,,,,,,,,,,,,,,,,,,,,,,,,,,,,,,,,,,,,,,,,,,,,,,,,,,,,,,,,,,,,,,,,,,,,,,,,
1725715990.059373,1725715990.060931,114.0,0.0,4297.307617,4265.897461,4312.179688,4346.666504,4247.94873,4267.307617,4122.05127,4285.384766,4277.563965,4260.897461,4488.846191,4541.666504,4374.487305,4434.487305,0.0,1.0,15.0,,,,0.0,4.0,4.0,4.0,4.0,4.0,4.0,4.0,4.0,4.0,4.0,4.0,4.0,4.0,4.0,100.0,,,,,,,,,,,,,,,,,,,,,,,,,,,,,,,,,,,,,,,,,,,,,,,,,,,,,,,,,,,,,,,,,,,,,,,,,,,,,,,,,,,,,,,,,,,,,,,,,,,,,,,,,,,,,,,,,,,,,,,,,,,,,,,,,,,
1725715990.063277,1725715990.064836,115.0,0.0,4297.692383,4268.846191,4315.641113,4348.974121,4249.102539,4269.358887,4122.05127,4283.974121,4277.820313,4261.153809,4489.871582,4541.538574,4376.666504,4433.974121,0.0,1.0,15.0,,,,0.0,4.0,4.0,4.0,4.0,4.0,4.0,4.0,4.0,4.0,4.0,4.0,4.0,4.0,4.0,100.0,,,,,,,,,,,,,,,,,,,,,,,,,,,,,,,,,,,,,,,,,,,,,,,,,,,,,,,,,,,,,,,,,,,,,,,,,,,,,,,,,,,,,,,,,,,,,,,,,,,,,,,,,,,,,,,,,,,,,,,,,,,,,,,,,,,
1725715990.067181,1725715990.06874,116.0,0.0,4297.436035,4273.077148,4318.717773,4350.512695,4249.230957,4270.769043,4121.794922,4284.230957,4279.358887,4262.563965,4492.692383,4541.794922,4379.743652,4433.333496,0.0,1.0,15.0,,,,0.0,4.0,4.0,4.0,4.0,4.0,4.0,4.0,4.0,4.0,4.0,4.0,4.0,4.0,4.0,100.0,,,,,,,,,,,,,,,,,1.0,0.0,0.0,,,,,,,,,,,,,,,,,,,,,,,,,,,,,,,,,,,,,11.0,0.0,1.0,0.0,1.0,0.0,5.820357,1.765171,1.143044,0.627665,0.175151,1.452077,0.946503,0.439766,0.161843,0.039925,1.151479,0.748025,0.526521,0.18116,0.064773,2.896483,1.900045,0.483677,0.296149,0.092043,0.482313,0.8803,0.200831,0.090715,0.039312,0.161977,0.218574,0.114196,0.057255,0.047528,1.685556,0.767901,0.461122,0.117831,0.076354,1.307035,1.526711,0.314439,0.288842,0.05876,1.095241,0.4671,0.355749,0.21068,0.074208,1.530113,0.665183,0.661046,0.288029,0.068456,1.579892,1.485983,0.568668,0.378995,0.140827,1.998409,1.799218,0.740255,0.421392,0.127606,2.133604,1.57787,0.727304,0.411213,0.184054,1.325644,1.215086,0.680843,0.249027,0.078177
1725715990.071085,1725715990.072644,117.0,0.0,4296.666504,4276.153809,4320.256348,4351.025879,4248.461426,4269.871582,4121.538574,4285.512695,4281.410156,4264.615234,4494.743652,4541.922852,4382.05127,4432.436035,0.0,1.0,15.0,,,,0.0,4.0,4.0,4.0,4.0,4.0,4.0,4.0,4.0,4.0,4.0,4.0,4.0,4.0,4.0,100.0,,,,,,,,,,,,,,,,,,,,,,,,,,,,,,,,,,,,,,,,,,,,,,,,,,,,,,,,,,,,,,,,,,,,,,,,,,,,,,,,,,,,,,,,,,,,,,,,,,,,,,,,,,,,,,,,,,,,,,,,,,,,,,,,,,,
1725715990.074989,1725715990.076448,118.0,0.0,4295.641113,4276.153809,4319.871582,4350.641113,4247.307617,4266.794922,4121.410156,4287.307617,4282.94873,4265.512695,4493.205078,4541.153809,4381.538574,4431.153809,0.0,1.0,15.0,,,,0.0,4.0,4.0,4.0,4.0,4.0,4.0,4.0,4.0,4.0,4.0,4.0,4.0,4.0,4.0,100.0,,,,,,,,,,,,,,,,,,,,,,,,,,,,,,,,,,,,,,,,,,,,,,,,,,,,,,,,,,,,,,,,,,,,,,,,,,,,,,,,,,,,,,,,,,,,,,,,,,,,,,,,,,,,,,,,,,,,,,,,,,,,,,,,,,,
1725715990.078894,1725715990.080352,119.0,0.0,4294.487305,4272.563965,4318.333496,4350.769043,4246.153809,4263.717773,4121.666504,4289.102539,4282.692383,4263.589844,4487.820313,4539.743652,4376.922852,4429.615234,0.0,1.0,15.0,,,,0.0,4.0,4.0,4.0,4.0,4.0,4.0,4.0,4.0,4.0,4.0,4.0,4.0,4.0,4.0,100.0,,,,,,,,,,,,,,,,,,,,,,,,,,,,,,,,,,,,,,,,,,,,,,,,,,,,,,,,,,,,,,,,,,,,,,,,,,,,,,,,,,,,,,,,,,,,,,,,,,,,,,,,,,,,,,,,,,,,,,,,,,,,,,,,,,,
1725715990.082798,1725715990.084256,120.0,0.0,4293.589844,4267.179688,4317.05127,4352.05127,4245.384766,4262.692383,4121.794922,4290.384766,4280.641113,4259.102539,4481.410156,4538.461426,4370.0,4428.333496,0.0,1.0,15.0,,,,0.0,4.0,4.0,4.0,4.0,4.0,4.0,4.0,4.0,4.0,4.0,4.0,4.0,4.0,4.0,100.0,,,,,,,,,,,,,,,,,,,,,,,,,,,,,,,,,,,,,,,,,,,,,,,,,,,,,,,,,,,,,,,,,,,,,,,,,,,,,,,,,,,,,,,,,,,,,,,,,,,,,,,,,,,,,,,,,,,,,,,,,,,,,,,,,,,
1725715990.086702,1725715990.08816,121.0,0.0,4293.333496,4263.461426,4317.05127,4354.230957,4245.641113,4263.846191,4122.05127,4290.512695,4278.077148,4253.846191,4477.563965,4538.077148,4364.487305,4427.94873,0.0,1.0,15.0,,,,0.0,4.0,4.0,4.0,4.0,4.0,4.0,4.0,4.0,4.0,4.0,4.0,4.0,4.0,4.0,100.0,,,,,,,,,,,,,,,,,,,,,,,,,,,,,,,,,,,,,,,,,,,,,,,,,,,,,,,,,,,,,,,,,,,,,,,,,,,,,,,,,,,,,,,,,,,,,,,,,,,,,,,,,,,,,,,,,,,,,,,,,,,,,,,,,,,
1725715990.090606,1725715990.091965,122.0,0.0,4294.102539,4263.333496,4318.717773,4356.538574,4246.666504,4265.769043,4122.179688,4288.846191,4275.897461,4250.384766,4478.461426,4538.333496,4364.358887,4428.589844,0.0,1.0,15.0,,,,0.0,4.0,4.0,4.0,4.0,4.0,4.0,4.0,4.0,4.0,4.0,4.0,4.0,4.0,4.0,100.0,,,,,,,,,,,,,,,,,,,,,,,,,,,,,,,,,,,,,,,,,,,,,,,,,,,,,,,,,,,,,,,,,,,,,,,,,,,,,,,,,,,,,,,,,,,,,,,,,,,,,,,,,,,,,,,,,,,,,,,,,,,,,,,,,,,
1725715990.09451,1725715990.095869,123.0,0.0,4295.128418,4266.922852,4320.769043,4357.692383,4247.94873,4266.666504,4122.307617,4285.769043,4273.974121,4249.358887,4483.589844,4538.589844,4370.0,4429.743652,0.0,1.0,15.0,,,,0.0,4.0,4.0,4.0,4.0,4.0,4.0,4.0,4.0,4.0,4.0,4.0,4.0,4.0,4.0,100.0,,,,,,,,,,,,,,,,,,,,,,,,,,,,,,,,,,,,,,,,,,,,,,,,,,,,,,,,,,,,,,,,,,,,,,,,,,,,,,,,,,,,,,,,,,,,,,,,,,,,,,,,,,,,,,,,,,,,,,,,,,,,,,,,,,,
1725715990.098414,1725715990.099773,124.0,0.0,4295.384766,4272.05127,4321.794922,4357.563965,4248.461426,4265.769043,4122.307617,4282.436035,4271.794922,4250.256348,4489.615234,4538.077148,4378.205078,4430.512695,0.0,1.0,15.0,,,,0.0,4.0,4.0,4.0,4.0,4.0,4.0,4.0,4.0,4.0,4.0,4.0,4.0,4.0,4.0,100.0,,,,,,,,,,,,,,,,,,,,,,,,,,,,,,,,,,,,,,,,,,,,,,,,,,,,,,,,11.0,0.0,1.0,0.0,1.0,0.0,,,,,,,,,,,,,,,,,,,,,,,,,,,,,,,,,,,,,,,,,,,,,,,,,,,,,,,,,,,,,,,,,,,,,,
1725715990.102318,1725715990.103777,125.0,0.0,4293.846191,4275.897461,4321.025879,4356.794922,4247.563965,4263.974121,4122.05127,4280.641113,4268.974121,4251.410156,4492.820313,4536.922852,4383.846191,4430.384766,0.0,1.0,15.0,,,,0.0,4.0,4.0,4.0,4.0,4.0,4.0,4.0,4.0,4.0,4.0,4.0,4.0,4.0,4.0,100.0,,,,,,,,,,,,,,,,,,,,,,,,,,,,,,,,,,,,,,,,,,,,,,,,,,,,,,,,,,,,,,,,,,,,,,,,,,,,,,,,,,,,,,,,,,,,,,,,,,,,,,,,,,,,,,,,,,,,,,,,,,,,,,,,,,,
1725715990.106222,1725715990.107681,126.0,0.0,4290.512695,4276.410156,4319.230957,4356.410156,4245.641113,4262.692383,4121.794922,4282.05127,4266.025879,4251.922852,4491.794922,4535.641113,4383.333496,4429.487305,0.0,1.0,15.0,,,,0.0,4.0,4.0,4.0,4.0,4.0,4.0,4.0,4.0,4.0,4.0,4.0,4.0,4.0,4.0,100.0,,,,,,,,,,,,,,,,,,,,,,,,,,,,,,,,,,,,,,,,,,,,,,,,,,,,,,,,,,,,,,,,,,,,,,,,,,,,,,,,,,,,,,,,,,,,,,,,,,,,,,,,,,,,,,,,,,,,,,,,,,,,,,,,,,,
1725715990.110126,1725715990.111585,127.0,0.0,4286.153809,4273.974121,4318.205078,4356.794922,4243.717773,4262.692383,4121.794922,4286.666504,4264.615234,4251.153809,4486.922852,4535.256348,4377.307617,4428.717773,0.0,1.0,15.0,,,,0.0,4.0,4.0,4.0,4.0,4.0,4.0,4.0,4.0,4.0,4.0,4.0,4.0,4.0,4.0,100.0,,,,,,,,,,,,,,,,,,,,,,,,,,,,,,,,,,,,,,,,,,,,,,,,,,,,,,,,,,,,,,,,,,,,,,,,,,,,,,,,,,,,,,,,,,,,,,,,,,,,,,,,,,,,,,,,,,,,,,,,,,,,,,,,,,,
1725715990.11403,1725715990.115489,128.0,0.0,4282.179688,4270.256348,4318.974121,4357.307617,4242.820313,4263.974121,4121.922852,4292.307617,4265.769043,4249.871582,4480.897461,4535.769043,4369.358887,4428.717773,2692.0,1.0,15.0,,,,0.0,4.0,4.0,4.0,4.0,4.0,4.0,4.0,4.0,4.0,4.0,4.0,4.0,4.0,4.0,100.0,,,,,,,,,,,,,,,,,,,,,,,,,,,,,,,,,,,,,,,,,,,,,,,,,,,,,,,,,,,,,,,,,,,,,,,,,,,,,,,,,,,,,,,,,,,,,,,,,,,,,,,,,,,,,,,,,,,,,,,,,,,,,,,,,,,
1725715990.117935,1725715990.119493,129.0,0.0,4279.615234,4267.179688,4320.256348,4357.05127,4243.077148,4265.128418,4121.538574,4296.153809,4269.743652,4248.846191,4476.410156,4537.307617,4363.846191,4429.358887,2563.0,1.0,15.0,,,,0.0,4.0,4.0,4.0,4.0,4.0,4.0,4.0,4.0,4.0,4.0,4.0,4.0,4.0,4.0,100.0,,,,,,,,,,,,,,,,,,,,,,,,,,,,,,,,,,,,,,,,,,,,,,,,,,,,,,,,,,,,,,,,,,,,,,,,,,,,,,,,,,,,,,,,,,,,,,,,,,,,,,,,,,,,,,,,,,,,,,,,,,,,,,,,,,,
1725715990.121839,1725715990.123397,130.0,0.0,4278.205078,4265.384766,4320.384766,4355.512695,4243.846191,4265.128418,4120.512695,4296.410156,4274.743652,4249.102539,4475.256348,4539.358887,4362.307617,4429.615234,2496.0,1.0,15.0,,,,0.0,4.0,4.0,4.0,4.0,4.0,4.0,4.0,4.0,4.0,4.0,4.0,4.0,4.0,4.0,100.0,,,,,,,,,,,,,,,,,,,,,,,,,,,,,,,,,,,,,,,,,,,,,,,,,,,,,,,,,,,,,,,,,,,,,,,,,,,,,,,,,,,,,,,,,,,,,,,,,,,,,,,,,,,,,,,,,,,,,,,,,,,,,,,,,,,
1725715990.125743,1725715990.127301,131.0,0.0,4278.077148,4265.128418,4318.589844,4353.461426,4244.743652,4263.461426,4118.461426,4294.102539,4278.333496,4250.128418,4476.794922,4541.025879,4363.461426,4428.846191,2458.0,1.0,15.0,,,,0.0,4.0,4.0,4.0,4.0,4.0,4.0,4.0,4.0,4.0,4.0,4.0,4.0,4.0,4.0,100.0,,,,,,,,,,,,,,,,,,,,,,,,,,,,,,,,,,,,,,,,,,,,,,,,,,,,,,,,,,,,,,,,,,,,,,,,,,,,,,,,,,,,,,,,,,,,,,,,,,,,,,,,,,,,,,,,,,,,,,,,,,,,,,,,,,,
1725715990.129647,1725715990.131205,132.0,0.0,4278.333496,4265.641113,4315.641113,4352.692383,4245.769043,4260.256348,4115.384766,4291.794922,4278.717773,4250.897461,4479.230957,4541.410156,4365.128418,4427.179688,2434.0,1.0,15.0,,,,0.0,4.0,4.0,4.0,4.0,4.0,4.0,4.0,4.0,4.0,4.0,4.0,4.0,4.0,4.0,100.0,,,,,,,,,,,,,,,,,,,,,,,,,,,,,,,,,,,,,,,,,,,,,,,,,,,,,,,,11.0,0.0,1.0,0.0,1.0,0.0,,,,,,,,,,,,,,,,,,,,,,,,,,,,,,,,,,,,,,,,,,,,,,,,,,,,,,,,,,,,,,,,,,,,,,
1725715990.133551,1725715990.135209,133.0,0.0,4278.717773,4266.282227,4313.333496,4354.487305,4246.922852,4256.025879,4111.922852,4291.538574,4276.538574,4250.512695,4480.384766,4539.871582,4365.512695,4425.0,2393.0,1.0,15.0,,,,0.0,4.0,4.0,4.0,4.0,4.0,4.0,4.0,4.0,4.0,4.0,4.0,4.0,4.0,4.0,100.0,,,,,,,,,,,,,,,,,,,,,,,,,,,,,,,,,,,,,,,,,,,,,,,,,,,,,,,,,,,,,,,,,,,,,,,,,,,,,,,,,,,,,,,,,,,,,,,,,,,,,,,,,,,,,,,,,,,,,,,,,,,,,,,,,,,
1725715990.137455,1725715990.139113,134.0,0.0,4278.589844,4266.666504,4313.077148,4358.974121,4247.307617,4252.05127,4108.846191,4292.94873,4273.589844,4249.487305,4479.743652,4537.05127,4364.871582,4423.077148,2429.0,1.0,15.0,,,,0.0,4.0,4.0,4.0,4.0,4.0,4.0,4.0,4.0,4.0,4.0,4.0,4.0,4.0,4.0,100.0,,,,,,,,,,,,,,,,,,,,,,,,,,,,,,,,,,,,,,,,,,,,,,,,,,,,,,,,,,,,,,,,,,,,,,,,,,,,,,,,,,,,,,,,,,,,,,,,,,,,,,,,,,,,,,,,,,,,,,,,,,,,,,,,,,,
1725715990.141359,1725715990.143018,135.0,0.0,4277.436035,4266.794922,4314.487305,4363.846191,4245.641113,4249.615234,4107.307617,4293.589844,4271.922852,4248.846191,4478.333496,4534.871582,4364.487305,4422.307617,2491.0,1.0,15.0,,,,0.0,4.0,4.0,4.0,4.0,4.0,4.0,4.0,4.0,4.0,4.0,4.0,4.0,4.0,4.0,100.0,,,,,,,,,,,,,,,,,,,,,,,,,,,,,,,,,,,,,,,,,,,,,,,,,,,,,,,,,,,,,,,,,,,,,,,,,,,,,,,,,,,,,,,,,,,,,,,,,,,,,,,,,,,,,,,,,,,,,,,,,,,,,,,,,,,
1725715990.145263,1725715990.147022,136.0,0.0,4274.230957,4266.666504,4316.153809,4366.794922,4242.436035,4248.589844,4108.205078,4291.794922,4271.794922,4249.487305,4477.563965,4534.487305,4365.384766,4423.205078,2469.0,1.0,15.0,,,,0.0,4.0,4.0,4.0,4.0,4.0,4.0,4.0,4.0,4.0,4.0,4.0,4.0,4.0,4.0,100.0,,,,,,,,,,,,,,,,,,,,,,,,,,,,,,,,,,,,,,,,,,,,,,,,,,,,,,,,,,,,,,,,,,,,,,,,,,,,,,,,,,,,,,,,,,,,,,,,,,,,,,,,,,,,,,,,,,,,,,,,,,,,,,,,,,,
1725715990.149167,1725715990.150926,137.0,0.0,4268.205078,4266.794922,4316.410156,4366.538574,4239.230957,4248.333496,4111.025879,4288.077148,4273.077148,4251.025879,4477.820313,4535.769043,4367.436035,4424.871582,2556.0,1.0,15.0,,,,0.0,4.0,4.0,4.0,4.0,4.0,4.0,4.0,4.0,4.0,4.0,4.0,4.0,4.0,4.0,100.0,,,,,,,,,,,,,,,,,,,,,,,,,,,,,,,,,,,,,,,,,,,,,,,,,,,,,,,,,,,,,,,,,,,,,,,,,,,,,,,,,,,,,,,,,,,,,,,,,,,,,,,,,,,,,,,,,,,,,,,,,,,,,,,,,,,
1725715990.153072,1725715990.15483,138.0,0.0,4259.871582,4267.179688,4314.743652,4363.846191,4237.692383,4248.333496,4115.0,4284.230957,4275.0,4252.436035,4478.846191,4536.922852,4369.487305,4425.897461,2882.0,1.0,15.0,,,,0.0,4.0,4.0,4.0,4.0,4.0,4.0,4.0,4.0,4.0,4.0,4.0,4.0,4.0,4.0,100.0,,,,,,,,,,,,,,,,,,,,,,,,,,,,,,,,,,,,,,,,,,,,,,,,,,,,,,,,,,,,,,,,,,,,,,,,,,,,,,,,,,,,,,,,,,,,,,,,,,,,,,,,,,,,,,,,,,,,,,,,,,,,,,,,,,,
1725715990.156976,1725715990.158734,139.0,0.0,4250.641113,4267.436035,4312.179688,4360.641113,4238.974121,4248.717773,4118.846191,4281.794922,4277.179688,4252.820313,4479.615234,4536.153809,4371.153809,4425.641113,3114.0,1.0,15.0,,,,0.0,4.0,4.0,4.0,4.0,4.0,4.0,4.0,4.0,4.0,4.0,4.0,4.0,4.0,4.0,100.0,,,,,,,,,,,,,,,,,,,,,,,,,,,,,,,,,,,,,,,,,,,,,,,,,,,,,,,,,,,,,,,,,,,,,,,,,,,,,,,,,,,,,,,,,,,,,,,,,,,,,,,,,,,,,,,,,,,,,,,,,,,,,,,,,,,
1725715990.16088,1725715990.162638,140.0,0.0,4242.692383,4267.436035,4310.384766,4358.461426,4242.05127,4249.102539,4121.410156,4281.025879,4278.589844,4251.922852,4478.974121,4532.94873,4372.436035,4424.230957,3410.0,1.0,15.0,,,,0.0,4.0,4.0,4.0,4.0,4.0,4.0,4.0,4.0,4.0,4.0,4.0,4.0,4.0,4.0,100.0,,,,,,,,,,,,,,,,,,,,,,,,,,,,,,,,,,,,,,,,,,,,,,,,,,,,,,,,11.0,0.0,1.0,0.0,1.0,0.0,,,,,,,,,,,,,,,,,,,,,,,,,,,,,,,,,,,,,,,,,,,,,,,,,,,,,,,,,,,,,,,,,,,,,,
1725715990.164784,1725715990.166442,141.0,0.0,4236.538574,4267.05127,4309.615234,4357.820313,4244.615234,4248.589844,4122.436035,4281.282227,4277.94873,4250.256348,4476.922852,4528.333496,4373.333496,4422.05127,3815.0,1.0,15.0,,,,0.0,4.0,4.0,4.0,4.0,4.0,4.0,4.0,4.0,4.0,4.0,4.0,4.0,4.0,4.0,100.0,,,,,,,,,,,,,,,,,,,,,,,,,,,,,,,,,,,,,,,,,,,,,,,,,,,,,,,,,,,,,,,,,,,,,,,,,,,,,,,,,,,,,,,,,,,,,,,,,,,,,,,,,,,,,,,,,,,,,,,,,,,,,,,,,,,
1725715990.168688,1725715990.170346,142.0,0.0,4232.179688,4266.538574,4308.846191,4358.205078,4244.358887,4246.666504,4122.179688,4281.282227,4274.358887,4248.974121,4474.615234,4524.358887,4373.205078,4419.358887,2882.0,1.0,15.0,,,,0.0,4.0,4.0,4.0,4.0,4.0,4.0,4.0,4.0,4.0,4.0,4.0,4.0,4.0,4.0,100.0,,,,,,,,,,,,,,,,,,,,,,,,,,,,,,,,,,,,,,,,,,,,,,,,,,,,,,,,,,,,,,,,,,,,,,,,,,,,,,,,,,,,,,,,,,,,,,,,,,,,,,,,,,,,,,,,,,,,,,,,,,,,,,,,,,,
1725715990.172592,1725715990.17425,143.0,0.0,4228.846191,4266.410156,4307.436035,4358.846191,4241.153809,4243.461426,4121.153809,4281.025879,4269.358887,4248.589844,4473.333496,4522.05127,4371.538574,4416.794922,3114.0,1.0,15.0,,,,0.0,4.0,4.0,4.0,4.0,4.0,4.0,4.0,4.0,4.0,4.0,4.0,4.0,4.0,4.0,100.0,,,,,,,,,,,,,,,,,,,,,,,,,,,,,,,,,,,,,,,,,,,,,,,,,,,,,,,,,,,,,,,,,,,,,,,,,,,,,,,,,,,,,,,,,,,,,,,,,,,,,,,,,,,,,,,,,,,,,,,,,,,,,,,,,,,
1725715990.176496,1725715990.178254,144.0,0.0,4226.922852,4266.666504,4305.384766,4358.974121,4236.410156,4239.743652,4120.512695,4280.897461,4265.769043,4249.358887,4473.333496,4521.538574,4368.717773,4415.0,3410.0,1.0,15.0,,,,0.0,4.0,4.0,4.0,4.0,4.0,4.0,4.0,4.0,4.0,4.0,4.0,4.0,4.0,4.0,100.0,,,,,,,,,,,,,,,,,,,,,,,,,,,,,,,,,,,,,,,,,,,,,,,,,,,,,,,,,,,,,,,,,,,,,,,,,,,,,,,,,,,,,,,,,,,,,,,,,,,,,,,,,,,,,,,,,,,,,,,,,,,,,,,,,,,
1725715990.1804,1725715990.182159,145.0,0.0,4226.666504,4267.179688,4303.717773,4358.589844,4233.077148,4236.922852,4120.384766,4282.05127,4266.025879,4250.641113,4473.974121,4522.179688,4366.282227,4414.487305,3815.0,1.0,15.0,,,,0.0,4.0,4.0,4.0,4.0,4.0,4.0,4.0,4.0,4.0,4.0,4.0,4.0,4.0,4.0,100.0,,,,,,,,,,,,,,,,,,,,,,,,,,,,,,,,,,,,,,,,,,,,,,,,,,,,,,,,,,,,,,,,,,,,,,,,,,,,,,,,,,,,,,,,,,,,,,,,,,,,,,,,,,,,,,,,,,,,,,,,,,,,,,,,,,,
1725715990.184304,1725715990.186063,146.0,0.0,4227.05127,4267.307617,4302.94873,4358.077148,4232.307617,4235.641113,4120.769043,4284.871582,4269.871582,4251.922852,4475.0,4522.436035,4365.641113,4415.128418,2882.0,1.0,15.0,,,,0.0,4.0,4.0,4.0,4.0,4.0,4.0,4.0,4.0,4.0,4.0,4.0,4.0,4.0,4.0,100.0,,,,,,,,,,,,,,,,,,,,,,,,,,,,,,,,,,,,,,,,,,,,,,,,,,,,,,,,,,,,,,,,,,,,,,,,,,,,,,,,,,,,,,,,,,,,,,,,,,,,,,,,,,,,,,,,,,,,,,,,,,,,,,,,,,,
1725715990.188208,1725715990.189967,147.0,0.0,4226.538574,4267.05127,4303.205078,4357.94873,4233.461426,4235.897461,4121.153809,4288.077148,4274.358887,4252.563965,4476.282227,4522.179688,4367.05127,4416.410156,3114.0,1.0,15.0,,,,0.0,4.0,4.0,4.0,4.0,4.0,4.0,4.0,4.0,4.0,4.0,4.0,4.0,4.0,4.0,100.0,,,,,,,,,,,,,,,,,,,,,,,,,,,,,,,,,,,,,,,,,,,,,,,,,,,,,,,,,,,,,,,,,,,,,,,,,,,,,,,,,,,,,,,,,,,,,,,,,,,,,,,,,,,,,,,,,,,,,,,,,,,,,,,,,,,
1725715990.192113,1725715990.193871,148.0,0.0,4224.358887,4266.794922,4304.102539,4358.461426,4234.487305,4236.410156,4121.153809,4289.871582,4276.153809,4252.436035,4477.307617,4521.666504,4368.461426,4416.922852,3410.0,1.0,15.0,,,,0.0,4.0,4.0,4.0,4.0,4.0,4.0,4.0,4.0,4.0,4.0,4.0,4.0,4.0,4.0,100.0,,,,,,,,,,,,,,,,,1.0,0.0,0.0,,,,,,,,,,,,,,,,,,,,,,,,,,,,,,,,,,,,,11.0,0.0,1.0,0.0,1.0,0.0,9.531962,2.042435,1.426759,0.934983,0.227948,1.596496,0.993673,0.392242,0.178953,0.034915,1.605068,0.891822,0.660734,0.246239,0.065885,2.378636,1.595418,0.317705,0.290166,0.079483,0.561484,0.973503,0.193404,0.107811,0.037172,0.17627,0.161616,0.130661,0.060617,0.047819,1.414467,0.775932,0.532104,0.138061,0.080338,1.368112,1.576839,0.357242,0.285779,0.058455,1.0984,0.398905,0.265918,0.222835,0.072997,1.737514,0.46002,0.679224,0.369525,0.087369,1.795716,1.24574,0.546352,0.415505,0.137982,2.281658,1.665799,0.610159,0.488288,0.142439,2.085138,1.367717,0.710078,0.484717,0.175843,1.487121,1.076486,0.620529,0.256795,0.082061
1725715990.196017,1725715990.197675,149.0,0.0,4221.282227,4266.666504,4304.615234,4359.230957,4233.974121,4236.025879,4120.641113,4288.846191,4273.974121,4251.282227,4477.179688,4521.666504,4367.94873,4416.025879,3815.0,1.0,15.0,,,,0.0,4.0,4.0,4.0,4.0,4.0,4.0,4.0,4.0,4.0,4.0,4.0,4.0,4.0,4.0,100.0,,,,,,,,,,,,,,,,,,,,,,,,,,,,,,,,,,,,,,,,,,,,,,,,,,,,,,,,,,,,,,,,,,,,,,,,,,,,,,,,,,,,,,,,,,,,,,,,,,,,,,,,,,,,,,,,,,,,,,,,,,,,,,,,,,,
1725715990.199921,1725715990.201579,150.0,0.0,4218.717773,4266.666504,4304.358887,4360.0,4232.563965,4234.230957,4120.128418,4285.128418,4268.974121,4249.743652,4475.0,4522.05127,4364.871582,4413.846191,2882.0,1.0,15.0,,,,0.0,4.0,4.0,4.0,4.0,4.0,4.0,4.0,4.0,4.0,4.0,4.0,4.0,4.0,4.0,100.0,,,,,,,,,,,,,,,,,,,,,,,,,,,,,,,,,,,,,,,,,,,,,,,,,,,,,,,,,,,,,,,,,,,,,,,,,,,,,,,,,,,,,,,,,,,,,,,,,,,,,,,,,,,,,,,,,,,,,,,,,,,,,,,,,,,
1725715990.203825,1725715990.205483,151.0,0.0,4217.307617,4266.666504,4303.974121,4360.769043,4231.794922,4232.563965,4119.871582,4280.256348,4264.358887,4248.589844,4470.897461,4522.05127,4361.410156,4411.794922,3114.0,1.0,15.0,,,,0.0,4.0,4.0,4.0,4.0,4.0,4.0,4.0,4.0,4.0,4.0,4.0,4.0,4.0,4.0,100.0,,,,,,,,,,,,,,,,,,,,,,,,,,,,,,,,,,,,,,,,,,,,,,,,,,,,,,,,,,,,,,,,,,,,,,,,,,,,,,,,,,,,,,,,,,,,,,,,,,,,,,,,,,,,,,,,,,,,,,,,,,,,,,,,,,,
1725715990.207729,1725715990.209487,152.0,0.0,4215.512695,4266.410156,4303.717773,4361.794922,4232.05127,4232.436035,4119.871582,4276.666504,4262.436035,4248.077148,4466.794922,4521.410156,4359.871582,4411.410156,3410.0,1.0,15.0,,,,0.0,4.0,4.0,4.0,4.0,4.0,4.0,4.0,4.0,4.0,4.0,4.0,4.0,4.0,4.0,100.0,,,,,,,,,,,,,,,,,,,,,,,,,,,,,,,,,,,,,,,,,,,,,,,,,,,,,,,,,,,,,,,,,,,,,,,,,,,,,,,,,,,,,,,,,,,,,,,,,,,,,,,,,,,,,,,,,,,,,,,,,,,,,,,,,,,
1725715990.211633,1725715990.213391,153.0,0.0,4211.794922,4266.025879,4303.974121,4363.077148,4232.820313,4234.102539,4120.128418,4276.153809,4263.589844,4248.461426,4465.256348,4520.769043,4361.153809,4412.563965,3815.0,1.0,15.0,,,,0.0,4.0,4.0,4.0,4.0,4.0,4.0,4.0,4.0,4.0,4.0,4.0,4.0,4.0,4.0,100.0,,,,,,,,,,,,,,,,,,,,,,,,,,,,,,,,,,,,,,,,,,,,,,,,,,,,,,,,,,,,,,,,,,,,,,,,,,,,,,,,,,,,,,,,,,,,,,,,,,,,,,,,,,,,,,,,,,,,,,,,,,,,,,,,,,,
1725715990.215537,1725715990.217295,154.0,0.0,4206.666504,4265.641113,4304.743652,4364.358887,4233.333496,4236.538574,4120.641113,4279.102539,4266.025879,4248.846191,4466.922852,4520.897461,4363.461426,4414.230957,2882.0,1.0,15.0,,,,0.0,4.0,4.0,4.0,4.0,4.0,4.0,4.0,4.0,4.0,4.0,4.0,4.0,4.0,4.0,100.0,,,,,,,,,,,,,,,,,,,,,,,,,,,,,,,,,,,,,,,,,,,,,,,,,,,,,,,,,,,,,,,,,,,,,,,,,,,,,,,,,,,,,,,,,,,,,,,,,,,,,,,,,,,,,,,,,,,,,,,,,,,,,,,,,,,
1725715990.219441,1725715990.2212,155.0,0.0,4202.563965,4265.641113,4305.897461,4365.769043,4233.461426,4237.94873,4121.153809,4283.717773,4267.436035,4248.717773,4470.641113,4522.307617,4364.358887,4414.743652,3114.0,1.0,15.0,,,,0.0,4.0,4.0,4.0,4.0,4.0,4.0,4.0,4.0,4.0,4.0,4.0,4.0,4.0,4.0,100.0,,,,,,,,,,,,,,,,,,,,,,,,,,,,,,,,,,,,,,,,,,,,,,,,,,,,,,,,,,,,,,,,,,,,,,,,,,,,,,,,,,,,,,,,,,,,,,,,,,,,,,,,,,,,,,,,,,,,,,,,,,,,,,,,,,,
1725715990.223345,1725715990.225204,156.0,0.0,4202.05127,4265.897461,4307.436035,4367.179688,4233.846191,4237.436035,4121.666504,4287.179688,4267.307617,4247.692383,4473.846191,4523.974121,4362.436035,4413.846191,3410.0,1.0,15.0,,,,0.0,4.0,4.0,4.0,4.0,4.0,4.0,4.0,4.0,4.0,4.0,4.0,4.0,4.0,4.0,100.0,,,,,,,,,,,,,,,,,,,,,,,,,,,,,,,,,,,,,,,,,,,,,,,,,,,,,,,,11.0,0.0,1.0,0.0,1.0,0.0,,,,,,,,,,,,,,,,,,,,,,,,,,,,,,,,,,,,,,,,,,,,,,,,,,,,,,,,,,,,,,,,,,,,,,
1725715990.22725,1725715990.229108,157.0,0.0,4205.0,4266.025879,4308.974121,4368.333496,4234.487305,4235.384766,4121.922852,4287.820313,4266.410156,4246.794922,4474.615234,4524.615234,4358.846191,4412.307617,3815.0,1.0,15.0,,,,0.0,4.0,4.0,4.0,4.0,4.0,4.0,4.0,4.0,4.0,4.0,4.0,4.0,4.0,4.0,100.0,,,,,,,,,,,,,,,,,,,,,,,,,,,,,,,,,,,,,,,,,,,,,,,,,,,,,,,,,,,,,,,,,,,,,,,,,,,,,,,,,,,,,,,,,,,,,,,,,,,,,,,,,,,,,,,,,,,,,,,,,,,,,,,,,,,
1725715990.231154,1725715990.233012,158.0,0.0,4209.230957,4266.153809,4310.128418,4368.846191,4234.743652,4233.461426,4121.666504,4286.025879,4265.897461,4246.538574,4473.205078,4524.358887,4355.641113,4411.282227,2882.0,1.0,15.0,,,,0.0,4.0,4.0,4.0,4.0,4.0,4.0,4.0,4.0,4.0,4.0,4.0,4.0,4.0,4.0,100.0,,,,,,,,,,,,,,,,,,,,,,,,,,,,,,,,,,,,,,,,,,,,,,,,,,,,,,,,,,,,,,,,,,,,,,,,,,,,,,,,,,,,,,,,,,,,,,,,,,,,,,,,,,,,,,,,,,,,,,,,,,,,,,,,,,,
1725715990.235058,1725715990.237016,159.0,0.0,4211.153809,4265.897461,4310.897461,4368.333496,4234.230957,4232.436035,4120.897461,4283.205078,4265.897461,4247.179688,4471.666504,4523.461426,4354.871582,4411.538574,3114.0,1.0,15.0,,,,0.0,4.0,4.0,4.0,4.0,4.0,4.0,4.0,4.0,4.0,4.0,4.0,4.0,4.0,4.0,100.0,,,,,,,,,,,,,,,,,,,,,,,,,,,,,,,,,,,,,,,,,,,,,,,,,,,,,,,,,,,,,,,,,,,,,,,,,,,,,,,,,,,,,,,,,,,,,,,,,,,,,,,,,,,,,,,,,,,,,,,,,,,,,,,,,,,
1725715990.238962,1725715990.24092,160.0,0.0,4209.615234,4265.512695,4311.538574,4367.179688,4233.589844,4232.179688,4120.641113,4281.282227,4266.025879,4248.589844,4471.794922,4522.94873,4356.666504,4412.692383,3410.0,1.0,15.0,,,,0.0,4.0,4.0,4.0,4.0,4.0,4.0,4.0,4.0,4.0,4.0,4.0,4.0,4.0,4.0,100.0,,,,,,,,,,,,,,,,,,,,,,,,,,,,,,,,,,,,,,,,,,,,,,,,,,,,,,,,,,,,,,,,,,,,,,,,,,,,,,,,,,,,,,,,,,,,,,,,,,,,,,,,,,,,,,,,,,,,,,,,,,,,,,,,,,,
1725715990.242866,1725715990.244824,161.0,0.0,4205.512695,4265.512695,4312.436035,4365.897461,4233.717773,4231.794922,4122.179688,4280.897461,4266.153809,4249.743652,4473.205078,4523.077148,4359.102539,4413.461426,3815.0,1.0,15.0,,,,0.0,4.0,4.0,4.0,4.0,4.0,4.0,4.0,4.0,4.0,4.0,4.0,4.0,4.0,4.0,100.0,,,,,,,,,,,,,,,,,,,,,,,,,,,,,,,,,,,,,,,,,,,,,,,,,,,,,,,,,,,,,,,,,,,,,,,,,,,,,,,,,,,,,,,,,,,,,,,,,,,,,,,,,,,,,,,,,,,,,,,,,,,,,,,,,,,
1725715990.24677,1725715990.248728,162.0,0.0,4201.538574,4266.025879,4312.820313,4365.128418,4234.871582,4230.897461,4125.641113,4281.282227,4266.666504,4250.128418,4474.230957,4523.333496,4359.358887,4412.94873,2882.0,1.0,15.0,,,,0.0,4.0,4.0,4.0,4.0,4.0,4.0,4.0,4.0,4.0,4.0,4.0,4.0,4.0,4.0,100.0,,,,,,,,,,,,,,,,,,,,,,,,,,,,,,,,,,,,,,,,,,,,,,,,,,,,,,,,,,,,,,,,,,,,,,,,,,,,,,,,,,,,,,,,,,,,,,,,,,,,,,,,,,,,,,,,,,,,,,,,,,,,,,,,,,,
1725715990.250674,1725715990.252732,163.0,0.0,4199.871582,4266.410156,4312.563965,4364.743652,4236.153809,4230.128418,4129.743652,4281.538574,4268.077148,4249.358887,4472.94873,4523.333496,4356.282227,4411.538574,3114.0,1.0,15.0,,,,0.0,4.0,4.0,4.0,4.0,4.0,4.0,4.0,4.0,4.0,4.0,4.0,4.0,4.0,4.0,100.0,,,,,,,,,,,,,,,,,,,,,,,,,,,,,,,,,,,,,,,,,,,,,,,,,,,,,,,,,,,,,,,,,,,,,,,,,,,,,,,,,,,,,,,,,,,,,,,,,,,,,,,,,,,,,,,,,,,,,,,,,,,,,,,,,,,
1725715990.254578,1725715990.256636,164.0,0.0,4200.512695,4266.025879,4311.538574,4364.615234,4236.666504,4230.0,4132.307617,4281.410156,4270.0,4248.461426,4468.589844,4522.563965,4351.282227,4410.256348,3410.0,1.0,15.0,,,,0.0,4.0,4.0,4.0,4.0,4.0,4.0,4.0,4.0,4.0,4.0,4.0,4.0,4.0,4.0,100.0,,,,,,,,,,,,,,,,,,,,,,,,,,,,,,,,,,,,,,,,,,,,,,,,,,,,,,,,11.0,0.0,1.0,0.0,1.0,0.0,,,,,,,,,,,,,,,,,,,,,,,,,,,,,,,,,,,,,,,,,,,,,,,,,,,,,,,,,,,,,,,,,,,,,,
1725715990.258482,1725715990.26054,165.0,0.0,4202.307617,4264.871582,4310.897461,4364.615234,4236.410156,4230.897461,4132.179688,4281.153809,4270.769043,4247.94873,4462.563965,4521.666504,4347.179688,4409.743652,3815.0,1.0,15.0,,,,0.0,4.0,4.0,4.0,4.0,4.0,4.0,4.0,4.0,4.0,4.0,4.0,4.0,4.0,4.0,100.0,,,,,,,,,,,,,,,,,,,,,,,,,,,,,,,,,,,,,,,,,,,,,,,,,,,,,,,,,,,,,,,,,,,,,,,,,,,,,,,,,,,,,,,,,,,,,,,,,,,,,,,,,,,,,,,,,,,,,,,,,,,,,,,,,,,
1725715990.262386,1725715990.264444,166.0,0.0,4204.487305,4263.974121,4311.538574,4364.871582,4236.794922,4232.436035,4130.128418,4281.538574,4269.487305,4248.077148,4457.820313,4521.025879,4346.922852,4410.384766,2882.0,1.0,15.0,,,,0.0,4.0,4.0,4.0,4.0,4.0,4.0,4.0,4.0,4.0,4.0,4.0,4.0,4.0,4.0,100.0,,,,,,,,,,,,,,,,,,,,,,,,,,,,,,,,,,,,,,,,,,,,,,,,,,,,,,,,,,,,,,,,,,,,,,,,,,,,,,,,,,,,,,,,,,,,,,,,,,,,,,,,,,,,,,,,,,,,,,,,,,,,,,,,,,,
1725715990.26629,1725715990.268448,167.0,0.0,4207.307617,4264.358887,4313.846191,4365.256348,4239.102539,4233.846191,4127.692383,4282.563965,4266.794922,4248.333496,4456.922852,4520.897461,4351.153809,4411.794922,3114.0,1.0,15.0,,,,0.0,4.0,4.0,4.0,4.0,4.0,4.0,4.0,4.0,4.0,4.0,4.0,4.0,4.0,4.0,100.0,,,,,,,,,,,,,,,,,,,,,,,,,,,,,,,,,,,,,,,,,,,,,,,,,,,,,,,,,,,,,,,,,,,,,,,,,,,,,,,,,,,,,,,,,,,,,,,,,,,,,,,,,,,,,,,,,,,,,,,,,,,,,,,,,,,
1725715990.270194,1725715990.272353,168.0,0.0,4210.897461,4266.538574,4316.666504,4365.769043,4242.820313,4234.230957,4126.410156,4283.717773,4265.0,4248.461426,4460.256348,4521.153809,4358.205078,4413.333496,3410.0,1.0,15.0,,,,0.0,4.0,4.0,4.0,4.0,4.0,4.0,4.0,4.0,4.0,4.0,4.0,4.0,4.0,4.0,100.0,,,,,,,,,,,,,,,,,,,,,,,,,,,,,,,,,,,,,,,,,,,,,,,,,,,,,,,,,,,,,,,,,,,,,,,,,,,,,,,,,,,,,,,,,,,,,,,,,,,,,,,,,,,,,,,,,,,,,,,,,,,,,,,,,,,
1725715990.274099,1725715990.276257,169.0,0.0,4214.743652,4269.230957,4318.077148,4366.025879,4245.897461,4232.692383,4126.538574,4284.358887,4265.512695,4248.077148,4465.641113,4521.153809,4365.384766,4414.487305,3815.0,1.0,15.0,,,,0.0,4.0,4.0,4.0,4.0,4.0,4.0,4.0,4.0,4.0,4.0,4.0,4.0,4.0,4.0,100.0,,,,,,,,,,,,,,,,,,,,,,,,,,,,,,,,,,,,,,,,,,,,,,,,,,,,,,,,,,,,,,,,,,,,,,,,,,,,,,,,,,,,,,,,,,,,,,,,,,,,,,,,,,,,,,,,,,,,,,,,,,,,,,,,,,,
1725715990.278003,1725715990.280161,170.0,0.0,4216.922852,4270.641113,4317.05127,4366.282227,4245.897461,4230.0,4126.794922,4284.743652,4268.077148,4247.436035,4470.384766,4520.897461,4369.743652,4415.0,2882.0,1.0,15.0,,,,0.0,4.0,4.0,4.0,4.0,4.0,4.0,4.0,4.0,4.0,4.0,4.0,4.0,4.0,4.0,100.0,,,,,,,,,,,,,,,,,,,,,,,,,,,,,,,,,,,,,,,,,,,,,,,,,,,,,,,,,,,,,,,,,,,,,,,,,,,,,,,,,,,,,,,,,,,,,,,,,,,,,,,,,,,,,,,,,,,,,,,,,,,,,,,,,,,
1725715990.281907,1725715990.284165,171.0,0.0,4216.282227,4270.0,4314.358887,4366.410156,4242.436035,4227.820313,4126.538574,4285.256348,4270.769043,4246.538574,4472.05127,4520.769043,4369.487305,4415.0,3114.0,1.0,15.0,,,,0.0,4.0,4.0,4.0,4.0,4.0,4.0,4.0,4.0,4.0,4.0,4.0,4.0,4.0,4.0,100.0,,,,,,,,,,,,,,,,,,,,,,,,,,,,,,,,,,,,,,,,,,,,,,,,,,,,,,,,,,,,,,,,,,,,,,,,,,,,,,,,,,,,,,,,,,,,,,,,,,,,,,,,,,,,,,,,,,,,,,,,,,,,,,,,,,,
1725715990.285811,1725715990.288069,172.0,0.0,4213.717773,4267.563965,4312.179688,4366.538574,4237.692383,4227.94873,4125.641113,4286.538574,4271.538574,4245.384766,4470.512695,4521.025879,4365.256348,4414.487305,3410.0,1.0,15.0,,,,0.0,4.0,4.0,4.0,4.0,4.0,4.0,4.0,4.0,4.0,4.0,4.0,4.0,4.0,4.0,100.0,,,,,,,,,,,,,,,,,,,,,,,,,,,,,,,,,,,,,,,,,,,,,,,,,,,,,,,,11.0,0.0,1.0,0.0,1.0,0.0,,,,,,,,,,,,,,,,,,,,,,,,,,,,,,,,,,,,,,,,,,,,,,,,,,,,,,,,,,,,,,,,,,,,,,
1725715990.289715,1725715990.291973,173.0,0.0,4211.922852,4265.256348,4311.538574,4366.410156,4234.615234,4229.871582,4125.128418,4288.333496,4269.743652,4244.358887,4466.794922,4521.666504,4359.358887,4413.717773,3815.0,1.0,15.0,,,,0.0,4.0,4.0,4.0,4.0,4.0,4.0,4.0,4.0,4.0,4.0,4.0,4.0,4.0,4.0,100.0,,,,,,,,,,,,,,,,,,,,,,,,,,,,,,,,,,,,,,,,,,,,,,,,,,,,,,,,,,,,,,,,,,,,,,,,,,,,,,,,,,,,,,,,,,,,,,,,,,,,,,,,,,,,,,,,,,,,,,,,,,,,,,,,,,,
1725715990.293619,1725715990.295877,174.0,0.0,4212.692383,4264.615234,4312.179688,4366.153809,4234.615234,4231.666504,4125.256348,4289.615234,4266.922852,4243.589844,4462.820313,4522.436035,4355.384766,4412.94873,2882.0,1.0,15.0,,,,0.0,4.0,4.0,4.0,4.0,4.0,4.0,4.0,4.0,4.0,4.0,4.0,4.0,4.0,4.0,100.0,,,,,,,,,,,,,,,,,,,,,,,,,,,,,,,,,,,,,,,,,,,,,,,,,,,,,,,,,,,,,,,,,,,,,,,,,,,,,,,,,,,,,,,,,,,,,,,,,,,,,,,,,,,,,,,,,,,,,,,,,,,,,,,,,,,
1725715990.297523,1725715990.299781,175.0,0.0,4215.641113,4265.769043,4312.820313,4365.641113,4236.666504,4231.282227,4125.512695,4290.0,4264.871582,4243.589844,4460.384766,4522.94873,4354.871582,4412.820313,3114.0,1.0,15.0,,,,0.0,4.0,4.0,4.0,4.0,4.0,4.0,4.0,4.0,4.0,4.0,4.0,4.0,4.0,4.0,100.0,,,,,,,,,,,,,,,,,,,,,,,,,,,,,,,,,,,,,,,,,,,,,,,,,,,,,,,,,,,,,,,,,,,,,,,,,,,,,,,,,,,,,,,,,,,,,,,,,,,,,,,,,,,,,,,,,,,,,,,,,,,,,,,,,,,
1725715990.301427,1725715990.303585,176.0,0.0,4218.333496,4267.563965,4312.563965,4365.128418,4238.077148,4227.94873,4124.743652,4289.743652,4264.871582,4244.358887,4460.128418,4522.820313,4357.179688,4413.333496,3410.0,1.0,15.0,,,,0.0,4.0,4.0,4.0,4.0,4.0,4.0,4.0,4.0,4.0,4.0,4.0,4.0,4.0,4.0,100.0,,,,,,,,,,,,,,,,,,,,,,,,,,,,,,,,,,,,,,,,,,,,,,,,,,,,,,,,,,,,,,,,,,,,,,,,,,,,,,,,,,,,,,,,,,,,,,,,,,,,,,,,,,,,,,,,,,,,,,,,,,,,,,,,,,,
1725715990.305331,1725715990.307489,177.0,0.0,4218.461426,4267.563965,4311.410156,4364.487305,4237.307617,4223.077148,4122.563965,4289.230957,4266.282227,4245.128418,4461.153809,4522.179688,4360.256348,4413.717773,3815.0,1.0,15.0,,,,0.0,4.0,4.0,4.0,4.0,4.0,4.0,4.0,4.0,4.0,4.0,4.0,4.0,4.0,4.0,100.0,,,,,,,,,,,,,,,,,,,,,,,,,,,,,,,,,,,,,,,,,,,,,,,,,,,,,,,,,,,,,,,,,,,,,,,,,,,,,,,,,,,,,,,,,,,,,,,,,,,,,,,,,,,,,,,,,,,,,,,,,,,,,,,,,,,
1725715990.309235,1725715990.311394,178.0,0.0,4216.153809,4265.384766,4310.256348,4364.230957,4234.615234,4218.974121,4119.615234,4288.589844,4267.820313,4245.512695,4461.922852,4521.282227,4361.922852,4413.717773,2882.0,1.0,15.0,,,,0.0,4.0,4.0,4.0,4.0,4.0,4.0,4.0,4.0,4.0,4.0,4.0,4.0,4.0,4.0,100.0,,,,,,,,,,,,,,,,,,,,,,,,,,,,,,,,,,,,,,,,,,,,,,,,,,,,,,,,,,,,,,,,,,,,,,,,,,,,,,,,,,,,,,,,,,,,,,,,,,,,,,,,,,,,,,,,,,,,,,,,,,,,,,,,,,,
1725715990.31314,1725715990.315198,179.0,0.0,4213.717773,4262.563965,4310.0,4364.615234,4232.179688,4217.179688,4117.692383,4287.436035,4268.461426,4245.897461,4461.794922,4520.897461,4362.179688,4413.077148,3114.0,1.0,15.0,,,,0.0,4.0,4.0,4.0,4.0,4.0,4.0,4.0,4.0,4.0,4.0,4.0,4.0,4.0,4.0,100.0,,,,,,,,,,,,,,,,,,,,,,,,,,,,,,,,,,,,,,,,,,,,,,,,,,,,,,,,,,,,,,,,,,,,,,,,,,,,,,,,,,,,,,,,,,,,,,,,,,,,,,,,,,,,,,,,,,,,,,,,,,,,,,,,,,,
1725715990.317044,1725715990.319102,180.0,0.0,4212.94873,4261.538574,4310.384766,4365.641113,4231.282227,4217.692383,4117.692383,4285.512695,4268.205078,4246.666504,4461.282227,4521.025879,4361.794922,4412.692383,3410.0,1.0,15.0,,,,0.0,4.0,4.0,4.0,4.0,4.0,4.0,4.0,4.0,4.0,4.0,4.0,4.0,4.0,4.0,100.0,1.0,41.666668,1.0,4.0,4.0,3.0,4.0,3.0,1.0,4.0,4.0,4.0,4.0,4.0,4.0,4.0,1.0,0.0,0.0,,,,,,,,,,,,,,,,,,,,,,,,,,,,,,,,,,,,,11.0,0.0,1.0,0.0,1.0,0.0,13.389466,2.372624,1.648629,1.231935,0.275878,1.866942,1.092109,0.393985,0.203278,0.033141,2.062547,1.090018,0.830514,0.321791,0.065705,2.735585,1.61955,0.352075,0.329605,0.071179,0.702776,1.023687,0.202648,0.128092,0.035358,0.19403,0.12588,0.148022,0.065688,0.049345,1.317557,0.784645,0.623259,0.157521,0.08306,1.308218,1.494129,0.456532,0.283753,0.05996,1.08341,0.423689,0.282679,0.259125,0.074806,1.985605,0.425022,0.823865,0.47851,0.106549,2.211715,1.154433,0.661411,0.495262,0.134202,2.700019,1.623874,0.65303,0.604104,0.155451,2.363643,1.372911,0.842821,0.586786,0.163607,1.86548,1.131648,0.682966,0.304755,0.086616
1725715990.320948,1725715990.323006,181.0,0.0,4214.487305,4264.102539,4310.897461,4367.307617,4232.05127,4219.230957,4119.615234,4283.077148,4267.563965,4247.820313,4461.666504,4521.666504,4361.794922,4413.333496,3815.0,1.0,15.0,,,,0.0,4.0,4.0,4.0,4.0,4.0,4.0,4.0,4.0,4.0,4.0,4.0,4.0,4.0,4.0,100.0,,,,,,,,,,,,,,,,,,,,,,,,,,,,,,,,,,,,,,,,,,,,,,,,,,,,,,,,,,,,,,,,,,,,,,,,,,,,,,,,,,,,,,,,,,,,,,,,,,,,,,,,,,,,,,,,,,,,,,,,,,,,,,,,,,,
1725715990.324852,1725715990.32691,182.0,0.0,4217.436035,4269.487305,4311.025879,4369.358887,4232.94873,4220.128418,4121.538574,4281.025879,4266.666504,4248.717773,4463.589844,4522.692383,4362.692383,4415.0,2882.0,1.0,15.0,,,,0.0,4.0,4.0,4.0,4.0,4.0,4.0,4.0,4.0,4.0,4.0,4.0,4.0,4.0,4.0,100.0,,,,,,,,,,,,,,,,,,,,,,,,,,,,,,,,,,,,,,,,,,,,,,,,,,,,,,,,,,,,,,,,,,,,,,,,,,,,,,,,,,,,,,,,,,,,,,,,,,,,,,,,,,,,,,,,,,,,,,,,,,,,,,,,,,,
1725715990.328756,1725715990.330914,183.0,0.0,4220.256348,4275.512695,4311.794922,4371.410156,4233.461426,4219.871582,4122.563965,4280.128418,4265.641113,4248.717773,4467.179688,4523.589844,4364.102539,4417.436035,3114.0,1.0,15.0,,,,0.0,4.0,4.0,4.0,4.0,4.0,4.0,4.0,4.0,4.0,4.0,4.0,4.0,4.0,4.0,100.0,,,,,,,,,,,,,,,,,,,,,,,,,,,,,,,,,,,,,,,,,,,,,,,,,,,,,,,,,,,,,,,,,,,,,,,,,,,,,,,,,,,,,,,,,,,,,,,,,,,,,,,,,,,,,,,,,,,,,,,,,,,,,,,,,,,
1725715990.33266,1725715990.334818,184.0,0.0,4222.05127,4279.615234,4314.487305,4373.333496,4233.589844,4218.846191,4122.94873,4280.512695,4265.128418,4248.205078,4471.025879,4524.358887,4365.641113,4419.615234,3410.0,1.0,15.0,,,,0.0,4.0,4.0,4.0,4.0,4.0,4.0,4.0,4.0,4.0,4.0,4.0,4.0,4.0,4.0,100.0,,,,,,,,,,,,,,,,,,,,,,,,,,,,,,,,,,,,,,,,,,,,,,,,,,,,,,,,,,,,,,,,,,,,,,,,,,,,,,,,,,,,,,,,,,,,,,,,,,,,,,,,,,,,,,,,,,,,,,,,,,,,,,,,,,,
1725715990.336564,1725715990.338722,185.0,0.0,4222.692383,4280.897461,4318.333496,4374.871582,4234.358887,4217.94873,4123.461426,4281.410156,4265.897461,4248.589844,4473.846191,4524.871582,4366.794922,4421.410156,3815.0,1.0,15.0,,,,0.0,4.0,4.0,4.0,4.0,4.0,4.0,4.0,4.0,4.0,4.0,4.0,4.0,4.0,4.0,100.0,,,,,,,,,,,,,,,,,,,,,,,,,,,,,,,,,,,,,,,,,,,,,,,,,,,,,,,,,,,,,,,,,,,,,,,,,,,,,,,,,,,,,,,,,,,,,,,,,,,,,,,,,,,,,,,,,,,,,,,,,,,,,,,,,,,
1725715990.340468,1725715990.342726,186.0,0.0,4222.307617,4279.615234,4321.153809,4375.384766,4235.512695,4217.692383,4124.487305,4281.922852,4268.333496,4251.282227,4475.128418,4525.384766,4367.436035,4422.179688,2882.0,1.0,15.0,,,,0.0,4.0,4.0,4.0,4.0,4.0,4.0,4.0,4.0,4.0,4.0,4.0,4.0,4.0,4.0,100.0,,,,,,,,,,,,,,,,,,,,,,,,,,,,,,,,,,,,,,,,,,,,,,,,,,,,,,,,,,,,,,,,,,,,,,,,,,,,,,,,,,,,,,,,,,,,,,,,,,,,,,,,,,,,,,,,,,,,,,,,,,,,,,,,,,,
1725715990.344372,1725715990.34663,187.0,0.0,4221.282227,4276.922852,4321.153809,4375.256348,4236.282227,4217.94873,4125.256348,4281.922852,4271.794922,4255.512695,4474.743652,4525.769043,4367.436035,4421.794922,3114.0,1.0,15.0,,,,0.0,4.0,4.0,4.0,4.0,4.0,4.0,4.0,4.0,4.0,4.0,4.0,4.0,4.0,4.0,100.0,,,,,,,,,,,,,,,,,,,,,,,,,,,,,,,,,,,,,,,,,,,,,,,,,,,,,,,,,,,,,,,,,,,,,,,,,,,,,,,,,,,,,,,,,,,,,,,,,,,,,,,,,,,,,,,,,,,,,,,,,,,,,,,,,,,
1725715990.348277,1725715990.350534,188.0,0.0,4220.128418,4274.102539,4318.205078,4374.743652,4236.025879,4218.205078,4125.128418,4281.922852,4274.615234,4259.358887,4473.461426,4526.025879,4366.922852,4420.384766,3410.0,1.0,15.0,,,,0.0,4.0,4.0,4.0,4.0,4.0,4.0,4.0,4.0,4.0,4.0,4.0,4.0,4.0,4.0,100.0,,,,,,,,,,,,,,,,,,,,,,,,,,,,,,,,,,,,,,,,,,,,,,,,,,,,,,,,0.0,0.0,1.0,0.0,1.0,0.0,,,,,,,,,,,,,,,,,,,,,,,,,,,,,,,,,,,,,,,,,,,,,,,,,,,,,,,,,,,,,,,,,,,,,,
1725715990.352181,1725715990.354538,189.0,0.0,4219.358887,4272.307617,4314.358887,4374.102539,4234.615234,4217.94873,4124.358887,4282.179688,4275.384766,4260.769043,4472.563965,4526.153809,4365.641113,4418.461426,3815.0,1.0,15.0,,,,0.0,4.0,4.0,4.0,4.0,4.0,4.0,4.0,4.0,4.0,4.0,4.0,4.0,4.0,4.0,100.0,,,,,,,,,,,,,,,,,,,,,,,,,,,,,,,,,,,,,,,,,,,,,,,,,,,,,,,,,,,,,,,,,,,,,,,,,,,,,,,,,,,,,,,,,,,,,,,,,,,,,,,,,,,,,,,,,,,,,,,,,,,,,,,,,,,
1725715990.356085,1725715990.358443,190.0,0.0,4219.102539,4272.307617,4312.179688,4373.717773,4233.461426,4217.692383,4123.717773,4282.820313,4273.461426,4258.974121,4473.077148,4526.153809,4364.358887,4416.794922,2882.0,1.0,15.0,,,,0.0,4.0,4.0,4.0,4.0,4.0,4.0,4.0,4.0,4.0,4.0,4.0,4.0,4.0,4.0,100.0,,,,,,,,,,,,,,,,,,,,,,,,,,,,,,,,,,,,,,,,,,,,,,,,,,,,,,,,,,,,,,,,,,,,,,,,,,,,,,,,,,,,,,,,,,,,,,,,,,,,,,,,,,,,,,,,,,,,,,,,,,,,,,,,,,,
1725715990.359989,1725715990.362347,191.0,0.0,4219.230957,4273.717773,4312.563965,4373.205078,4233.589844,4217.820313,4123.846191,4283.333496,4270.0,4255.128418,4474.358887,4525.897461,4363.461426,4415.641113,3114.0,1.0,15.0,,,,0.0,4.0,4.0,4.0,4.0,4.0,4.0,4.0,4.0,4.0,4.0,4.0,4.0,4.0,4.0,100.0,,,,,,,,,,,,,,,,,,,,,,,,,,,,,,,,,,,,,,,,,,,,,,,,,,,,,,,,,,,,,,,,,,,,,,,,,,,,,,,,,,,,,,,,,,,,,,,,,,,,,,,,,,,,,,,,,,,,,,,,,,,,,,,,,,,
1725715990.363893,1725715990.366251,192.0,0.0,4218.974121,4275.256348,4314.615234,4372.692383,4235.256348,4218.589844,4124.615234,4282.94873,4266.666504,4251.025879,4474.743652,4525.256348,4363.461426,4415.128418,3410.0,1.0,15.0,,,,0.0,4.0,4.0,4.0,4.0,4.0,4.0,4.0,4.0,4.0,4.0,4.0,4.0,4.0,4.0,100.0,,,,,,,,,,,,,,,,,,,,,,,,,,,,,,,,,,,,,,,,,,,,,,,,,,,,,,,,,,,,,,,,,,,,,,,,,,,,,,,,,,,,,,,,,,,,,,,,,,,,,,,,,,,,,,,,,,,,,,,,,,,,,,,,,,,
1725715990.367797,1725715990.370155,193.0,0.0,4217.692383,4275.641113,4316.282227,4371.922852,4237.307617,4219.487305,4125.128418,4281.538574,4264.487305,4248.077148,4472.563965,4524.487305,4363.717773,4415.128418,3815.0,1.0,15.0,,,,0.0,4.0,4.0,4.0,4.0,4.0,4.0,4.0,4.0,4.0,4.0,4.0,4.0,4.0,4.0,100.0,,,,,,,,,,,,,,,,,,,,,,,,,,,,,,,,,,,,,,,,,,,,,,,,,,,,,,,,,,,,,,,,,,,,,,,,,,,,,,,,,,,,,,,,,,,,,,,,,,,,,,,,,,,,,,,,,,,,,,,,,,,,,,,,,,,
1725715990.371701,1725715990.374159,194.0,0.0,4215.0,4273.717773,4315.769043,4371.410156,4238.333496,4220.0,4124.743652,4279.615234,4263.205078,4246.282227,4468.077148,4523.974121,4363.717773,4415.128418,2882.0,1.0,15.0,,,,0.0,4.0,4.0,4.0,4.0,4.0,4.0,4.0,4.0,4.0,4.0,4.0,4.0,4.0,4.0,100.0,,,,,,,,,,,,,,,,,,,,,,,,,,,,,,,,,,,,,,,,,,,,,,,,,,,,,,,,,,,,,,,,,,,,,,,,,,,,,,,,,,,,,,,,,,,,,,,,,,,,,,,,,,,,,,,,,,,,,,,,,,,,,,,,,,,
1725715990.375605,1725715990.378063,195.0,0.0,4212.436035,4269.615234,4313.333496,4371.153809,4237.692383,4219.871582,4123.717773,4278.077148,4262.436035,4244.871582,4463.461426,4523.589844,4363.974121,4415.0,3114.0,1.0,15.0,,,,0.0,4.0,4.0,4.0,4.0,4.0,4.0,4.0,4.0,4.0,4.0,4.0,4.0,4.0,4.0,100.0,,,,,,,,,,,,,,,,,,,,,,,,,,,,,,,,,,,,,,,,,,,,,,,,,,,,,,,,,,,,,,,,,,,,,,,,,,,,,,,,,,,,,,,,,,,,,,,,,,,,,,,,,,,,,,,,,,,,,,,,,,,,,,,,,,,
1725715990.379509,1725715990.381967,196.0,0.0,4211.282227,4265.256348,4310.512695,4371.538574,4235.897461,4219.487305,4123.333496,4277.563965,4262.820313,4244.358887,4461.153809,4523.461426,4364.615234,4414.487305,3410.0,1.0,15.0,,,,0.0,4.0,4.0,4.0,4.0,4.0,4.0,4.0,4.0,4.0,4.0,4.0,4.0,4.0,4.0,100.0,,,,,,,,,,,,,,,,,,,,,,,,,,,,,,,,,,,,,,,,,,,,,,,,,,,,,,,,0.0,0.0,1.0,0.0,1.0,0.0,,,,,,,,,,,,,,,,,,,,,,,,,,,,,,,,,,,,,,,,,,,,,,,,,,,,,,,,,,,,,,,,,,,,,,
1725715990.383413,1725715990.385871,197.0,0.0,4211.922852,4263.077148,4309.743652,4372.563965,4234.358887,4218.717773,4124.743652,4278.077148,4264.358887,4245.0,4462.05127,4523.077148,4365.641113,4413.589844,3815.0,1.0,15.0,,,,0.0,4.0,4.0,4.0,4.0,4.0,4.0,4.0,4.0,4.0,4.0,4.0,4.0,4.0,4.0,100.0,,,,,,,,,,,,,,,,,,,,,,,,,,,,,,,,,,,,,,,,,,,,,,,,,,,,,,,,,,,,,,,,,,,,,,,,,,,,,,,,,,,,,,,,,,,,,,,,,,,,,,,,,,,,,,,,,,,,,,,,,,,,,,,,,,,
1725715990.387318,1725715990.389875,198.0,0.0,4213.333496,4265.0,4311.410156,4373.846191,4234.102539,4217.820313,4127.94873,4278.974121,4266.282227,4246.794922,4464.487305,4522.307617,4366.538574,4412.94873,2882.0,1.0,15.0,,,,0.0,4.0,4.0,4.0,4.0,4.0,4.0,4.0,4.0,4.0,4.0,4.0,4.0,4.0,4.0,100.0,,,,,,,,,,,,,,,,,,,,,,,,,,,,,,,,,,,,,,,,,,,,,,,,,,,,,,,,,,,,,,,,,,,,,,,,,,,,,,,,,,,,,,,,,,,,,,,,,,,,,,,,,,,,,,,,,,,,,,,,,,,,,,,,,,,
1725715990.391222,1725715990.393779,199.0,0.0,4213.333496,4270.384766,4314.358887,4374.871582,4235.0,4217.05127,4131.794922,4279.615234,4266.666504,4247.94873,4466.282227,4521.666504,4366.025879,4412.820313,3114.0,1.0,15.0,,,,0.0,4.0,4.0,4.0,4.0,4.0,4.0,4.0,4.0,4.0,4.0,4.0,4.0,4.0,4.0,100.0,,,,,,,,,,,,,,,,,,,,,,,,,,,,,,,,,,,,,,,,,,,,,,,,,,,,,,,,,,,,,,,,,,,,,,,,,,,,,,,,,,,,,,,,,,,,,,,,,,,,,,,,,,,,,,,,,,,,,,,,,,,,,,,,,,,
1725715990.395126,1725715990.397683,200.0,0.0,4210.512695,4275.897461,4316.538574,4374.871582,4236.025879,4216.153809,4134.871582,4279.358887,4263.846191,4247.05127,4466.025879,4521.666504,4363.589844,4413.077148,3410.0,1.0,15.0,,,,0.0,4.0,4.0,4.0,4.0,4.0,4.0,4.0,4.0,4.0,4.0,4.0,4.0,4.0,4.0,100.0,,,,,,,,,,,,,,,,,,,,,,,,,,,,,,,,,,,,,,,,,,,,,,,,,,,,,,,,,,,,,,,,,,,,,,,,,,,,,,,,,,,,,,,,,,,,,,,,,,,,,,,,,,,,,,,,,,,,,,,,,,,,,,,,,,,
1725715990.39903,1725715990.401588,201.0,0.0,4205.641113,4278.077148,4316.794922,4373.846191,4236.666504,4215.384766,4136.153809,4278.717773,4258.333496,4243.974121,4463.846191,4522.436035,4360.128418,4413.205078,3815.0,1.0,15.0,,,,0.0,4.0,4.0,4.0,4.0,4.0,4.0,4.0,4.0,4.0,4.0,4.0,4.0,4.0,4.0,100.0,,,,,,,,,,,,,,,,,,,,,,,,,,,,,,,,,,,,,,,,,,,,,,,,,,,,,,,,,,,,,,,,,,,,,,,,,,,,,,,,,,,,,,,,,,,,,,,,,,,,,,,,,,,,,,,,,,,,,,,,,,,,,,,,,,,
1725715990.402934,1725715990.405492,202.0,0.0,4201.025879,4275.641113,4315.256348,4373.077148,4236.538574,4215.0,4135.769043,4278.333496,4253.077148,4240.256348,4461.410156,4523.077148,4357.563965,4412.94873,2882.0,1.0,15.0,,,,0.0,4.0,4.0,4.0,4.0,4.0,4.0,4.0,4.0,4.0,4.0,4.0,4.0,4.0,4.0,100.0,,,,,,,,,,,,,,,,,,,,,,,,,,,,,,,,,,,,,,,,,,,,,,,,,,,,,,,,,,,,,,,,,,,,,,,,,,,,,,,,,,,,,,,,,,,,,,,,,,,,,,,,,,,,,,,,,,,,,,,,,,,,,,,,,,,
1725715990.406838,1725715990.409296,203.0,0.0,4198.461426,4270.512695,4313.077148,4373.205078,4236.153809,4215.256348,4134.871582,4278.589844,4251.410156,4238.461426,4459.871582,4522.563965,4357.94873,4412.436035,3114.0,1.0,15.0,,,,0.0,4.0,4.0,4.0,4.0,4.0,4.0,4.0,4.0,4.0,4.0,4.0,4.0,4.0,4.0,100.0,,,,,,,,,,,,,,,,,,,,,,,,,,,,,,,,,,,,,,,,,,,,,,,,,,,,,,,,,,,,,,,,,,,,,,,,,,,,,,,,,,,,,,,,,,,,,,,,,,,,,,,,,,,,,,,,,,,,,,,,,,,,,,,,,,,
1725715990.410742,1725715990.4132,204.0,0.0,4198.077148,4265.897461,4311.410156,4373.717773,4235.897461,4215.512695,4134.487305,4279.358887,4254.743652,4240.0,4459.871582,4520.256348,4361.282227,4411.922852,3410.0,1.0,15.0,,,,0.0,4.0,4.0,4.0,4.0,4.0,4.0,4.0,4.0,4.0,4.0,4.0,4.0,4.0,4.0,100.0,,,,,,,,,,,,,,,,,,,,,,,,,,,,,,,,,,,,,,,,,,,,,,,,,,,,,,,,0.0,0.0,1.0,0.0,1.0,0.0,,,,,,,,,,,,,,,,,,,,,,,,,,,,,,,,,,,,,,,,,,,,,,,,,,,,,,,,,,,,,,,,,,,,,,
1725715990.414646,1725715990.417104,205.0,0.0,4198.461426,4263.974121,4310.512695,4373.205078,4236.153809,4214.871582,4134.871582,4280.0,4260.897461,4243.974121,4460.897461,4516.666504,4365.128418,4411.666504,3815.0,1.0,15.0,,,,0.0,4.0,4.0,4.0,4.0,4.0,4.0,4.0,4.0,4.0,4.0,4.0,4.0,4.0,4.0,100.0,,,,,,,,,,,,,,,,,,,,,,,,,,,,,,,,,,,,,,,,,,,,,,,,,,,,,,,,,,,,,,,,,,,,,,,,,,,,,,,,,,,,,,,,,,,,,,,,,,,,,,,,,,,,,,,,,,,,,,,,,,,,,,,,,,,
1725715990.41855,1725715990.420908,206.0,0.0,4198.077148,4264.487305,4310.384766,4370.384766,4236.410156,4213.077148,4135.769043,4280.0,4265.769043,4248.205078,4462.307617,4512.692383,4366.666504,4411.922852,2882.0,1.0,15.0,,,,0.0,4.0,4.0,4.0,4.0,4.0,4.0,4.0,4.0,4.0,4.0,4.0,4.0,4.0,4.0,100.0,,,,,,,,,,,,,,,,,,,,,,,,,,,,,,,,,,,,,,,,,,,,,,,,,,,,,,,,,,,,,,,,,,,,,,,,,,,,,,,,,,,,,,,,,,,,,,,,,,,,,,,,,,,,,,,,,,,,,,,,,,,,,,,,,,,
1725715990.422454,1725715990.424812,207.0,0.0,4197.05127,4266.153809,4310.641113,4365.384766,4236.025879,4210.641113,4136.282227,4278.974121,4266.666504,4250.512695,4463.333496,4509.230957,4364.743652,4411.922852,3114.0,1.0,15.0,,,,0.0,4.0,4.0,4.0,4.0,4.0,4.0,4.0,4.0,4.0,4.0,4.0,4.0,4.0,4.0,100.0,,,,,,,,,,,,,,,,,,,,,,,,,,,,,,,,,,,,,,,,,,,,,,,,,,,,,,,,,,,,,,,,,,,,,,,,,,,,,,,,,,,,,,,,,,,,,,,,,,,,,,,,,,,,,,,,,,,,,,,,,,,,,,,,,,,
1725715990.426359,1725715990.428716,208.0,0.0,4196.025879,4268.333496,4311.025879,4359.871582,4235.0,4208.974121,4136.282227,4277.436035,4264.230957,4250.384766,4463.589844,4506.410156,4361.025879,4411.282227,3410.0,1.0,15.0,,,,0.0,4.0,4.0,4.0,4.0,4.0,4.0,4.0,4.0,4.0,4.0,4.0,4.0,4.0,4.0,100.0,,,,,,,,,,,,,,,,,,,,,,,,,,,,,,,,,,,,,,,,,,,,,,,,,,,,,,,,,,,,,,,,,,,,,,,,,,,,,,,,,,,,,,,,,,,,,,,,,,,,,,,,,,,,,,,,,,,,,,,,,,,,,,,,,,,
1725715990.430263,1725715990.43272,209.0,0.0,4196.153809,4270.384766,4311.025879,4355.897461,4233.846191,4209.615234,4136.153809,4276.282227,4261.025879,4248.974121,4463.333496,4505.0,4358.333496,4410.384766,3815.0,1.0,15.0,,,,0.0,4.0,4.0,4.0,4.0,4.0,4.0,4.0,4.0,4.0,4.0,4.0,4.0,4.0,4.0,100.0,,,,,,,,,,,,,,,,,,,,,,,,,,,,,,,,,,,,,,,,,,,,,,,,,,,,,,,,,,,,,,,,,,,,,,,,,,,,,,,,,,,,,,,,,,,,,,,,,,,,,,,,,,,,,,,,,,,,,,,,,,,,,,,,,,,
1725715990.434167,1725715990.436625,210.0,0.0,4197.692383,4272.563965,4311.025879,4355.641113,4232.94873,4212.307617,4136.666504,4276.282227,4259.487305,4247.692383,4462.692383,4505.512695,4358.205078,4409.743652,2882.0,1.0,15.0,,,,0.0,4.0,4.0,4.0,4.0,4.0,4.0,4.0,4.0,4.0,4.0,4.0,4.0,4.0,4.0,100.0,,,,,,,,,,,,,,,,,,,,,,,,,,,,,,,,,,,,,,,,,,,,,,,,,,,,,,,,,,,,,,,,,,,,,,,,,,,,,,,,,,,,,,,,,,,,,,,,,,,,,,,,,,,,,,,,,,,,,,,,,,,,,,,,,,,
1725715990.438071,1725715990.440529,211.0,0.0,4199.743652,4274.487305,4311.538574,4359.102539,4232.820313,4215.769043,4138.205078,4277.436035,4260.384766,4247.563965,4462.436035,4509.102539,4360.0,4410.256348,3114.0,1.0,15.0,,,,0.0,4.0,4.0,4.0,4.0,4.0,4.0,4.0,4.0,4.0,4.0,4.0,4.0,4.0,4.0,100.0,,,,,,,,,,,,,,,,,,,,,,,,,,,,,,,,,,,,,,,,,,,,,,,,,,,,,,,,,,,,,,,,,,,,,,,,,,,,,,,,,,,,,,,,,,,,,,,,,,,,,,,,,,,,,,,,,,,,,,,,,,,,,,,,,,,
1725715990.441975,1725715990.444433,212.0,0.0,4201.025879,4275.512695,4312.692383,4364.102539,4233.461426,4217.307617,4140.769043,4279.230957,4262.563965,4248.846191,4463.077148,4515.769043,4362.05127,4411.794922,3410.0,1.0,15.0,,,,0.0,4.0,4.0,4.0,4.0,4.0,4.0,4.0,4.0,4.0,4.0,4.0,4.0,4.0,4.0,100.0,,,,,,,,,,,,,,,,,1.0,0.0,0.0,,,,,,,,,,,,,,,,,,,,,,,,,,,,,,,,,,,,,0.0,0.0,1.0,0.0,1.0,0.0,16.250889,2.582652,1.735408,1.417595,0.302681,2.123317,1.176458,0.413821,0.219719,0.035241,2.41803,1.276176,0.954232,0.380587,0.0634,3.651039,1.806398,0.480997,0.37881,0.066252,0.870792,1.004258,0.209594,0.142015,0.035094,0.212422,0.108155,0.161026,0.070948,0.052644,1.278268,0.773147,0.683412,0.171078,0.083619,1.146001,1.315288,0.586497,0.272792,0.064006,1.034505,0.509834,0.371516,0.295772,0.079687,2.170417,0.503773,1.013942,0.564788,0.121088,2.630491,1.156139,0.812066,0.572039,0.129671,3.07407,1.587916,0.796524,0.707781,0.16147,2.760005,1.481173,1.014529,0.668538,0.151918,2.300698,1.285477,0.801042,0.361257,0.090578
1725715990.445879,1725715990.448437,213.0,0.0,4200.641113,4274.743652,4313.846191,4367.179688,4234.615234,4215.512695,4143.077148,4280.384766,4264.358887,4250.641113,4464.487305,4522.94873,4362.307617,4413.846191,3815.0,1.0,15.0,,,,0.0,4.0,4.0,4.0,4.0,4.0,4.0,4.0,4.0,4.0,4.0,4.0,4.0,4.0,4.0,100.0,,,,,,,,,,,,,,,,,,,,,,,,,,,,,,,,,,,,,,,,,,,,,,,,,,,,,,,,,,,,,,,,,,,,,,,,,,,,,,,,,,,,,,,,,,,,,,,,,,,,,,,,,,,,,,,,,,,,,,,,,,,,,,,,,,,
1725715990.449783,1725715990.452341,214.0,0.0,4199.358887,4271.538574,4313.974121,4366.538574,4235.641113,4211.025879,4143.589844,4280.256348,4265.0,4251.794922,4465.384766,4526.538574,4360.384766,4415.256348,2882.0,1.0,15.0,,,,0.0,4.0,4.0,4.0,4.0,4.0,4.0,4.0,4.0,4.0,4.0,4.0,4.0,4.0,4.0,100.0,,,,,,,,,,,,,,,,,,,,,,,,,,,,,,,,,,,,,,,,,,,,,,,,,,,,,,,,,,,,,,,,,,,,,,,,,,,,,,,,,,,,,,,,,,,,,,,,,,,,,,,,,,,,,,,,,,,,,,,,,,,,,,,,,,,
1725715990.453687,1725715990.456245,215.0,0.0,4198.333496,4266.794922,4312.94873,4362.692383,4236.025879,4205.769043,4142.05127,4278.461426,4264.230957,4251.538574,4464.487305,4523.974121,4357.820313,4415.256348,3114.0,1.0,15.0,,,,0.0,4.0,4.0,4.0,4.0,4.0,4.0,4.0,4.0,4.0,4.0,4.0,4.0,4.0,4.0,100.0,,,,,,,,,,,,,,,,,,,,,,,,,,,,,,,,,,,,,,,,,,,,,,,,,,,,,,,,,,,,,,,,,,,,,,,,,,,,,,,,,,,,,,,,,,,,,,,,,,,,,,,,,,,,,,,,,,,,,,,,,,,,,,,,,,,
1725715990.457591,1725715990.460249,216.0,0.0,4198.333496,4263.077148,4312.05127,4358.333496,4235.769043,4202.05127,4139.487305,4275.384766,4262.436035,4250.0,4461.538574,4516.282227,4356.282227,4413.717773,3410.0,1.0,15.0,,,,0.0,4.0,4.0,4.0,4.0,4.0,4.0,4.0,4.0,4.0,4.0,4.0,4.0,4.0,4.0,100.0,,,,,,,,,,,,,,,,,,,,,,,,,,,,,,,,,,,,,,,,,,,,,,,,,,,,,,,,,,,,,,,,,,,,,,,,,,,,,,,,,,,,,,,,,,,,,,,,,,,,,,,,,,,,,,,,,,,,,,,,,,,,,,,,,,,
1725715990.461496,1725715990.464153,217.0,0.0,4199.358887,4262.94873,4312.692383,4356.153809,4235.256348,4200.641113,4138.333496,4272.692383,4260.128418,4247.692383,4458.717773,4508.333496,4357.05127,4411.666504,3815.0,1.0,15.0,,,,0.0,4.0,4.0,4.0,4.0,4.0,4.0,4.0,4.0,4.0,4.0,4.0,4.0,4.0,4.0,100.0,,,,,,,,,,,,,,,,,,,,,,,,,,,,,,,,,,,,,,,,,,,,,,,,,,,,,,,,,,,,,,,,,,,,,,,,,,,,,,,,,,,,,,,,,,,,,,,,,,,,,,,,,,,,,,,,,,,,,,,,,,,,,,,,,,,
1725715990.465399,1725715990.468057,218.0,0.0,4200.897461,4266.538574,4314.743652,4357.307617,4234.615234,4200.769043,4140.128418,4272.05127,4257.94873,4245.641113,4458.717773,4505.128418,4360.128418,4410.897461,2882.0,1.0,15.0,,,,0.0,4.0,4.0,4.0,4.0,4.0,4.0,4.0,4.0,4.0,4.0,4.0,4.0,4.0,4.0,100.0,,,,,,,,,,,,,,,,,,,,,,,,,,,,,,,,,,,,,,,,,,,,,,,,,,,,,,,,,,,,,,,,,,,,,,,,,,,,,,,,,,,,,,,,,,,,,,,,,,,,,,,,,,,,,,,,,,,,,,,,,,,,,,,,,,,
1725715990.469303,1725715990.471961,219.0,0.0,4202.692383,4271.922852,4317.05127,4361.538574,4234.230957,4201.153809,4144.615234,4273.974121,4256.922852,4245.256348,4462.94873,4508.846191,4364.230957,4412.307617,3114.0,1.0,15.0,,,,0.0,4.0,4.0,4.0,4.0,4.0,4.0,4.0,4.0,4.0,4.0,4.0,4.0,4.0,4.0,100.0,,,,,,,,,,,,,,,,,,,,,,,,,,,,,,,,,,,,,,,,,,,,,,,,,,,,,,,,,,,,,,,,,,,,,,,,,,,,,,,,,,,,,,,,,,,,,,,,,,,,,,,,,,,,,,,,,,,,,,,,,,,,,,,,,,,
1725715990.473208,1725715990.475865,220.0,0.0,4203.846191,4276.025879,4318.077148,4366.666504,4234.358887,4201.282227,4149.615234,4277.563965,4257.820313,4246.666504,4469.871582,4516.922852,4367.179688,4415.128418,3410.0,1.0,15.0,,,,0.0,4.0,4.0,4.0,4.0,4.0,4.0,4.0,4.0,4.0,4.0,4.0,4.0,4.0,4.0,100.0,,,,,,,,,,,,,,,,,,,,,,,,,,,,,,,,,,,,,,,,,,,,,,,,,,,,,,,,0.0,0.0,1.0,0.0,1.0,0.0,,,,,,,,,,,,,,,,,,,,,,,,,,,,,,,,,,,,,,,,,,,,,,,,,,,,,,,,,,,,,,,,,,,,,,
1725715990.477112,1725715990.479869,221.0,0.0,4204.358887,4276.922852,4316.666504,4371.025879,4234.743652,4201.410156,4153.333496,4280.512695,4260.512695,4249.230957,4475.769043,4524.358887,4367.820313,4417.692383,3815.0,1.0,15.0,,,,0.0,4.0,4.0,4.0,4.0,4.0,4.0,4.0,4.0,4.0,4.0,4.0,4.0,4.0,4.0,100.0,,,,,,,,,,,,,,,,,,,,,,,,,,,,,,,,,,,,,,,,,,,,,,,,,,,,,,,,,,,,,,,,,,,,,,,,,,,,,,,,,,,,,,,,,,,,,,,,,,,,,,,,,,,,,,,,,,,,,,,,,,,,,,,,,,,
1725715990.481016,1725715990.483774,222.0,0.0,4203.974121,4274.102539,4313.461426,4372.94873,4235.256348,4202.307617,4154.487305,4281.538574,4263.974121,4251.410156,4477.820313,4527.05127,4366.282227,4418.589844,2882.0,1.0,15.0,,,,0.0,4.0,4.0,4.0,4.0,4.0,4.0,4.0,4.0,4.0,4.0,4.0,4.0,4.0,4.0,100.0,,,,,,,,,,,,,,,,,,,,,,,,,,,,,,,,,,,,,,,,,,,,,,,,,,,,,,,,,,,,,,,,,,,,,,,,,,,,,,,,,,,,,,,,,,,,,,,,,,,,,,,,,,,,,,,,,,,,,,,,,,,,,,,,,,,
1725715990.48492,1725715990.487678,223.0,0.0,4203.461426,4269.487305,4310.256348,4372.94873,4235.897461,4203.717773,4153.461426,4281.153809,4266.922852,4252.179688,4475.897461,4525.512695,4364.358887,4418.846191,3114.0,1.0,15.0,,,,0.0,4.0,4.0,4.0,4.0,4.0,4.0,4.0,4.0,4.0,4.0,4.0,4.0,4.0,4.0,100.0,,,,,,,,,,,,,,,,,,,,,,,,,,,,,,,,,,,,,,,,,,,,,,,,,,,,,,,,,,,,,,,,,,,,,,,,,,,,,,,,,,,,,,,,,,,,,,,,,,,,,,,,,,,,,,,,,,,,,,,,,,,,,,,,,,,
1725715990.488824,1725715990.491582,224.0,0.0,4203.461426,4265.641113,4309.487305,4372.94873,4236.538574,4204.487305,4151.794922,4281.666504,4268.205078,4252.05127,4472.692383,4523.205078,4363.717773,4419.871582,3410.0,1.0,15.0,,,,0.0,4.0,4.0,4.0,4.0,4.0,4.0,4.0,4.0,4.0,4.0,4.0,4.0,4.0,4.0,100.0,,,,,,,,,,,,,,,,,,,,,,,,,,,,,,,,,,,,,,,,,,,,,,,,,,,,,,,,,,,,,,,,,,,,,,,,,,,,,,,,,,,,,,,,,,,,,,,,,,,,,,,,,,,,,,,,,,,,,,,,,,,,,,,,,,,
1725715990.492728,1725715990.495386,225.0,0.0,4204.102539,4264.487305,4311.410156,4374.230957,4236.666504,4203.717773,4150.512695,4284.358887,4268.077148,4251.794922,4471.538574,4523.077148,4364.743652,4422.436035,3815.0,1.0,15.0,,,,0.0,4.0,4.0,4.0,4.0,4.0,4.0,4.0,4.0,4.0,4.0,4.0,4.0,4.0,4.0,100.0,,,,,,,,,,,,,,,,,,,,,,,,,,,,,,,,,,,,,,,,,,,,,,,,,,,,,,,,,,,,,,,,,,,,,,,,,,,,,,,,,,,,,,,,,,,,,,,,,,,,,,,,,,,,,,,,,,,,,,,,,,,,,,,,,,,
1725715990.496632,1725715990.49929,226.0,0.0,4205.0,4266.025879,4314.615234,4377.05127,4236.153809,4202.307617,4150.0,4288.717773,4267.179688,4251.922852,4473.461426,4525.384766,4366.794922,4425.512695,2882.0,1.0,15.0,,,,0.0,4.0,4.0,4.0,4.0,4.0,4.0,4.0,4.0,4.0,4.0,4.0,4.0,4.0,4.0,100.0,,,,,,,,,,,,,,,,,,,,,,,,,,,,,,,,,,,,,,,,,,,,,,,,,,,,,,,,,,,,,,,,,,,,,,,,,,,,,,,,,,,,,,,,,,,,,,,,,,,,,,,,,,,,,,,,,,,,,,,,,,,,,,,,,,,
1725715990.500536,1725715990.503194,227.0,0.0,4205.384766,4269.615234,4316.666504,4380.0,4235.256348,4202.05127,4149.871582,4292.692383,4266.538574,4252.05127,4476.538574,4527.820313,4368.077148,4426.410156,3114.0,1.0,15.0,,,,0.0,4.0,4.0,4.0,4.0,4.0,4.0,4.0,4.0,4.0,4.0,4.0,4.0,4.0,4.0,100.0,,,,,,,,,,,,,,,,,,,,,,,,,,,,,,,,,,,,,,,,,,,,,,,,,,,,,,,,,,,,,,,,,,,,,,,,,,,,,,,,,,,,,,,,,,,,,,,,,,,,,,,,,,,,,,,,,,,,,,,,,,,,,,,,,,,
1725715990.50444,1725715990.507098,228.0,0.0,4205.641113,4274.102539,4316.282227,4381.410156,4235.256348,4204.358887,4149.743652,4293.846191,4266.666504,4251.538574,4477.692383,4528.717773,4367.563965,4424.102539,3410.0,1.0,15.0,,,,0.0,4.0,4.0,4.0,4.0,4.0,4.0,4.0,4.0,4.0,4.0,4.0,4.0,4.0,4.0,100.0,,,,,,,,,,,,,,,,,,,,,,,,,,,,,,,,,,,,,,,,,,,,,,,,,,,,,,,,0.0,0.0,1.0,0.0,1.0,0.0,,,,,,,,,,,,,,,,,,,,,,,,,,,,,,,,,,,,,,,,,,,,,,,,,,,,,,,,,,,,,,,,,,,,,,
1725715990.508345,1725715990.511002,229.0,0.0,4205.512695,4277.94873,4313.974121,4380.512695,4236.666504,4208.846191,4149.743652,4291.410156,4267.307617,4250.641113,4475.512695,4527.436035,4365.641113,4419.358887,3815.0,1.0,15.0,,,,0.0,4.0,4.0,4.0,4.0,4.0,4.0,4.0,4.0,4.0,4.0,4.0,4.0,4.0,4.0,100.0,,,,,,,,,,,,,,,,,,,,,,,,,,,,,,,,,,,,,,,,,,,,,,,,,,,,,,,,,,,,,,,,,,,,,,,,,,,,,,,,,,,,,,,,,,,,,,,,,,,,,,,,,,,,,,,,,,,,,,,,,,,,,,,,,,,
1725715990.512249,1725715990.514807,230.0,0.0,4204.743652,4279.743652,4311.410156,4377.94873,4239.230957,4213.077148,4150.128418,4286.922852,4267.563965,4249.743652,4470.641113,4524.871582,4364.102539,4414.487305,2882.0,1.0,15.0,,,,0.0,4.0,4.0,4.0,4.0,4.0,4.0,4.0,4.0,4.0,4.0,4.0,4.0,4.0,4.0,100.0,,,,,,,,,,,,,,,,,,,,,,,,,,,,,,,,,,,,,,,,,,,,,,,,,,,,,,,,,,,,,,,,,,,,,,,,,,,,,,,,,,,,,,,,,,,,,,,,,,,,,,,,,,,,,,,,,,,,,,,,,,,,,,,,,,,
1725715990.516153,1725715990.518711,231.0,0.0,4202.94873,4278.717773,4309.743652,4374.743652,4241.153809,4214.230957,4151.282227,4282.692383,4266.666504,4249.102539,4465.256348,4522.820313,4364.230957,4411.282227,3114.0,1.0,15.0,,,,0.0,4.0,4.0,4.0,4.0,4.0,4.0,4.0,4.0,4.0,4.0,4.0,4.0,4.0,4.0,100.0,,,,,,,,,,,,,,,,,,,,,,,,,,,,,,,,,,,,,,,,,,,,,,,,,,,,,,,,,,,,,,,,,,,,,,,,,,,,,,,,,,,,,,,,,,,,,,,,,,,,,,,,,,,,,,,,,,,,,,,,,,,,,,,,,,,
1725715990.520057,1725715990.522615,232.0,0.0,4200.512695,4274.743652,4309.230957,4371.922852,4241.282227,4211.666504,4152.179688,4280.512695,4265.0,4248.846191,4461.666504,4522.05127,4365.0,4410.512695,3410.0,1.0,15.0,,,,0.0,4.0,4.0,4.0,4.0,4.0,4.0,4.0,4.0,4.0,4.0,4.0,4.0,4.0,4.0,100.0,,,,,,,,,,,,,,,,,,,,,,,,,,,,,,,,,,,,,,,,,,,,,,,,,,,,,,,,,,,,,,,,,,,,,,,,,,,,,,,,,,,,,,,,,,,,,,,,,,,,,,,,,,,,,,,,,,,,,,,,,,,,,,,,,,,
1725715990.523961,1725715990.526419,233.0,0.0,4199.230957,4269.358887,4309.487305,4370.897461,4239.358887,4206.922852,4152.307617,4280.512695,4263.461426,4248.717773,4460.384766,4521.922852,4364.743652,4411.410156,3815.0,1.0,15.0,,,,0.0,4.0,4.0,4.0,4.0,4.0,4.0,4.0,4.0,4.0,4.0,4.0,4.0,4.0,4.0,100.0,,,,,,,,,,,,,,,,,,,,,,,,,,,,,,,,,,,,,,,,,,,,,,,,,,,,,,,,,,,,,,,,,,,,,,,,,,,,,,,,,,,,,,,,,,,,,,,,,,,,,,,,,,,,,,,,,,,,,,,,,,,,,,,,,,,
1725715990.527865,1725715990.530323,234.0,0.0,4200.641113,4265.128418,4310.512695,4372.563965,4236.794922,4202.563965,4151.410156,4281.410156,4262.94873,4248.589844,4461.153809,4521.794922,4362.563965,4412.820313,2882.0,1.0,15.0,,,,0.0,4.0,4.0,4.0,4.0,4.0,4.0,4.0,4.0,4.0,4.0,4.0,4.0,4.0,4.0,100.0,,,,,,,,,,,,,,,,,,,,,,,,,,,,,,,,,,,,,,,,,,,,,,,,,,,,,,,,,,,,,,,,,,,,,,,,,,,,,,,,,,,,,,,,,,,,,,,,,,,,,,,,,,,,,,,,,,,,,,,,,,,,,,,,,,,
1725715990.531769,1725715990.534227,235.0,0.0,4205.384766,4264.615234,4312.436035,4376.666504,4235.384766,4200.897461,4150.897461,4281.538574,4263.077148,4247.94873,4462.692383,4521.794922,4359.102539,4413.974121,3114.0,1.0,15.0,,,,0.0,4.0,4.0,4.0,4.0,4.0,4.0,4.0,4.0,4.0,4.0,4.0,4.0,4.0,4.0,100.0,,,,,,,,,,,,,,,,,,,,,,,,,,,,,,,,,,,,,,,,,,,,,,,,,,,,,,,,,,,,,,,,,,,,,,,,,,,,,,,,,,,,,,,,,,,,,,,,,,,,,,,,,,,,,,,,,,,,,,,,,,,,,,,,,,,
1725715990.535673,1725715990.538231,236.0,0.0,4212.05127,4269.230957,4315.769043,4381.922852,4236.666504,4201.794922,4152.05127,4280.769043,4262.563965,4246.922852,4464.102539,4523.077148,4356.153809,4415.0,3410.0,1.0,15.0,,,,0.0,4.0,4.0,4.0,4.0,4.0,4.0,4.0,4.0,4.0,4.0,4.0,4.0,4.0,4.0,100.0,,,,,,,,,,,,,,,,,,,,,,,,,,,,,,,,,,,,,,,,,,,,,,,,,,,,,,,,0.0,0.0,1.0,0.0,1.0,0.0,,,,,,,,,,,,,,,,,,,,,,,,,,,,,,,,,,,,,,,,,,,,,,,,,,,,,,,,,,,,,,,,,,,,,,
1725715990.539577,1725715990.542135,237.0,0.0,4218.333496,4276.794922,4319.743652,4385.769043,4240.384766,4203.974121,4154.743652,4279.487305,4260.0,4245.641113,4464.230957,4525.769043,4355.256348,4416.666504,3815.0,1.0,15.0,,,,0.0,4.0,4.0,4.0,4.0,4.0,4.0,4.0,4.0,4.0,4.0,4.0,4.0,4.0,4.0,100.0,,,,,,,,,,,,,,,,,,,,,,,,,,,,,,,,,,,,,,,,,,,,,,,,,,,,,,,,,,,,,,,,,,,,,,,,,,,,,,,,,,,,,,,,,,,,,,,,,,,,,,,,,,,,,,,,,,,,,,,,,,,,,,,,,,,
1725715990.543481,1725715990.546039,238.0,0.0,4221.410156,4282.820313,4323.333496,4387.307617,4244.743652,4205.384766,4157.307617,4278.974121,4255.897461,4244.615234,4462.94873,4528.846191,4356.410156,4418.717773,2882.0,1.0,15.0,,,,0.0,4.0,4.0,4.0,4.0,4.0,4.0,4.0,4.0,4.0,4.0,4.0,4.0,4.0,4.0,100.0,,,,,,,,,,,,,,,,,,,,,,,,,,,,,,,,,,,,,,,,,,,,,,,,,,,,,,,,,,,,,,,,,,,,,,,,,,,,,,,,,,,,,,,,,,,,,,,,,,,,,,,,,,,,,,,,,,,,,,,,,,,,,,,,,,,
1725715990.547386,1725715990.549943,239.0,0.0,4220.641113,4284.102539,4325.0,4386.794922,4247.307617,4205.256348,4158.333496,4279.743652,4252.436035,4244.230957,4461.282227,4531.282227,4358.461426,4420.384766,3114.0,1.0,15.0,,,,0.0,4.0,4.0,4.0,4.0,4.0,4.0,4.0,4.0,4.0,4.0,4.0,4.0,4.0,4.0,100.0,,,,,,,,,,,,,,,,,,,,,,,,,,,,,,,,,,,,,,,,,,,,,,,,,,,,,,,,,,,,,,,,,,,,,,,,,,,,,,,,,,,,,,,,,,,,,,,,,,,,,,,,,,,,,,,,,,,,,,,,,,,,,,,,,,,
1725715990.55129,1725715990.553947,240.0,0.0,4217.307617,4280.897461,4324.871582,4386.025879,4246.922852,4203.974121,4157.692383,4281.282227,4252.307617,4244.487305,4461.153809,4532.94873,4360.641113,4421.410156,3410.0,1.0,15.0,,,,0.0,4.0,4.0,4.0,4.0,4.0,4.0,4.0,4.0,4.0,4.0,4.0,4.0,4.0,4.0,100.0,,,,,,,,,,,,,,,,,,,,,,,,,,,,,,,,,,,,,,,,,,,,,,,,,,,,,,,,,,,,,,,,,,,,,,,,,,,,,,,,,,,,,,,,,,,,,,,,,,,,,,,,,,,,,,,,,,,,,,,,,,,,,,,,,,,
1725715990.555194,1725715990.557852,241.0,0.0,4214.358887,4276.922852,4323.333496,4386.025879,4243.974121,4202.436035,4156.922852,4282.563965,4256.282227,4245.897461,4464.487305,4534.743652,4362.307617,4422.820313,3815.0,1.0,15.0,,,,0.0,4.0,4.0,4.0,4.0,4.0,4.0,4.0,4.0,4.0,4.0,4.0,4.0,4.0,4.0,100.0,,,,,,,,,,,,,,,,,,,,,,,,,,,,,,,,,,,,,,,,,,,,,,,,,,,,,,,,,,,,,,,,,,,,,,,,,,,,,,,,,,,,,,,,,,,,,,,,,,,,,,,,,,,,,,,,,,,,,,,,,,,,,,,,,,,
1725715990.559098,1725715990.561756,242.0,0.0,4213.974121,4275.769043,4321.794922,4387.307617,4240.128418,4201.410156,4157.436035,4283.077148,4261.922852,4248.205078,4470.769043,4537.436035,4364.102539,4425.897461,2882.0,1.0,15.0,,,,0.0,4.0,4.0,4.0,4.0,4.0,4.0,4.0,4.0,4.0,4.0,4.0,4.0,4.0,4.0,100.0,,,,,,,,,,,,,,,,,,,,,,,,,,,,,,,,,,,,,,,,,,,,,,,,,,,,,,,,,,,,,,,,,,,,,,,,,,,,,,,,,,,,,,,,,,,,,,,,,,,,,,,,,,,,,,,,,,,,,,,,,,,,,,,,,,,
1725715990.563002,1725715990.56576,243.0,0.0,4215.897461,4277.820313,4320.769043,4388.589844,4236.922852,4200.897461,4158.846191,4283.205078,4265.0,4250.769043,4477.563965,4540.512695,4366.025879,4430.256348,3114.0,1.0,15.0,,,,0.0,4.0,4.0,4.0,4.0,4.0,4.0,4.0,4.0,4.0,4.0,4.0,4.0,4.0,4.0,100.0,,,,,,,,,,,,,,,,,,,,,,,,,,,,,,,,,,,,,,,,,,,,,,,,,,,,,,,,,,,,,,,,,,,,,,,,,,,,,,,,,,,,,,,,,,,,,,,,,,,,,,,,,,,,,,,,,,,,,,,,,,,,,,,,,,,
1725715990.566906,1725715990.569664,244.0,0.0,4217.692383,4280.256348,4320.384766,4388.589844,4234.871582,4200.769043,4160.0,4282.94873,4263.333496,4252.05127,4480.897461,4541.922852,4367.307617,4433.461426,3410.0,1.0,15.0,,,,0.0,4.0,4.0,4.0,4.0,4.0,4.0,4.0,4.0,4.0,4.0,4.0,4.0,4.0,4.0,100.0,,,,,,,,,,,,,,,,,1.0,0.0,0.0,,,,,,,,,,,,,,,,,,,,,,,,,,,,,,,,,,,,,0.0,0.0,1.0,0.0,1.0,0.0,17.43334,2.543944,1.655684,1.424689,0.297787,2.215157,1.186247,0.415959,0.217334,0.041001,2.590658,1.382714,0.965944,0.398059,0.058984,4.663087,1.95603,0.599174,0.403493,0.063999,1.007801,0.904728,0.197615,0.141945,0.037113,0.231467,0.101073,0.166611,0.074636,0.057319,1.200859,0.724223,0.675658,0.174843,0.081143,0.950034,1.10908,0.712258,0.24712,0.070778,0.948096,0.611294,0.472767,0.309083,0.086799,2.211802,0.622902,1.147204,0.584997,0.127508,2.864806,1.178538,0.892803,0.602864,0.126232,3.260977,1.500408,0.939492,0.74095,0.156658,3.035091,1.561177,1.112745,0.690171,0.145293,2.628201,1.420552,0.892593,0.393033,0.092134
1725715990.57081,1725715990.573568,245.0,0.0,4216.794922,4279.615234,4319.487305,4386.538574,4233.846191,4200.641113,4159.230957,4282.179688,4257.563965,4251.025879,4478.589844,4539.743652,4366.794922,4432.563965,3815.0,1.0,15.0,,,,0.0,4.0,4.0,4.0,4.0,4.0,4.0,4.0,4.0,4.0,4.0,4.0,4.0,4.0,4.0,100.0,,,,,,,,,,,,,,,,,,,,,,,,,,,,,,,,,,,,,,,,,,,,,,,,,,,,,,,,,,,,,,,,,,,,,,,,,,,,,,,,,,,,,,,,,,,,,,,,,,,,,,,,,,,,,,,,,,,,,,,,,,,,,,,,,,,
1725715990.574714,1725715990.577472,246.0,0.0,4212.05127,4275.512695,4317.307617,4382.94873,4233.717773,4200.641113,4156.794922,4280.256348,4251.153809,4247.692383,4471.282227,4532.820313,4363.717773,4426.794922,2882.0,1.0,15.0,,,,0.0,4.0,4.0,4.0,4.0,4.0,4.0,4.0,4.0,4.0,4.0,4.0,4.0,4.0,4.0,100.0,,,,,,,,,,,,,,,,,,,,,,,,,,,,,,,,,,,,,,,,,,,,,,,,,,,,,,,,,,,,,,,,,,,,,,,,,,,,,,,,,,,,,,,,,,,,,,,,,,,,,,,,,,,,,,,,,,,,,,,,,,,,,,,,,,,
1725715990.578618,1725715990.581476,247.0,0.0,4205.0,4269.615234,4313.589844,4379.230957,4233.974121,4200.384766,4154.230957,4277.179688,4246.666504,4242.436035,4461.538574,4522.563965,4357.820313,4417.94873,3114.0,1.0,15.0,,,,0.0,4.0,4.0,4.0,4.0,4.0,4.0,4.0,4.0,4.0,4.0,4.0,4.0,4.0,4.0,100.0,,,,,,,,,,,,,,,,,,,,,,,,,,,,,,,,,,,,,,,,,,,,,,,,,,,,,,,,,,,,,,,,,,,,,,,,,,,,,,,,,,,,,,,,,,,,,,,,,,,,,,,,,,,,,,,,,,,,,,,,,,,,,,,,,,,
1725715990.582523,1725715990.58538,248.0,0.0,4197.820313,4264.230957,4309.230957,4376.410156,4233.846191,4199.743652,4152.820313,4272.94873,4243.974121,4235.641113,4452.179688,4511.282227,4349.743652,4408.846191,3410.0,1.0,15.0,,,,0.0,4.0,4.0,4.0,4.0,4.0,4.0,4.0,4.0,4.0,4.0,4.0,4.0,4.0,4.0,100.0,,,,,,,,,,,,,,,,,,,,,,,,,,,,,,,,,,,,,,,,,,,,,,,,,,,,,,,,,,,,,,,,,,,,,,,,,,,,,,,,,,,,,,,,,,,,,,,,,,,,,,,,,,,,,,,,,,,,,,,,,,,,,,,,,,,
1725715990.586427,1725715990.589284,249.0,0.0,4191.922852,4260.256348,4304.743652,4373.333496,4231.922852,4198.846191,4152.692383,4268.333496,4240.769043,4227.820313,4444.230957,4501.153809,4341.153809,4401.153809,3815.0,1.0,15.0,,,,0.0,4.0,4.0,4.0,4.0,4.0,4.0,4.0,4.0,4.0,4.0,4.0,4.0,4.0,4.0,100.0,,,,,,,,,,,,,,,,,,,,,,,,,,,,,,,,,,,,,,,,,,,,,,,,,,,,,,,,,,,,,,,,,,,,,,,,,,,,,,,,,,,,,,,,,,,,,,,,,,,,,,,,,,,,,,,,,,,,,,,,,,,,,,,,,,,
1725715990.590331,1725715990.593188,250.0,0.0,4187.436035,4257.05127,4299.358887,4368.717773,4227.436035,4198.333496,4152.307617,4264.358887,4236.025879,4220.0,4437.436035,4493.461426,4332.94873,4394.615234,2882.0,1.0,15.0,,,,0.0,4.0,4.0,4.0,4.0,4.0,4.0,4.0,4.0,4.0,4.0,4.0,4.0,4.0,4.0,100.0,,,,,,,,,,,,,,,,,,,,,,,,,,,,,,,,,,,,,,,,,,,,,,,,,,,,,,,,,,,,,,,,,,,,,,,,,,,,,,,,,,,,,,,,,,,,,,,,,,,,,,,,,,,,,,,,,,,,,,,,,,,,,,,,,,,
1725715990.594235,1725715990.597092,251.0,0.0,4183.717773,4252.820313,4293.333496,4362.179688,4221.538574,4198.461426,4150.769043,4262.307617,4230.897461,4213.717773,4431.153809,4488.205078,4326.025879,4388.717773,3114.0,1.0,15.0,,,,0.0,4.0,4.0,4.0,4.0,4.0,4.0,4.0,4.0,4.0,4.0,4.0,4.0,4.0,4.0,100.0,,,,,,,,,,,,,,,,,,,,,,,,,,,,,,,,,,,,,,,,,,,,,,,,,,,,,,,,,,,,,,,,,,,,,,,,,,,,,,,,,,,,,,,,,,,,,,,,,,,,,,,,,,,,,,,,,,,,,,,,,,,,,,,,,,,
1725715990.598139,1725715990.600897,252.0,0.0,4180.769043,4247.179688,4287.692383,4355.769043,4216.538574,4199.102539,4148.461426,4263.205078,4228.846191,4210.128418,4426.538574,4485.128418,4321.153809,4383.077148,3410.0,1.0,15.0,,,,0.0,4.0,4.0,4.0,4.0,4.0,4.0,4.0,4.0,4.0,4.0,4.0,4.0,4.0,4.0,100.0,,,,,,,,,,,,,,,,,,,,,,,,,,,,,,,,,,,,,,,,,,,,,,,,,,,,,,,,0.0,0.0,1.0,0.0,1.0,0.0,,,,,,,,,,,,,,,,,,,,,,,,,,,,,,,,,,,,,,,,,,,,,,,,,,,,,,,,,,,,,,,,,,,,,,
1725715990.602043,1725715990.604801,253.0,0.0,4179.230957,4241.922852,4284.487305,4351.922852,4214.615234,4200.0,4147.179688,4266.666504,4232.05127,4210.512695,4425.256348,4483.846191,4319.358887,4379.487305,3815.0,1.0,15.0,,,,0.0,4.0,4.0,4.0,4.0,4.0,4.0,4.0,4.0,4.0,4.0,4.0,4.0,4.0,4.0,100.0,,,,,,,,,,,,,,,,,,,,,,,,,,,,,,,,,,,,,,,,,,,,,,,,,,,,,,,,,,,,,,,,,,,,,,,,,,,,,,,,,,,,,,,,,,,,,,,,,,,,,,,,,,,,,,,,,,,,,,,,,,,,,,,,,,,
1725715990.605947,1725715990.608705,254.0,0.0,4180.256348,4239.615234,4284.871582,4352.563965,4216.666504,4200.641113,4147.94873,4271.538574,4239.230957,4215.0,4429.358887,4485.512695,4321.282227,4380.769043,2882.0,1.0,15.0,,,,0.0,4.0,4.0,4.0,4.0,4.0,4.0,4.0,4.0,4.0,4.0,4.0,4.0,4.0,4.0,100.0,,,,,,,,,,,,,,,,,,,,,,,,,,,,,,,,,,,,,,,,,,,,,,,,,,,,,,,,,,,,,,,,,,,,,,,,,,,,,,,,,,,,,,,,,,,,,,,,,,,,,,,,,,,,,,,,,,,,,,,,,,,,,,,,,,,
1725715990.609851,1725715990.612609,255.0,0.0,4185.0,4242.05127,4288.717773,4356.794922,4221.153809,4201.410156,4150.384766,4276.025879,4246.410156,4222.436035,4437.94873,4491.410156,4326.794922,4387.820313,15.0,1.0,15.0,,,,0.0,4.0,4.0,4.0,4.0,4.0,4.0,4.0,4.0,4.0,4.0,4.0,4.0,4.0,4.0,100.0,,,,,,,,,,,,,,,,,,,,,,,,,,,,,,,,,,,,,,,,,,,,,,,,,,,,,,,,,,,,,,,,,,,,,,,,,,,,,,,,,,,,,,,,,,,,,,,,,,,,,,,,,,,,,,,,,,,,,,,,,,,,,,,,,,,
1725715990.613755,1725715990.616513,0.0,0.0,4192.820313,4248.205078,4294.615234,4362.563965,4226.538574,4203.461426,4153.077148,4278.974121,4250.641113,4231.153809,4447.820313,4501.153809,4335.384766,4398.333496,2692.0,1.0,15.0,,,,0.0,4.0,4.0,4.0,4.0,4.0,4.0,4.0,4.0,4.0,4.0,4.0,4.0,4.0,4.0,100.0,,,,,,,,,,,,,,,,,,,,,,,,,,,,,,,,,,,,,,,,,,,,,,,,,,,,,,,,,,,,,,,,,,,,,,,,,,,,,,,,,,,,,,,,,,,,,,,,,,,,,,,,,,,,,,,,,,,,,,,,,,,,,,,,,,,
1725715990.617659,1725715990.620317,1.0,0.0,4202.436035,4255.641113,4300.641113,4367.94873,4231.538574,4207.563965,4155.256348,4280.0,4251.666504,4239.230957,4455.384766,4511.794922,4345.384766,4408.077148,2563.0,1.0,15.0,,,,0.0,4.0,4.0,4.0,4.0,4.0,4.0,4.0,4.0,4.0,4.0,4.0,4.0,4.0,4.0,100.0,,,,,,,,,,,,,,,,,,,,,,,,,,,,,,,,,,,,,,,,,,,,,,,,,,,,,,,,,,,,,,,,,,,,,,,,,,,,,,,,,,,,,,,,,,,,,,,,,,,,,,,,,,,,,,,,,,,,,,,,,,,,,,,,,,,
1725715990.621564,1725715990.624221,2.0,0.0,4211.538574,4262.05127,4305.0,4371.794922,4235.128418,4212.307617,4157.436035,4279.487305,4252.179688,4245.256348,4459.487305,4519.743652,4354.615234,4413.717773,2489.0,1.0,15.0,,,,0.0,4.0,4.0,4.0,4.0,4.0,4.0,4.0,4.0,4.0,4.0,4.0,4.0,4.0,4.0,100.0,,,,,,,,,,,,,,,,,,,,,,,,,,,,,,,,,,,,,,,,,,,,,,,,,,,,,,,,,,,,,,,,,,,,,,,,,,,,,,,,,,,,,,,,,,,,,,,,,,,,,,,,,,,,,,,,,,,,,,,,,,,,,,,,,,,
1725715990.625468,1725715990.628125,3.0,0.0,4218.077148,4266.410156,4307.436035,4374.230957,4236.666504,4215.384766,4160.769043,4278.333496,4254.487305,4248.974121,4461.282227,4523.461426,4361.282227,4415.128418,2458.0,1.0,15.0,,,,0.0,4.0,4.0,4.0,4.0,4.0,4.0,4.0,4.0,4.0,4.0,4.0,4.0,4.0,4.0,100.0,,,,,,,,,,,,,,,,,,,,,,,,,,,,,,,,,,,,,,,,,,,,,,,,,,,,,,,,,,,,,,,,,,,,,,,,,,,,,,,,,,,,,,,,,,,,,,,,,,,,,,,,,,,,,,,,,,,,,,,,,,,,,,,,,,,
1725715990.629372,1725715990.63193,4.0,0.0,4221.794922,4269.358887,4308.846191,4376.410156,4236.282227,4214.871582,4165.0,4277.307617,4258.974121,4251.153809,4463.461426,4524.615234,4364.871582,4415.0,2434.0,1.0,15.0,,,,0.0,4.0,4.0,4.0,4.0,4.0,4.0,4.0,4.0,4.0,4.0,4.0,4.0,4.0,4.0,100.0,,,,,,,,,,,,,,,,,,,,,,,,,,,,,,,,,,,,,,,,,,,,,,,,,,,,,,,,0.0,0.0,1.0,0.0,1.0,0.0,,,,,,,,,,,,,,,,,,,,,,,,,,,,,,,,,,,,,,,,,,,,,,,,,,,,,,,,,,,,,,,,,,,,,,
1725715990.633276,1725715990.635834,5.0,0.0,4224.358887,4271.922852,4310.256348,4379.230957,4235.384766,4211.410156,4168.846191,4277.179688,4263.333496,4252.692383,4467.94873,4526.282227,4366.666504,4416.922852,2394.0,1.0,15.0,,,,0.0,4.0,4.0,4.0,4.0,4.0,4.0,4.0,4.0,4.0,4.0,4.0,4.0,4.0,4.0,100.0,,,,,,,,,,,,,,,,,,,,,,,,,,,,,,,,,,,,,,,,,,,,,,,,,,,,,,,,,,,,,,,,,,,,,,,,,,,,,,,,,,,,,,,,,,,,,,,,,,,,,,,,,,,,,,,,,,,,,,,,,,,,,,,,,,,
1725715990.63718,1725715990.639738,6.0,0.0,4227.436035,4274.358887,4312.179688,4383.333496,4234.871582,4207.563965,4170.897461,4278.205078,4264.615234,4253.717773,4473.846191,4530.256348,4367.563965,4421.922852,2429.0,1.0,15.0,,,,0.0,4.0,4.0,4.0,4.0,4.0,4.0,4.0,4.0,4.0,4.0,4.0,4.0,4.0,4.0,100.0,,,,,,,,,,,,,,,,,,,,,,,,,,,,,,,,,,,,,,,,,,,,,,,,,,,,,,,,,,,,,,,,,,,,,,,,,,,,,,,,,,,,,,,,,,,,,,,,,,,,,,,,,,,,,,,,,,,,,,,,,,,,,,,,,,,
1725715990.641084,1725715990.643742,7.0,0.0,4232.307617,4276.666504,4314.871582,4387.692383,4235.769043,4206.282227,4170.897461,4279.487305,4261.794922,4253.846191,4478.077148,4535.384766,4367.563965,4428.205078,2491.0,1.0,15.0,,,,0.0,4.0,4.0,4.0,4.0,4.0,4.0,4.0,4.0,4.0,4.0,4.0,4.0,4.0,4.0,100.0,,,,,,,,,,,,,,,,,,,,,,,,,,,,,,,,,,,,,,,,,,,,,,,,,,,,,,,,,,,,,,,,,,,,,,,,,,,,,,,,,,,,,,,,,,,,,,,,,,,,,,,,,,,,,,,,,,,,,,,,,,,,,,,,,,,
1725715990.644988,1725715990.647646,8.0,0.0,4238.974121,4278.717773,4318.077148,4390.641113,4238.333496,4208.717773,4170.0,4280.128418,4256.282227,4252.436035,4477.436035,4538.846191,4366.666504,4432.436035,2469.0,1.0,15.0,,,,0.0,4.0,4.0,4.0,4.0,4.0,4.0,4.0,4.0,4.0,4.0,4.0,4.0,4.0,4.0,100.0,,,,,,,,,,,,,,,,,,,,,,,,,,,,,,,,,,,,,,,,,,,,,,,,,,,,,,,,,,,,,,,,,,,,,,,,,,,,,,,,,,,,,,,,,,,,,,,,,,,,,,,,,,,,,,,,,,,,,,,,,,,,,,,,,,,
1725715990.648892,1725715990.65155,9.0,0.0,4245.769043,4280.512695,4321.666504,4391.282227,4241.794922,4213.333496,4169.743652,4279.743652,4250.769043,4250.256348,4471.922852,4538.205078,4365.0,4432.94873,2558.0,1.0,15.0,,,,0.0,4.0,4.0,4.0,4.0,4.0,4.0,4.0,4.0,4.0,4.0,4.0,4.0,4.0,4.0,100.0,,,,,,,,,,,,,,,,,,,,,,,,,,,,,,,,,,,,,,,,,,,,,,,,,,,,,,,,,,,,,,,,,,,,,,,,,,,,,,,,,,,,,,,,,,,,,,,,,,,,,,,,,,,,,,,,,,,,,,,,,,,,,,,,,,,
1725715990.652796,1725715990.655454,10.0,0.0,4250.897461,4281.410156,4325.128418,4390.512695,4244.615234,4217.307617,4170.897461,4278.717773,4247.820313,4247.94873,4464.615234,4534.358887,4363.205078,4430.769043,2882.0,1.0,15.0,,,,0.0,4.0,4.0,4.0,4.0,4.0,4.0,4.0,4.0,4.0,4.0,4.0,4.0,4.0,4.0,100.0,,,,,,,,,,,,,,,,,,,,,,,,,,,,,,,,,,,,,,,,,,,,,,,,,,,,,,,,,,,,,,,,,,,,,,,,,,,,,,,,,,,,,,,,,,,,,,,,,,,,,,,,,,,,,,,,,,,,,,,,,,,,,,,,,,,
1725715990.6567,1725715990.659458,11.0,0.0,4253.205078,4280.897461,4327.307617,4390.384766,4245.512695,4218.717773,4172.692383,4277.94873,4247.563965,4246.666504,4460.256348,4530.641113,4362.436035,4428.205078,3114.0,1.0,15.0,,,,0.0,4.0,4.0,4.0,4.0,4.0,4.0,4.0,4.0,4.0,4.0,4.0,4.0,4.0,4.0,100.0,,,,,,,,,,,,,,,,,,,,,,,,,,,,,,,,,,,,,,,,,,,,,,,,,,,,,,,,,,,,,,,,,,,,,,,,,,,,,,,,,,,,,,,,,,,,,,,,,,,,,,,,,,,,,,,,,,,,,,,,,,,,,,,,,,,
1725715990.660605,1725715990.663362,12.0,0.0,4252.94873,4279.615234,4327.692383,4392.05127,4244.615234,4216.922852,4173.589844,4277.94873,4248.461426,4246.666504,4461.153809,4530.769043,4363.333496,4427.436035,3410.0,1.0,15.0,,,,0.0,4.0,4.0,4.0,4.0,4.0,4.0,4.0,4.0,4.0,4.0,4.0,4.0,4.0,4.0,100.0,,,,,,,,,,,,,,,,,,,,,,,,,,,,,,,,,,,,,,,,,,,,,,,,,,,,,,,,0.0,0.0,1.0,0.0,1.0,0.0,,,,,,,,,,,,,,,,,,,,,,,,,,,,,,,,,,,,,,,,,,,,,,,,,,,,,,,,,,,,,,,,,,,,,,
1725715990.664509,1725715990.667266,13.0,0.0,4251.410156,4278.589844,4325.897461,4395.641113,4243.077148,4213.205078,4172.692383,4279.102539,4248.846191,4247.94873,4466.666504,4535.0,4365.641113,4428.717773,3815.0,1.0,15.0,,,,0.0,4.0,4.0,4.0,4.0,4.0,4.0,4.0,4.0,4.0,4.0,4.0,4.0,4.0,4.0,100.0,,,,,,,,,,,,,,,,,,,,,,,,,,,,,,,,,,,,,,,,,,,,,,,,,,,,,,,,,,,,,,,,,,,,,,,,,,,,,,,,,,,,,,,,,,,,,,,,,,,,,,,,,,,,,,,,,,,,,,,,,,,,,,,,,,,
1725715990.668413,1725715990.671171,14.0,0.0,4250.0,4278.589844,4322.436035,4398.846191,4242.563965,4209.358887,4171.025879,4281.025879,4248.461426,4249.230957,4473.077148,4539.743652,4367.692383,4430.769043,2882.0,1.0,15.0,,,,0.0,4.0,4.0,4.0,4.0,4.0,4.0,4.0,4.0,4.0,4.0,4.0,4.0,4.0,4.0,100.0,,,,,,,,,,,,,,,,,,,,,,,,,,,,,,,,,,,,,,,,,,,,,,,,,,,,,,,,,,,,,,,,,,,,,,,,,,,,,,,,,,,,,,,,,,,,,,,,,,,,,,,,,,,,,,,,,,,,,,,,,,,,,,,,,,,
1725715990.672317,1725715990.675075,15.0,0.0,4249.487305,4278.974121,4318.589844,4399.230957,4243.589844,4206.538574,4169.743652,4282.820313,4248.205078,4249.615234,4476.538574,4540.256348,4367.94873,4431.538574,3114.0,1.0,15.0,,,,0.0,4.0,4.0,4.0,4.0,4.0,4.0,4.0,4.0,4.0,4.0,4.0,4.0,4.0,4.0,100.0,,,,,,,,,,,,,,,,,,,,,,,,,,,,,,,,,,,,,,,,,,,,,,,,,,,,,,,,,,,,,,,,,,,,,,,,,,,,,,,,,,,,,,,,,,,,,,,,,,,,,,,,,,,,,,,,,,,,,,,,,,,,,,,,,,,
1725715990.676221,1725715990.678879,16.0,0.0,4249.615234,4278.846191,4316.153809,4396.025879,4244.743652,4204.871582,4169.615234,4283.205078,4249.358887,4248.589844,4475.641113,4535.256348,4365.641113,4430.128418,3410.0,1.0,15.0,,,,0.0,4.0,4.0,4.0,4.0,4.0,4.0,4.0,4.0,4.0,4.0,4.0,4.0,4.0,4.0,100.0,,,,,,,,,,,,,,,,,,,,,,,,,,,,,,,,,,,,,,,,,,,,,,,,,,,,,,,,,,,,,,,,,,,,,,,,,,,,,,,,,,,,,,,,,,,,,,,,,,,,,,,,,,,,,,,,,,,,,,,,,,,,,,,,,,,
1725715990.680125,1725715990.682783,17.0,0.0,4250.128418,4278.205078,4315.512695,4390.641113,4244.358887,4203.846191,4169.615234,4282.179688,4252.307617,4247.436035,4472.692383,4527.820313,4362.820313,4427.692383,3815.0,1.0,15.0,,,,0.0,4.0,4.0,4.0,4.0,4.0,4.0,4.0,4.0,4.0,4.0,4.0,4.0,4.0,4.0,100.0,,,,,,,,,,,,,,,,,,,,,,,,,,,,,,,,,,,,,,,,,,,,,,,,,,,,,,,,,,,,,,,,,,,,,,,,,,,,,,,,,,,,,,,,,,,,,,,,,,,,,,,,,,,,,,,,,,,,,,,,,,,,,,,,,,,
1725715990.684029,1725715990.686787,18.0,0.0,4250.512695,4277.179688,4315.512695,4386.153809,4242.05127,4203.205078,4169.102539,4281.025879,4256.410156,4248.077148,4470.897461,4523.589844,4361.922852,4425.897461,2882.0,1.0,15.0,,,,0.0,4.0,4.0,4.0,4.0,4.0,4.0,4.0,4.0,4.0,4.0,4.0,4.0,4.0,4.0,100.0,,,,,,,,,,,,,,,,,,,,,,,,,,,,,,,,,,,,,,,,,,,,,,,,,,,,,,,,,,,,,,,,,,,,,,,,,,,,,,,,,,,,,,,,,,,,,,,,,,,,,,,,,,,,,,,,,,,,,,,,,,,,,,,,,,,
1725715990.687933,1725715990.690691,19.0,0.0,4250.641113,4276.410156,4315.128418,4385.256348,4238.333496,4202.692383,4168.077148,4281.794922,4260.256348,4250.769043,4472.307617,4525.641113,4364.358887,4425.769043,3114.0,1.0,15.0,,,,0.0,4.0,4.0,4.0,4.0,4.0,4.0,4.0,4.0,4.0,4.0,4.0,4.0,4.0,4.0,100.0,,,,,,,,,,,,,,,,,,,,,,,,,,,,,,,,,,,,,,,,,,,,,,,,,,,,,,,,,,,,,,,,,,,,,,,,,,,,,,,,,,,,,,,,,,,,,,,,,,,,,,,,,,,,,,,,,,,,,,,,,,,,,,,,,,,
1725715990.691837,1725715990.694595,20.0,0.0,4250.256348,4276.025879,4313.846191,4388.205078,4234.871582,4202.692383,4167.307617,4284.615234,4262.820313,4254.102539,4475.256348,4532.307617,4368.333496,4426.794922,3410.0,1.0,15.0,,,,0.0,4.0,4.0,4.0,4.0,4.0,4.0,4.0,4.0,4.0,4.0,4.0,4.0,4.0,4.0,100.0,,,,,,,,,,,,,,,,,1.0,0.0,0.0,,,,,,,,,,,,,,,,,,,,,,,,,,,,,,,,,,,,,0.0,0.0,1.0,0.0,1.0,0.0,16.597023,2.24544,1.440242,1.25152,0.26141,2.064108,1.099004,0.393887,0.196987,0.050608,2.544194,1.364887,0.85876,0.367082,0.053529,5.314339,1.97096,0.672169,0.390704,0.063874,1.059179,0.740651,0.165431,0.126962,0.041287,0.26182,0.099504,0.165347,0.075608,0.062293,1.119688,0.637748,0.600147,0.168438,0.075345,0.771143,0.9276,0.80038,0.211335,0.079386,0.837627,0.692783,0.547854,0.29068,0.095276,2.072253,0.727798,1.17561,0.529111,0.124865,2.810005,1.17647,0.881799,0.573992,0.125883,3.198628,1.359053,1.035345,0.685413,0.141579,3.019937,1.534813,1.103213,0.642691,0.145629,2.71974,1.460186,0.930149,0.385693,0.089692
1725715990.695741,1725715990.698499,21.0,0.0,4249.615234,4276.153809,4312.179688,4392.692383,4232.692383,4203.077148,4167.179688,4288.077148,4263.461426,4256.410156,4477.179688,4538.717773,4371.025879,4427.820313,3815.0,1.0,15.0,,,,0.0,4.0,4.0,4.0,4.0,4.0,4.0,4.0,4.0,4.0,4.0,4.0,4.0,4.0,4.0,100.0,,,,,,,,,,,,,,,,,,,,,,,,,,,,,,,,,,,,,,,,,,,,,,,,,,,,,,,,,,,,,,,,,,,,,,,,,,,,,,,,,,,,,,,,,,,,,,,,,,,,,,,,,,,,,,,,,,,,,,,,,,,,,,,,,,,
1725715990.699645,1725715990.702403,22.0,0.0,4248.974121,4276.794922,4311.538574,4395.897461,4232.692383,4203.205078,4167.820313,4290.0,4262.563965,4257.179688,4476.282227,4541.153809,4370.384766,4428.589844,2882.0,1.0,15.0,,,,0.0,4.0,4.0,4.0,4.0,4.0,4.0,4.0,4.0,4.0,4.0,4.0,4.0,4.0,4.0,100.0,,,,,,,,,,,,,,,,,,,,,,,,,,,,,,,,,,,,,,,,,,,,,,,,,,,,,,,,,,,,,,,,,,,,,,,,,,,,,,,,,,,,,,,,,,,,,,,,,,,,,,,,,,,,,,,,,,,,,,,,,,,,,,,,,,,
1725715990.70355,1725715990.706208,23.0,0.0,4249.102539,4277.307617,4312.820313,4396.282227,4235.0,4202.94873,4168.589844,4288.846191,4261.410156,4257.179688,4473.717773,4539.871582,4367.692383,4429.230957,3114.0,1.0,15.0,,,,0.0,4.0,4.0,4.0,4.0,4.0,4.0,4.0,4.0,4.0,4.0,4.0,4.0,4.0,4.0,100.0,,,,,,,,,,,,,,,,,,,,,,,,,,,,,,,,,,,,,,,,,,,,,,,,,,,,,,,,,,,,,,,,,,,,,,,,,,,,,,,,,,,,,,,,,,,,,,,,,,,,,,,,,,,,,,,,,,,,,,,,,,,,,,,,,,,
1725715990.707454,1725715990.710112,24.0,0.0,4250.512695,4277.179688,4316.025879,4393.974121,4238.846191,4202.563965,4169.102539,4285.512695,4261.538574,4257.563965,4472.179688,4537.820313,4366.153809,4430.256348,3410.0,1.0,15.0,,,,0.0,4.0,4.0,4.0,4.0,4.0,4.0,4.0,4.0,4.0,4.0,4.0,4.0,4.0,4.0,100.0,,,,,,,,,,,,,,,,,,,,,,,,,,,,,,,,,,,,,,,,,,,,,,,,,,,,,,,,,,,,,,,,,,,,,,,,,,,,,,,,,,,,,,,,,,,,,,,,,,,,,,,,,,,,,,,,,,,,,,,,,,,,,,,,,,,
1725715990.711358,1725715990.714016,25.0,0.0,4253.461426,4276.410156,4319.487305,4390.512695,4242.692383,4202.692383,4169.102539,4281.794922,4263.077148,4258.333496,4473.846191,4537.820313,4367.820313,4431.282227,3815.0,1.0,15.0,,,,0.0,4.0,4.0,4.0,4.0,4.0,4.0,4.0,4.0,4.0,4.0,4.0,4.0,4.0,4.0,100.0,,,,,,,,,,,,,,,,,,,,,,,,,,,,,,,,,,,,,,,,,,,,,,,,,,,,,,,,,,,,,,,,,,,,,,,,,,,,,,,,,,,,,,,,,,,,,,,,,,,,,,,,,,,,,,,,,,,,,,,,,,,,,,,,,,,
1725715990.715262,1725715990.71792,26.0,0.0,4257.307617,4276.153809,4321.922852,4387.692383,4244.102539,4203.333496,4168.717773,4279.358887,4264.743652,4258.589844,4477.436035,4539.487305,4371.410156,4431.922852,2882.0,1.0,15.0,,,,0.0,4.0,4.0,4.0,4.0,4.0,4.0,4.0,4.0,4.0,4.0,4.0,4.0,4.0,4.0,100.0,,,,,,,,,,,,,,,,,,,,,,,,,,,,,,,,,,,,,,,,,,,,,,,,,,,,,,,,,,,,,,,,,,,,,,,,,,,,,,,,,,,,,,,,,,,,,,,,,,,,,,,,,,,,,,,,,,,,,,,,,,,,,,,,,,,
1725715990.719166,1725715990.721824,27.0,0.0,4260.512695,4276.794922,4321.922852,4386.922852,4242.436035,4203.846191,4167.94873,4278.717773,4264.743652,4257.436035,4480.128418,4541.153809,4374.230957,4431.410156,3114.0,1.0,15.0,,,,0.0,4.0,4.0,4.0,4.0,4.0,4.0,4.0,4.0,4.0,4.0,4.0,4.0,4.0,4.0,100.0,,,,,,,,,,,,,,,,,,,,,,,,,,,,,,,,,,,,,,,,,,,,,,,,,,,,,,,,,,,,,,,,,,,,,,,,,,,,,,,,,,,,,,,,,,,,,,,,,,,,,,,,,,,,,,,,,,,,,,,,,,,,,,,,,,,
1725715990.72307,1725715990.725628,28.0,0.0,4261.922852,4278.333496,4320.128418,4388.717773,4238.589844,4203.717773,4166.922852,4279.102539,4262.179688,4254.871582,4480.128418,4540.769043,4373.717773,4429.743652,3410.0,1.0,15.0,,,,0.0,4.0,4.0,4.0,4.0,4.0,4.0,4.0,4.0,4.0,4.0,4.0,4.0,4.0,4.0,100.0,,,,,,,,,,,,,,,,,,,,,,,,,,,,,,,,,,,,,,,,,,,,,,,,,,,,,,,,0.0,0.0,1.0,0.0,1.0,0.0,,,,,,,,,,,,,,,,,,,,,,,,,,,,,,,,,,,,,,,,,,,,,,,,,,,,,,,,,,,,,,,,,,,,,,
1725715990.726974,1725715990.729532,29.0,0.0,4262.05127,4279.358887,4318.077148,4392.307617,4235.128418,4203.077148,4165.641113,4279.230957,4257.563965,4251.794922,4477.94873,4538.974121,4370.384766,4428.205078,3815.0,1.0,15.0,,,,0.0,4.0,4.0,4.0,4.0,4.0,4.0,4.0,4.0,4.0,4.0,4.0,4.0,4.0,4.0,100.0,,,,,,,,,,,,,,,,,,,,,,,,,,,,,,,,,,,,,,,,,,,,,,,,,,,,,,,,,,,,,,,,,,,,,,,,,,,,,,,,,,,,,,,,,,,,,,,,,,,,,,,,,,,,,,,,,,,,,,,,,,,,,,,,,,,
1725715990.730878,1725715990.733436,30.0,0.0,4261.922852,4279.615234,4317.436035,4395.641113,4234.487305,4203.077148,4164.358887,4278.589844,4252.692383,4249.871582,4475.897461,4537.436035,4366.410156,4427.820313,2882.0,1.0,15.0,,,,0.0,4.0,4.0,4.0,4.0,4.0,4.0,4.0,4.0,4.0,4.0,4.0,4.0,4.0,4.0,100.0,,,,,,,,,,,,,,,,,,,,,,,,,,,,,,,,,,,,,,,,,,,,,,,,,,,,,,,,,,,,,,,,,,,,,,,,,,,,,,,,,,,,,,,,,,,,,,,,,,,,,,,,,,,,,,,,,,,,,,,,,,,,,,,,,,,
1725715990.734782,1725715990.737241,31.0,0.0,4262.436035,4279.743652,4318.333496,4397.179688,4237.179688,4204.230957,4163.846191,4277.563965,4249.230957,4250.0,4474.871582,4537.179688,4364.230957,4428.461426,3114.0,1.0,15.0,,,,0.0,4.0,4.0,4.0,4.0,4.0,4.0,4.0,4.0,4.0,4.0,4.0,4.0,4.0,4.0,100.0,,,,,,,,,,,,,,,,,,,,,,,,,,,,,,,,,,,,,,,,,,,,,,,,,,,,,,,,,,,,,,,,,,,,,,,,,,,,,,,,,,,,,,,,,,,,,,,,,,,,,,,,,,,,,,,,,,,,,,,,,,,,,,,,,,,
1725715990.738686,1725715990.741145,32.0,0.0,4264.102539,4280.512695,4320.0,4396.153809,4241.794922,4206.922852,4164.871582,4276.922852,4248.205078,4251.538574,4474.487305,4537.436035,4364.615234,4429.102539,0.0,1.0,15.0,,,,0.0,4.0,4.0,4.0,4.0,4.0,4.0,4.0,4.0,4.0,4.0,4.0,4.0,4.0,4.0,100.0,,,,,,,,,,,,,,,,,,,,,,,,,,,,,,,,,,,,,,,,,,,,,,,,,,,,,,,,,,,,,,,,,,,,,,,,,,,,,,,,,,,,,,,,,,,,,,,,,,,,,,,,,,,,,,,,,,,,,,,,,,,,,,,,,,,
1725715990.742591,1725715990.745049,33.0,0.0,4266.025879,4281.153809,4320.769043,4393.461426,4246.282227,4210.641113,4166.922852,4277.307617,4248.974121,4253.205078,4473.717773,4536.153809,4365.897461,4428.974121,0.0,1.0,15.0,,,,0.0,4.0,4.0,4.0,4.0,4.0,4.0,4.0,4.0,4.0,4.0,4.0,4.0,4.0,4.0,100.0,,,,,,,,,,,,,,,,,,,,,,,,,,,,,,,,,,,,,,,,,,,,,,,,,,,,,,,,,,,,,,,,,,,,,,,,,,,,,,,,,,,,,,,,,,,,,,,,,,,,,,,,,,,,,,,,,,,,,,,,,,,,,,,,,,,
1725715990.746495,1725715990.749053,34.0,0.0,4267.436035,4280.128418,4319.358887,4390.384766,4248.589844,4213.974121,4168.846191,4278.333496,4250.128418,4253.461426,4471.538574,4532.436035,4366.025879,4427.820313,0.0,1.0,15.0,,,,0.0,4.0,4.0,4.0,4.0,4.0,4.0,4.0,4.0,4.0,4.0,4.0,4.0,4.0,4.0,100.0,,,,,,,,,,,,,,,,,,,,,,,,,,,,,,,,,,,,,,,,,,,,,,,,,,,,,,,,,,,,,,,,,,,,,,,,,,,,,,,,,,,,,,,,,,,,,,,,,,,,,,,,,,,,,,,,,,,,,,,,,,,,,,,,,,,
1725715990.750399,1725715990.752957,35.0,0.0,4267.692383,4276.794922,4316.025879,4387.820313,4248.846191,4215.897461,4169.358887,4278.974121,4250.769043,4252.179688,4468.205078,4527.692383,4363.461426,4426.282227,0.0,1.0,15.0,,,,0.0,4.0,4.0,4.0,4.0,4.0,4.0,4.0,4.0,4.0,4.0,4.0,4.0,4.0,4.0,100.0,,,,,,,,,,,,,,,,,,,,,,,,,,,,,,,,,,,,,,,,,,,,,,,,,,,,,,,,,,,,,,,,,,,,,,,,,,,,,,,,,,,,,,,,,,,,,,,,,,,,,,,,,,,,,,,,,,,,,,,,,,,,,,,,,,,
1725715990.754303,1725715990.756861,36.0,0.0,4266.922852,4272.179688,4312.179688,4385.769043,4248.077148,4216.025879,4168.077148,4278.589844,4250.512695,4250.641113,4464.743652,4523.974121,4359.230957,4424.615234,0.0,1.0,15.0,,,,0.0,4.0,4.0,4.0,4.0,4.0,4.0,4.0,4.0,4.0,4.0,4.0,4.0,4.0,4.0,100.0,,,,,,,,,,,,,,,,,,,,,,,,,,,,,,,,,,,,,,,,,,,,,,,,,,,,,,,,0.0,0.0,1.0,0.0,1.0,0.0,,,,,,,,,,,,,,,,,,,,,,,,,,,,,,,,,,,,,,,,,,,,,,,,,,,,,,,,,,,,,,,,,,,,,,
1725715990.758207,1725715990.760765,37.0,0.0,4266.153809,4268.589844,4309.102539,4383.846191,4248.205078,4214.871582,4165.641113,4278.205078,4250.128418,4249.871582,4462.563965,4523.077148,4356.153809,4423.077148,0.0,1.0,15.0,,,,0.0,4.0,4.0,4.0,4.0,4.0,4.0,4.0,4.0,4.0,4.0,4.0,4.0,4.0,4.0,100.0,,,,,,,,,,,,,,,,,,,,,,,,,,,,,,,,,,,,,,,,,,,,,,,,,,,,,,,,,,,,,,,,,,,,,,,,,,,,,,,,,,,,,,,,,,,,,,,,,,,,,,,,,,,,,,,,,,,,,,,,,,,,,,,,,,,
1725715990.762111,1725715990.764769,38.0,0.0,4265.769043,4268.205078,4307.563965,4382.179688,4249.743652,4213.333496,4162.820313,4278.717773,4250.128418,4250.256348,4462.436035,4524.487305,4356.410156,4422.179688,0.0,1.0,15.0,,,,0.0,4.0,4.0,4.0,4.0,4.0,4.0,4.0,4.0,4.0,4.0,4.0,4.0,4.0,4.0,100.0,,,,,,,,,,,,,,,,,,,,,,,,,,,,,,,,,,,,,,,,,,,,,,,,,,,,,,,,,,,,,,,,,,,,,,,,,,,,,,,,,,,,,,,,,,,,,,,,,,,,,,,,,,,,,,,,,,,,,,,,,,,,,,,,,,,
1725715990.766015,1725715990.768673,39.0,0.0,4265.641113,4270.769043,4307.307617,4381.538574,4252.05127,4212.436035,4160.641113,4280.0,4250.256348,4250.641113,4463.589844,4526.282227,4359.615234,4421.922852,0.0,1.0,15.0,,,,0.0,4.0,4.0,4.0,4.0,4.0,4.0,4.0,4.0,4.0,4.0,4.0,4.0,4.0,4.0,100.0,,,,,,,,,,,,,,,,,,,,,,,,,,,,,,,,,,,,,,,,,,,,,,,,,,,,,,,,,,,,,,,,,,,,,,,,,,,,,,,,,,,,,,,,,,,,,,,,,,,,,,,,,,,,,,,,,,,,,,,,,,,,,,,,,,,
1725715990.769919,1725715990.772577,40.0,0.0,4265.384766,4273.974121,4307.692383,4382.307617,4253.717773,4212.563965,4159.230957,4281.025879,4250.641113,4250.384766,4464.102539,4526.922852,4362.692383,4422.179688,0.0,1.0,15.0,,,,0.0,4.0,4.0,4.0,4.0,4.0,4.0,4.0,4.0,4.0,4.0,4.0,4.0,4.0,4.0,100.0,,,,,,,,,,,,,,,,,,,,,,,,,,,,,,,,,,,,,,,,,,,,,,,,,,,,,,,,,,,,,,,,,,,,,,,,,,,,,,,,,,,,,,,,,,,,,,,,,,,,,,,,,,,,,,,,,,,,,,,,,,,,,,,,,,,
1725715990.773823,1725715990.776481,41.0,0.0,4265.128418,4275.128418,4308.077148,4384.358887,4254.871582,4213.333496,4158.333496,4281.153809,4251.282227,4249.230957,4462.94873,4525.641113,4362.179688,4422.563965,0.0,1.0,15.0,,,,0.0,4.0,4.0,4.0,4.0,4.0,4.0,4.0,4.0,4.0,4.0,4.0,4.0,4.0,4.0,100.0,,,,,,,,,,,,,,,,,,,,,,,,,,,,,,,,,,,,,,,,,,,,,,,,,,,,,,,,,,,,,,,,,,,,,,,,,,,,,,,,,,,,,,,,,,,,,,,,,,,,,,,,,,,,,,,,,,,,,,,,,,,,,,,,,,,
1725715990.777727,1725715990.780286,42.0,0.0,4265.384766,4273.205078,4308.589844,4387.05127,4256.282227,4214.102539,4157.563965,4280.769043,4253.077148,4248.077148,4460.512695,4523.717773,4357.436035,4422.692383,0.0,1.0,15.0,,,,0.0,4.0,4.0,4.0,4.0,4.0,4.0,4.0,4.0,4.0,4.0,4.0,4.0,4.0,4.0,100.0,,,,,,,,,,,,,,,,,,,,,,,,,,,,,,,,,,,,,,,,,,,,,,,,,,,,,,,,,,,,,,,,,,,,,,,,,,,,,,,,,,,,,,,,,,,,,,,,,,,,,,,,,,,,,,,,,,,,,,,,,,,,,,,,,,,
1725715990.781632,1725715990.78419,43.0,0.0,4266.666504,4269.358887,4309.487305,4389.487305,4258.461426,4214.615234,4156.410156,4280.897461,4256.153809,4247.692383,4458.589844,4522.563965,4351.025879,4422.563965,0.0,1.0,15.0,,,,0.0,4.0,4.0,4.0,4.0,4.0,4.0,4.0,4.0,4.0,4.0,4.0,4.0,4.0,4.0,100.0,,,,,,,,,,,,,,,,,,,,,,,,,,,,,,,,,,,,,,,,,,,,,,,,,,,,,,,,,,,,,,,,,,,,,,,,,,,,,,,,,,,,,,,,,,,,,,,,,,,,,,,,,,,,,,,,,,,,,,,,,,,,,,,,,,,
1725715990.785536,1725715990.788094,44.0,0.0,4268.974121,4265.769043,4310.384766,4390.641113,4261.153809,4214.743652,4155.384766,4281.794922,4260.128418,4248.205078,4458.974121,4522.94873,4346.922852,4422.05127,0.0,1.0,15.0,,,,0.0,4.0,4.0,4.0,4.0,4.0,4.0,4.0,4.0,4.0,4.0,4.0,4.0,4.0,4.0,100.0,,,,,,,,,,,,,,,,,,,,,,,,,,,,,,,,,,,,,,,,,,,,,,,,,,,,,,,,0.0,0.0,1.0,0.0,1.0,0.0,,,,,,,,,,,,,,,,,,,,,,,,,,,,,,,,,,,,,,,,,,,,,,,,,,,,,,,,,,,,,,,,,,,,,,
1725715990.78944,1725715990.792098,45.0,0.0,4271.922852,4264.102539,4310.641113,4390.128418,4263.205078,4214.615234,4154.615234,4283.333496,4263.717773,4249.230957,4462.05127,4524.358887,4347.820313,4421.922852,0.0,1.0,15.0,,,,0.0,4.0,4.0,4.0,4.0,4.0,4.0,4.0,4.0,4.0,4.0,4.0,4.0,4.0,4.0,100.0,,,,,,,,,,,,,,,,,,,,,,,,,,,,,,,,,,,,,,,,,,,,,,,,,,,,,,,,,,,,,,,,,,,,,,,,,,,,,,,,,,,,,,,,,,,,,,,,,,,,,,,,,,,,,,,,,,,,,,,,,,,,,,,,,,,
1725715990.793344,1725715990.796002,46.0,0.0,4274.487305,4264.358887,4309.615234,4388.461426,4263.846191,4214.230957,4153.974121,4284.871582,4265.512695,4250.256348,4466.794922,4526.025879,4353.077148,4422.436035,0.0,1.0,15.0,,,,0.0,4.0,4.0,4.0,4.0,4.0,4.0,4.0,4.0,4.0,4.0,4.0,4.0,4.0,4.0,100.0,,,,,,,,,,,,,,,,,,,,,,,,,,,,,,,,,,,,,,,,,,,,,,,,,,,,,,,,,,,,,,,,,,,,,,,,,,,,,,,,,,,,,,,,,,,,,,,,,,,,,,,,,,,,,,,,,,,,,,,,,,,,,,,,,,,
1725715990.797248,1725715990.799906,47.0,0.0,4276.282227,4265.384766,4307.563965,4386.538574,4263.333496,4213.846191,4152.94873,4285.641113,4264.487305,4250.384766,4471.666504,4526.666504,4359.743652,4424.230957,0.0,1.0,15.0,,,,0.0,4.0,4.0,4.0,4.0,4.0,4.0,4.0,4.0,4.0,4.0,4.0,4.0,4.0,4.0,100.0,,,,,,,,,,,,,,,,,,,,,,,,,,,,,,,,,,,,,,,,,,,,,,,,,,,,,,,,,,,,,,,,,,,,,,,,,,,,,,,,,,,,,,,,,,,,,,,,,,,,,,,,,,,,,,,,,,,,,,,,,,,,,,,,,,,
1725715990.801152,1725715990.80381,48.0,0.0,4277.179688,4265.769043,4305.384766,4384.743652,4261.922852,4213.846191,4151.794922,4285.384766,4261.153809,4249.743652,4475.0,4526.282227,4364.743652,4426.538574,0.0,1.0,15.0,,,,0.0,4.0,4.0,4.0,4.0,4.0,4.0,4.0,4.0,4.0,4.0,4.0,4.0,4.0,4.0,100.0,,,,,,,,,,,,,,,,,,,,,,,,,,,,,,,,,,,,,,,,,,,,,,,,,,,,,,,,,,,,,,,,,,,,,,,,,,,,,,,,,,,,,,,,,,,,,,,,,,,,,,,,,,,,,,,,,,,,,,,,,,,,,,,,,,,
1725715990.805056,1725715990.807714,49.0,0.0,4277.563965,4265.641113,4304.615234,4383.717773,4260.512695,4214.358887,4150.897461,4283.846191,4256.922852,4248.589844,4476.153809,4525.512695,4366.410156,4428.589844,0.0,1.0,15.0,,,,0.0,4.0,4.0,4.0,4.0,4.0,4.0,4.0,4.0,4.0,4.0,4.0,4.0,4.0,4.0,100.0,,,,,,,,,,,,,,,,,,,,,,,,,,,,,,,,,,,,,,,,,,,,,,,,,,,,,,,,,,,,,,,,,,,,,,,,,,,,,,,,,,,,,,,,,,,,,,,,,,,,,,,,,,,,,,,,,,,,,,,,,,,,,,,,,,,
1725715990.80896,1725715990.811518,50.0,0.0,4277.94873,4265.769043,4306.025879,4383.974121,4260.128418,4215.512695,4150.897461,4281.794922,4253.974121,4247.94873,4475.641113,4525.128418,4365.641113,4429.358887,0.0,1.0,15.0,,,,0.0,4.0,4.0,4.0,4.0,4.0,4.0,4.0,4.0,4.0,4.0,4.0,4.0,4.0,4.0,100.0,,,,,,,,,,,,,,,,,,,,,,,,,,,,,,,,,,,,,,,,,,,,,,,,,,,,,,,,,,,,,,,,,,,,,,,,,,,,,,,,,,,,,,,,,,,,,,,,,,,,,,,,,,,,,,,,,,,,,,,,,,,,,,,,,,,
1725715990.812864,1725715990.815423,51.0,0.0,4278.461426,4266.666504,4309.102539,4385.897461,4261.153809,4216.666504,4151.666504,4280.256348,4253.461426,4248.333496,4474.615234,4525.128418,4364.615234,4428.974121,0.0,1.0,15.0,,,,0.0,4.0,4.0,4.0,4.0,4.0,4.0,4.0,4.0,4.0,4.0,4.0,4.0,4.0,4.0,100.0,,,,,,,,,,,,,,,,,,,,,,,,,,,,,,,,,,,,,,,,,,,,,,,,,,,,,,,,,,,,,,,,,,,,,,,,,,,,,,,,,,,,,,,,,,,,,,,,,,,,,,,,,,,,,,,,,,,,,,,,,,,,,,,,,,,
1725715990.816769,1725715990.819327,52.0,0.0,4279.230957,4267.692383,4311.794922,4388.205078,4262.563965,4217.436035,4152.563965,4279.743652,4255.256348,4249.358887,4474.230957,4525.256348,4364.871582,4428.333496,0.0,1.0,15.0,,,,0.0,4.0,4.0,4.0,4.0,4.0,4.0,4.0,4.0,4.0,4.0,4.0,4.0,4.0,4.0,100.0,1.0,58.333332,3.0,4.0,4.0,3.0,4.0,3.0,1.0,4.0,4.0,4.0,4.0,4.0,4.0,4.0,1.0,0.0,0.0,1.0,0.502177,-7.928231,-13.784026,-1.788606,1.0,0.620025,-0.537504,-1.152904,-0.081909,1.0,0.293093,3.041606,1.418518,6.956309,0.319872,1.0,0.431027,31.750469,-804.372693,1076.809131,1.0,0.222274,0.112195,0.048316,0.294692,1.0,0.480613,3.124859,-13.435404,20.466579,1.0,0.473065,0.473065,0.0,1.0,0.0,0.0,1.0,0.0,1.0,0.0,14.293287,1.777623,1.157618,0.963465,0.20537,1.717101,0.937585,0.360453,0.16787,0.065121,2.299802,1.220998,0.682887,0.29845,0.048787,5.544246,1.845052,0.712872,0.345673,0.065198,1.012852,0.548419,0.123787,0.101932,0.046778,0.285418,0.105161,0.160389,0.074073,0.066774,0.958387,0.528093,0.48494,0.153574,0.066927,0.661845,0.784636,0.831699,0.176465,0.087637,0.726126,0.730271,0.589427,0.249628,0.104778,1.781456,0.784199,1.114279,0.422259,0.11484,2.5032,1.12152,0.827381,0.501378,0.128868,2.948577,1.181643,1.090077,0.566563,0.121475,2.713985,1.389056,1.013777,0.548243,0.150945,2.565404,1.378119,0.933254,0.344225,0.082596
1725715990.820673,1725715990.823231,53.0,0.0,4280.0,4267.307617,4312.563965,4389.358887,4263.205078,4217.563965,4152.307617,4280.128418,4257.563965,4250.256348,4475.256348,4524.743652,4366.538574,4428.205078,0.0,1.0,15.0,,,,0.0,4.0,4.0,4.0,4.0,4.0,4.0,4.0,4.0,4.0,4.0,4.0,4.0,4.0,4.0,100.0,,,,,,,,,,,,,,,,,,,,,,,,,,,,,,,,,,,,,,,,,,,,,,,,,,,,,,,,,,,,,,,,,,,,,,,,,,,,,,,,,,,,,,,,,,,,,,,,,,,,,,,,,,,,,,,,,,,,,,,,,,,,,,,,,,,
1725715990.824577,1725715990.827035,54.0,0.0,4280.512695,4265.256348,4311.282227,4388.589844,4262.179688,4217.179688,4151.282227,4280.897461,4258.077148,4250.897461,4477.436035,4524.230957,4368.077148,4428.974121,0.0,1.0,15.0,,,,0.0,4.0,4.0,4.0,4.0,4.0,4.0,4.0,4.0,4.0,4.0,4.0,4.0,4.0,4.0,100.0,,,,,,,,,,,,,,,,,,,,,,,,,,,,,,,,,,,,,,,,,,,,,,,,,,,,,,,,,,,,,,,,,,,,,,,,,,,,,,,,,,,,,,,,,,,,,,,,,,,,,,,,,,,,,,,,,,,,,,,,,,,,,,,,,,,
1725715990.828481,1725715990.830939,55.0,0.0,4280.769043,4262.692383,4309.487305,4386.922852,4260.128418,4216.666504,4150.512695,4281.153809,4256.025879,4251.282227,4480.128418,4524.487305,4367.692383,4429.871582,0.0,1.0,15.0,,,,0.0,4.0,4.0,4.0,4.0,4.0,4.0,4.0,4.0,4.0,4.0,4.0,4.0,4.0,4.0,100.0,,,,,,,,,,,,,,,,,,,,,,,,,,,,,,,,,,,,,,,,,,,,,,,,,,,,,,,,,,,,,,,,,,,,,,,,,,,,,,,,,,,,,,,,,,,,,,,,,,,,,,,,,,,,,,,,,,,,,,,,,,,,,,,,,,,
1725715990.832385,1725715990.834843,56.0,0.0,4280.897461,4261.025879,4308.846191,4386.282227,4258.333496,4216.410156,4150.769043,4280.769043,4252.179688,4251.282227,4482.436035,4526.410156,4365.641113,4430.256348,0.0,1.0,15.0,,,,0.0,4.0,4.0,4.0,4.0,4.0,4.0,4.0,4.0,4.0,4.0,4.0,4.0,4.0,4.0,100.0,,,,,,,,,,,,,,,,,,,,,,,,,,,,,,,,,,,,,,,,,,,,,,,,,,,,,,,,,,,,,,,,,,,,,,,,,,,,,,,,,,,,,,,,,,,,,,,,,,,,,,,,,,,,,,,,,,,,,,,,,,,,,,,,,,,
1725715990.836289,1725715990.838747,57.0,0.0,4281.282227,4260.897461,4310.128418,4387.692383,4258.077148,4216.922852,4151.794922,4279.358887,4248.461426,4251.153809,4483.461426,4529.615234,4363.717773,4430.128418,0.0,1.0,15.0,,,,0.0,4.0,4.0,4.0,4.0,4.0,4.0,4.0,4.0,4.0,4.0,4.0,4.0,4.0,4.0,100.0,,,,,,,,,,,,,,,,,,,,,,,,,,,,,,,,,,,,,,,,,,,,,,,,,,,,,,,,,,,,,,,,,,,,,,,,,,,,,,,,,,,,,,,,,,,,,,,,,,,,,,,,,,,,,,,,,,,,,,,,,,,,,,,,,,,
1725715990.840193,1725715990.842552,58.0,0.0,4281.666504,4261.538574,4312.563965,4390.641113,4259.743652,4218.205078,4152.94873,4277.307617,4246.410156,4250.641113,4482.563965,4532.820313,4363.589844,4429.743652,0.0,1.0,15.0,,,,0.0,4.0,4.0,4.0,4.0,4.0,4.0,4.0,4.0,4.0,4.0,4.0,4.0,4.0,4.0,100.0,,,,,,,,,,,,,,,,,,,,,,,,,,,,,,,,,,,,,,,,,,,,,,,,,,,,,,,,,,,,,,,,,,,,,,,,,,,,,,,,,,,,,,,,,,,,,,,,,,,,,,,,,,,,,,,,,,,,,,,,,,,,,,,,,,,
1725715990.844097,1725715990.846456,59.0,0.0,4281.666504,4262.05127,4314.487305,4393.333496,4262.692383,4219.743652,4153.717773,4275.641113,4246.794922,4249.743652,4480.256348,4534.230957,4365.0,4428.974121,0.0,1.0,15.0,,,,0.0,4.0,4.0,4.0,4.0,4.0,4.0,4.0,4.0,4.0,4.0,4.0,4.0,4.0,4.0,100.0,,,,,,,,,,,,,,,,,,,,,,,,,,,,,,,,,,,,,,,,,,,,,,,,,,,,,,,,,,,,,,,,,,,,,,,,,,,,,,,,,,,,,,,,,,,,,,,,,,,,,,,,,,,,,,,,,,,,,,,,,,,,,,,,,,,
1725715990.848001,1725715990.85036,60.0,0.0,4281.410156,4261.538574,4314.487305,4393.846191,4265.128418,4220.769043,4154.102539,4275.256348,4248.717773,4248.846191,4478.077148,4532.436035,4366.410156,4427.94873,0.0,1.0,15.0,,,,0.0,4.0,4.0,4.0,4.0,4.0,4.0,4.0,4.0,4.0,4.0,4.0,4.0,4.0,4.0,100.0,,,,,,,,,,,,,,,,,,,,,,,,,,,,,,,,,,,,,,,,,,,,,,,,,,,,,,,,0.0,0.0,1.0,0.0,1.0,0.0,,,,,,,,,,,,,,,,,,,,,,,,,,,,,,,,,,,,,,,,,,,,,,,,,,,,,,,,,,,,,,,,,,,,,,
1725715990.851905,1725715990.854364,61.0,0.0,4281.282227,4260.256348,4311.922852,4392.179688,4265.256348,4220.897461,4154.230957,4276.153809,4250.256348,4248.589844,4478.205078,4527.563965,4366.794922,4426.794922,0.0,1.0,15.0,,,,0.0,4.0,4.0,4.0,4.0,4.0,4.0,4.0,4.0,4.0,4.0,4.0,4.0,4.0,4.0,100.0,,,,,,,,,,,,,,,,,,,,,,,,,,,,,,,,,,,,,,,,,,,,,,,,,,,,,,,,,,,,,,,,,,,,,,,,,,,,,,,,,,,,,,,,,,,,,,,,,,,,,,,,,,,,,,,,,,,,,,,,,,,,,,,,,,,
1725715990.85581,1725715990.858268,62.0,0.0,4281.410156,4258.461426,4308.205078,4390.0,4262.436035,4220.0,4153.846191,4278.077148,4250.384766,4249.487305,4481.153809,4522.563965,4366.538574,4426.282227,0.0,1.0,15.0,,,,0.0,4.0,4.0,4.0,4.0,4.0,4.0,4.0,4.0,4.0,4.0,4.0,4.0,4.0,4.0,100.0,,,,,,,,,,,,,,,,,,,,,,,,,,,,,,,,,,,,,,,,,,,,,,,,,,,,,,,,,,,,,,,,,,,,,,,,,,,,,,,,,,,,,,,,,,,,,,,,,,,,,,,,,,,,,,,,,,,,,,,,,,,,,,,,,,,
1725715990.859714,1725715990.862172,63.0,0.0,4281.666504,4256.922852,4305.256348,4388.717773,4257.820313,4218.461426,4153.333496,4279.615234,4249.230957,4251.282227,4486.025879,4520.897461,4366.410156,4426.922852,0.0,1.0,15.0,,,,0.0,4.0,4.0,4.0,4.0,4.0,4.0,4.0,4.0,4.0,4.0,4.0,4.0,4.0,4.0,100.0,,,,,,,,,,,,,,,,,,,,,,,,,,,,,,,,,,,,,,,,,,,,,,,,,,,,,,,,,,,,,,,,,,,,,,,,,,,,,,,,,,,,,,,,,,,,,,,,,,,,,,,,,,,,,,,,,,,,,,,,,,,,,,,,,,,
1725715990.863618,1725715990.866176,64.0,0.0,4281.666504,4256.538574,4304.102539,4388.717773,4253.333496,4217.05127,4152.436035,4280.384766,4248.461426,4252.692383,4490.128418,4524.230957,4366.538574,4428.461426,0.0,1.0,15.0,,,,0.0,4.0,4.0,4.0,4.0,4.0,4.0,4.0,4.0,4.0,4.0,4.0,4.0,4.0,4.0,100.0,,,,,,,,,,,,,,,,,,,,,,,,,,,,,,,,,,,,,,,,,,,,,,,,,,,,,,,,,,,,,,,,,,,,,,,,,,,,,,,,,,,,,,,,,,,,,,,,,,,,,,,,,,,,,,,,,,,,,,,,,,,,,,,,,,,
1725715990.867522,1725715990.87008,65.0,0.0,4281.538574,4257.05127,4305.0,4389.230957,4250.641113,4216.410156,4151.794922,4280.897461,4250.0,4252.820313,4491.282227,4530.641113,4366.153809,4430.0,0.0,1.0,15.0,,,,0.0,4.0,4.0,4.0,4.0,4.0,4.0,4.0,4.0,4.0,4.0,4.0,4.0,4.0,4.0,100.0,,,,,,,,,,,,,,,,,,,,,,,,,,,,,,,,,,,,,,,,,,,,,,,,,,,,,,,,,,,,,,,,,,,,,,,,,,,,,,,,,,,,,,,,,,,,,,,,,,,,,,,,,,,,,,,,,,,,,,,,,,,,,,,,,,,
1725715990.871426,1725715990.873984,66.0,0.0,4281.794922,4258.205078,4307.307617,4388.974121,4249.871582,4216.666504,4151.794922,4282.307617,4254.358887,4251.538574,4489.743652,4535.769043,4365.641113,4430.769043,0.0,1.0,15.0,,,,0.0,4.0,4.0,4.0,4.0,4.0,4.0,4.0,4.0,4.0,4.0,4.0,4.0,4.0,4.0,100.0,,,,,,,,,,,,,,,,,,,,,,,,,,,,,,,,,,,,,,,,,,,,,,,,,,,,,,,,,,,,,,,,,,,,,,,,,,,,,,,,,,,,,,,,,,,,,,,,,,,,,,,,,,,,,,,,,,,,,,,,,,,,,,,,,,,
1725715990.87533,1725715990.877888,67.0,0.0,4282.436035,4259.230957,4309.615234,4388.077148,4250.512695,4217.563965,4152.05127,4285.0,4260.256348,4250.128418,4487.820313,4536.025879,4366.025879,4430.512695,0.0,1.0,15.0,,,,0.0,4.0,4.0,4.0,4.0,4.0,4.0,4.0,4.0,4.0,4.0,4.0,4.0,4.0,4.0,100.0,,,,,,,,,,,,,,,,,,,,,,,,,,,,,,,,,,,,,,,,,,,,,,,,,,,,,,,,,,,,,,,,,,,,,,,,,,,,,,,,,,,,,,,,,,,,,,,,,,,,,,,,,,,,,,,,,,,,,,,,,,,,,,,,,,,
1725715990.879234,1725715990.881792,68.0,0.0,4283.974121,4259.743652,4311.025879,4387.692383,4251.410156,4218.205078,4152.179688,4287.692383,4265.0,4250.128418,4487.436035,4531.922852,4367.820313,4429.743652,0.0,1.0,15.0,,,,0.0,4.0,4.0,4.0,4.0,4.0,4.0,4.0,4.0,4.0,4.0,4.0,4.0,4.0,4.0,100.0,,,,,,,,,,,,,,,,,,,,,,,,,,,,,,,,,,,,,,,,,,,,,,,,,,,,,,,,0.0,0.0,1.0,0.0,1.0,0.0,,,,,,,,,,,,,,,,,,,,,,,,,,,,,,,,,,,,,,,,,,,,,,,,,,,,,,,,,,,,,,,,,,,,,,
1725715990.883138,1725715990.885696,69.0,0.0,4286.282227,4259.871582,4311.153809,4389.102539,4252.179688,4218.077148,4151.794922,4289.487305,4265.641113,4251.794922,4489.487305,4527.307617,4370.641113,4428.846191,0.0,1.0,15.0,,,,0.0,4.0,4.0,4.0,4.0,4.0,4.0,4.0,4.0,4.0,4.0,4.0,4.0,4.0,4.0,100.0,,,,,,,,,,,,,,,,,,,,,,,,,,,,,,,,,,,,,,,,,,,,,,,,,,,,,,,,,,,,,,,,,,,,,,,,,,,,,,,,,,,,,,,,,,,,,,,,,,,,,,,,,,,,,,,,,,,,,,,,,,,,,,,,,,,
1725715990.887042,1725715990.889501,70.0,0.0,4288.974121,4259.871582,4310.512695,4392.307617,4253.077148,4217.692383,4150.897461,4289.615234,4261.538574,4254.358887,4492.563965,4525.897461,4372.563965,4428.205078,0.0,1.0,15.0,,,,0.0,4.0,4.0,4.0,4.0,4.0,4.0,4.0,4.0,4.0,4.0,4.0,4.0,4.0,4.0,100.0,,,,,,,,,,,,,,,,,,,,,,,,,,,,,,,,,,,,,,,,,,,,,,,,,,,,,,,,,,,,,,,,,,,,,,,,,,,,,,,,,,,,,,,,,,,,,,,,,,,,,,,,,,,,,,,,,,,,,,,,,,,,,,,,,,,
1725715990.890946,1725715990.893405,71.0,0.0,4291.282227,4259.871582,4310.384766,4395.897461,4254.615234,4217.94873,4150.512695,4289.102539,4255.128418,4256.282227,4494.487305,4528.333496,4372.307617,4427.820313,0.0,1.0,15.0,,,,0.0,4.0,4.0,4.0,4.0,4.0,4.0,4.0,4.0,4.0,4.0,4.0,4.0,4.0,4.0,100.0,,,,,,,,,,,,,,,,,,,,,,,,,,,,,,,,,,,,,,,,,,,,,,,,,,,,,,,,,,,,,,,,,,,,,,,,,,,,,,,,,,,,,,,,,,,,,,,,,,,,,,,,,,,,,,,,,,,,,,,,,,,,,,,,,,,
1725715990.89485,1725715990.897409,72.0,0.0,4292.820313,4260.641113,4311.794922,4398.333496,4256.410156,4220.0,4152.179688,4288.974121,4250.641113,4257.179688,4493.846191,4532.179688,4369.743652,4427.436035,0.0,1.0,15.0,,,,0.0,4.0,4.0,4.0,4.0,4.0,4.0,4.0,4.0,4.0,4.0,4.0,4.0,4.0,4.0,100.0,,,,,,,,,,,,,,,,,,,,,,,,,,,,,,,,,,,,,,,,,,,,,,,,,,,,,,,,,,,,,,,,,,,,,,,,,,,,,,,,,,,,,,,,,,,,,,,,,,,,,,,,,,,,,,,,,,,,,,,,,,,,,,,,,,,
1725715990.898754,1725715990.901313,73.0,0.0,4293.717773,4262.692383,4314.487305,4399.102539,4258.077148,4223.717773,4156.666504,4289.358887,4250.128418,4257.179688,4491.025879,4534.743652,4366.794922,4427.307617,0.0,1.0,15.0,,,,0.0,4.0,4.0,4.0,4.0,4.0,4.0,4.0,4.0,4.0,4.0,4.0,4.0,4.0,4.0,100.0,,,,,,,,,,,,,,,,,,,,,,,,,,,,,,,,,,,,,,,,,,,,,,,,,,,,,,,,,,,,,,,,,,,,,,,,,,,,,,,,,,,,,,,,,,,,,,,,,,,,,,,,,,,,,,,,,,,,,,,,,,,,,,,,,,,
1725715990.902659,1725715990.905217,74.0,0.0,4294.487305,4265.897461,4317.692383,4398.974121,4259.358887,4228.333496,4162.563965,4289.487305,4252.436035,4257.179688,4487.820313,4534.871582,4365.128418,4427.563965,0.0,1.0,15.0,,,,0.0,4.0,4.0,4.0,4.0,4.0,4.0,4.0,4.0,4.0,4.0,4.0,4.0,4.0,4.0,100.0,,,,,,,,,,,,,,,,,,,,,,,,,,,,,,,,,,,,,,,,,,,,,,,,,,,,,,,,,,,,,,,,,,,,,,,,,,,,,,,,,,,,,,,,,,,,,,,,,,,,,,,,,,,,,,,,,,,,,,,,,,,,,,,,,,,
1725715990.906563,1725715990.909121,75.0,0.0,4295.384766,4269.230957,4319.871582,4398.846191,4260.384766,4232.436035,4167.436035,4288.077148,4254.871582,4258.077148,4485.897461,4533.461426,4366.025879,4428.589844,0.0,1.0,15.0,,,,0.0,4.0,4.0,4.0,4.0,4.0,4.0,4.0,4.0,4.0,4.0,4.0,4.0,4.0,4.0,100.0,,,,,,,,,,,,,,,,,,,,,,,,,,,,,,,,,,,,,,,,,,,,,,,,,,,,,,,,,,,,,,,,,,,,,,,,,,,,,,,,,,,,,,,,,,,,,,,,,,,,,,,,,,,,,,,,,,,,,,,,,,,,,,,,,,,
1725715990.910467,1725715990.913025,76.0,0.0,4296.410156,4270.897461,4320.256348,4399.102539,4261.153809,4234.743652,4169.102539,4285.128418,4255.512695,4260.0,4486.025879,4532.436035,4369.102539,4430.128418,0.0,1.0,15.0,,,,0.0,4.0,4.0,4.0,4.0,4.0,4.0,4.0,4.0,4.0,4.0,4.0,4.0,4.0,4.0,100.0,,,,,,,,,,,,,,,,,,,,,,,,,,,,,,,,,,,,,,,,,,,,,,,,,,,,,,,,0.0,0.0,1.0,0.0,1.0,0.0,,,,,,,,,,,,,,,,,,,,,,,,,,,,,,,,,,,,,,,,,,,,,,,,,,,,,,,,,,,,,,,,,,,,,,
1725715990.914371,1725715990.916829,77.0,0.0,4297.05127,4270.128418,4319.358887,4399.102539,4262.05127,4235.128418,4167.563965,4282.820313,4254.487305,4262.307617,4487.563965,4533.205078,4373.077148,4431.794922,0.0,1.0,15.0,,,,0.0,4.0,4.0,4.0,4.0,4.0,4.0,4.0,4.0,4.0,4.0,4.0,4.0,4.0,4.0,100.0,,,,,,,,,,,,,,,,,,,,,,,,,,,,,,,,,,,,,,,,,,,,,,,,,,,,,,,,,,,,,,,,,,,,,,,,,,,,,,,,,,,,,,,,,,,,,,,,,,,,,,,,,,,,,,,,,,,,,,,,,,,,,,,,,,,
1725715990.918275,1725715990.920734,78.0,0.0,4297.436035,4267.307617,4318.205078,4398.717773,4262.692383,4234.358887,4165.0,4282.436035,4253.205078,4264.102539,4489.615234,4535.512695,4376.153809,4433.077148,0.0,1.0,15.0,,,,0.0,4.0,4.0,4.0,4.0,4.0,4.0,4.0,4.0,4.0,4.0,4.0,4.0,4.0,4.0,100.0,,,,,,,,,,,,,,,,,,,,,,,,,,,,,,,,,,,,,,,,,,,,,,,,,,,,,,,,,,,,,,,,,,,,,,,,,,,,,,,,,,,,,,,,,,,,,,,,,,,,,,,,,,,,,,,,,,,,,,,,,,,,,,,,,,,
1725715990.922179,1725715990.924638,79.0,0.0,4298.205078,4264.743652,4317.436035,4398.205078,4262.563965,4233.205078,4163.974121,4284.230957,4252.820313,4264.487305,4491.153809,4537.692383,4377.94873,4434.102539,0.0,1.0,15.0,,,,0.0,4.0,4.0,4.0,4.0,4.0,4.0,4.0,4.0,4.0,4.0,4.0,4.0,4.0,4.0,100.0,,,,,,,,,,,,,,,,,,,,,,,,,,,,,,,,,,,,,,,,,,,,,,,,,,,,,,,,,,,,,,,,,,,,,,,,,,,,,,,,,,,,,,,,,,,,,,,,,,,,,,,,,,,,,,,,,,,,,,,,,,,,,,,,,,,
1725715990.926083,1725715990.928542,80.0,0.0,4300.128418,4264.615234,4317.05127,4397.820313,4261.666504,4232.820313,4165.128418,4286.538574,4253.717773,4263.461426,4491.666504,4538.205078,4379.102539,4434.743652,0.0,1.0,15.0,,,,0.0,4.0,4.0,4.0,4.0,4.0,4.0,4.0,4.0,4.0,4.0,4.0,4.0,4.0,4.0,100.0,,,,,,,,,,,,,,,,,,,,,,,,,,,,,,,,,,,,,,,,,,,,,,,,,,,,,,,,,,,,,,,,,,,,,,,,,,,,,,,,,,,,,,,,,,,,,,,,,,,,,,,,,,,,,,,,,,,,,,,,,,,,,,,,,,,
1725715990.929987,1725715990.932346,81.0,0.0,4303.205078,4267.692383,4316.794922,4397.94873,4260.641113,4233.461426,4167.692383,4287.179688,4255.256348,4261.794922,4491.153809,4537.05127,4380.256348,4434.743652,0.0,1.0,15.0,,,,0.0,4.0,4.0,4.0,4.0,4.0,4.0,4.0,4.0,4.0,4.0,4.0,4.0,4.0,4.0,100.0,,,,,,,,,,,,,,,,,,,,,,,,,,,,,,,,,,,,,,,,,,,,,,,,,,,,,,,,,,,,,,,,,,,,,,,,,,,,,,,,,,,,,,,,,,,,,,,,,,,,,,,,,,,,,,,,,,,,,,,,,,,,,,,,,,,
