Timestamp,OriginalTimestamp,EEG.Counter,EEG.Interpolated,EEG.AF3,EEG.F7,EEG.F3,EEG.FC5,EEG.T7,EEG.P7,EEG.O1,EEG.O2,EEG.P8,EEG.T8,EEG.FC6,EEG.F4,EEG.F8,EEG.AF4,EEG.RawCq,EEG.Battery,EEG.BatteryPercent,MarkerIndex,MarkerType,MarkerValueInt,EEG.MarkerHardware,CQ.AF3,CQ.F7,CQ.F3,CQ.FC5,CQ.T7,CQ.P7,CQ.O1,CQ.O2,CQ.P8,CQ.T8,CQ.FC6,CQ.F4,CQ.F8,CQ.AF4,CQ.Overall,EQ.SampleRateQuality,EQ.OVERALL,EQ.AF3,EQ.F7,EQ.F3,EQ.FC5,EQ.T7,EQ.P7,EQ.O1,EQ.O2,EQ.P8,EQ.T8,EQ.FC6,EQ.F4,EQ.F8,EQ.AF4,MC.Action,MC.ActionPower,MC.IsActive,PM.Attention.IsActive,PM.Attention.Scaled,PM.Attention.Raw,PM.Attention.Min,PM.Attention.Max,PM.Engagement.IsActive,PM.Engagement.Scaled,PM.Engagement.Raw,PM.Engagement.Min,PM.Engagement.Max,PM.Excitement.IsActive,PM.Excitement.Scaled,PM.Excitement.Raw,PM.Excitement.Min,PM.Excitement.Max,PM.LongTermExcitement,PM.Stress.IsActive,PM.Stress.Scaled,PM.Stress.Raw,PM.Stress.Min,PM.Stress.Max,PM.Relaxation.IsActive,PM.Relaxation.Scaled,PM.Relaxation.Raw,PM.Relaxation.Min,PM.Relaxation.Max,PM.Interest.IsActive,PM.Interest.Scaled,PM.Interest.Raw,PM.Interest.Min,PM.Interest.Max,PM.Focus.IsActive,PM.Focus.Scaled,PM.Focus.Raw,PM.Focus.Min,PM.Focus.Max,FE.BlinkWink,FE.HorizontalEyesDirection,FE.UpperFaceAction,FE.UpperFaceActionPower,FE.LowerFaceAction,FE.LowerFaceActionPower,POW.AF3.Theta,POW.AF3.Alpha,POW.AF3.BetaL,POW.AF3.BetaH,POW.AF3.Gamma,POW.F7.Theta,POW.F7.Alpha,POW.F7.BetaL,POW.F7.BetaH,POW.F7.Gamma,POW.F3.Theta,POW.F3.Alpha,POW.F3.BetaL,POW.F3.BetaH,POW.F3.Gamma,POW.FC5.Theta,POW.FC5.Alpha,POW.FC5.BetaL,POW.FC5.BetaH,POW.FC5.Gamma,POW.T7.Theta,POW.T7.Alpha,POW.T7.BetaL,POW.T7.BetaH,POW.T7.Gamma,POW.P7.Theta,POW.P7.Alpha,POW.P7.BetaL,POW.P7.BetaH,POW.P7.Gamma,POW.O1.Theta,POW.O1.Alpha,POW.O1.BetaL,POW.O1.BetaH,POW.O1.Gamma,POW.O2.Theta,POW.O2.Alpha,POW.O2.BetaL,POW.O2.BetaH,POW.O2.Gamma,POW.P8.Theta,POW.P8.Alpha,POW.P8.BetaL,POW.P8.BetaH,POW.P8.Gamma,POW.T8.Theta,POW.T8.Alpha,POW.T8.BetaL,POW.T8.BetaH,POW.T8.Gamma,POW.FC6.Theta,POW.FC6.Alpha,POW.FC6.BetaL,POW.FC6.BetaH,POW.FC6.Gamma,POW.F4.Theta,POW.F4.Alpha,POW.F4.BetaL,POW.F4.BetaH,POW.F4.Gamma,POW.F8.Theta,POW.F8.Alpha,POW.F8.BetaL,POW.F8.BetaH,POW.F8.Gamma,POW.AF4.Theta,POW.AF4.Alpha,POW.AF4.BetaL,POW.AF4.BetaH,POW.AF4.Gamma
1725715960.407735,1725715960.40956,199.0,0.0,4277.179688,4262.179688,4303.461426,4316.282227,4233.461426,4121.538574,4121.538574,4264.743652,4256.153809,4248.077148,4457.436035,4521.922852,4357.436035,4402.94873,3111.0,1.0,15.0,1.0,1.0,1.0,0.0,4.0,4.0,4.0,4.0,4.0,4.0,4.0,4.0,4.0,4.0,4.0,4.0,4.0,4.0,100.0,,,,,,,,,,,,,,,,,,,,,,,,,,,,,,,,,,,,,,,,,,,,,,,,,,,,,,,,,,,,,,,,,,,,,,,,,,,,,,,,,,,,,,,,,,,,,,,,,,,,,,,,,,,,,,,,,,,,,,,,,,,,,,,,,,,
1725715960.411639,1725715960.413464,200.0,0.0,4277.820313,4263.333496,4305.641113,4316.922852,4233.077148,4121.025879,4122.179688,4264.743652,4257.692383,4248.333496,4458.461426,4521.794922,4356.025879,4404.743652,3395.0,1.0,15.0,,,,0.0,4.0,4.0,4.0,4.0,4.0,4.0,4.0,4.0,4.0,4.0,4.0,4.0,4.0,4.0,100.0,,,,,,,,,,,,,,,,,,,,,,,,,,,,,,,,,,,,,,,,,,,,,,,,,,,,,,,,,,,,,,,,,,,,,,,,,,,,,,,,,,,,,,,,,,,,,,,,,,,,,,,,,,,,,,,,,,,,,,,,,,,,,,,,,,,
1725715960.415543,1725715960.417368,201.0,0.0,4277.94873,4265.384766,4309.743652,4318.205078,4233.077148,4120.897461,4121.282227,4265.641113,4256.794922,4248.461426,4460.641113,4521.922852,4355.256348,4408.333496,3804.0,1.0,15.0,,,,0.0,4.0,4.0,4.0,4.0,4.0,4.0,4.0,4.0,4.0,4.0,4.0,4.0,4.0,4.0,100.0,,,,,,,,,,,,,,,,,,,,,,,,,,,,,,,,,,,,,,,,,,,,,,,,,,,,,,,,,,,,,,,,,,,,,,,,,,,,,,,,,,,,,,,,,,,,,,,,,,,,,,,,,,,,,,,,,,,,,,,,,,,,,,,,,,,
1725715960.419447,1725715960.421172,202.0,0.0,4277.307617,4266.922852,4314.102539,4319.487305,4233.717773,4121.025879,4120.0,4266.794922,4254.358887,4248.589844,4462.436035,4522.692383,4356.538574,4412.179688,2879.0,1.0,15.0,,,,0.0,4.0,4.0,4.0,4.0,4.0,4.0,4.0,4.0,4.0,4.0,4.0,4.0,4.0,4.0,100.0,,,,,,,,,,,,,,,,,,,,,,,,,,,,,,,,,,,,,,,,,,,,,,,,,,,,,,,,,,,,,,,,,,,,,,,,,,,,,,,,,,,,,,,,,,,,,,,,,,,,,,,,,,,,,,,,,,,,,,,,,,,,,,,,,,,
1725715960.423351,1725715960.425076,203.0,0.0,4276.922852,4267.05127,4316.922852,4321.025879,4234.743652,4121.282227,4120.256348,4266.922852,4252.307617,4248.717773,4463.077148,4524.230957,4360.0,4414.743652,3111.0,1.0,15.0,,,,0.0,4.0,4.0,4.0,4.0,4.0,4.0,4.0,4.0,4.0,4.0,4.0,4.0,4.0,4.0,100.0,,,,,,,,,,,,,,,,,,,,,,,,,,,,,,,,,,,,,,,,,,,,,,,,,,,,,,,,,,,,,,,,,,,,,,,,,,,,,,,,,,,,,,,,,,,,,,,,,,,,,,,,,,,,,,,,,,,,,,,,,,,,,,,,,,,
1725715960.427255,1725715960.42898,204.0,0.0,4278.205078,4266.410156,4317.94873,4322.820313,4235.512695,4121.282227,4123.077148,4265.897461,4251.794922,4249.102539,4462.94873,4525.641113,4364.230957,4415.256348,3395.0,1.0,15.0,,,,0.0,4.0,4.0,4.0,4.0,4.0,4.0,4.0,4.0,4.0,4.0,4.0,4.0,4.0,4.0,100.0,,,,,,,,,,,,,,,,,,,,,,,,,,,,,,,,,,,,,,,,,,,,,,,,,,,,,,,,0.0,0.0,1.0,0.0,1.0,0.0,,,,,,,,,,,,,,,,,,,,,,,,,,,,,,,,,,,,,,,,,,,,,,,,,,,,,,,,,,,,,,,,,,,,,,
1725715960.431159,1725715960.432984,205.0,0.0,4280.512695,4265.641113,4317.820313,4324.358887,4235.897461,4121.410156,4128.205078,4264.615234,4252.820313,4249.358887,4462.820313,4526.025879,4366.666504,4414.487305,3804.0,1.0,15.0,,,,0.0,4.0,4.0,4.0,4.0,4.0,4.0,4.0,4.0,4.0,4.0,4.0,4.0,4.0,4.0,100.0,,,,,,,,,,,,,,,,,,,,,,,,,,,,,,,,,,,,,,,,,,,,,,,,,,,,,,,,,,,,,,,,,,,,,,,,,,,,,,,,,,,,,,,,,,,,,,,,,,,,,,,,,,,,,,,,,,,,,,,,,,,,,,,,,,,
1725715960.435063,1725715960.436888,206.0,0.0,4281.538574,4265.512695,4318.461426,4324.230957,4235.384766,4121.410156,4133.717773,4264.358887,4253.974121,4248.974121,4463.205078,4525.256348,4365.256348,4413.205078,2879.0,1.0,15.0,,,,0.0,4.0,4.0,4.0,4.0,4.0,4.0,4.0,4.0,4.0,4.0,4.0,4.0,4.0,4.0,100.0,,,,,,,,,,,,,,,,,,,,,,,,,,,,,,,,,,,,,,,,,,,,,,,,,,,,,,,,,,,,,,,,,,,,,,,,,,,,,,,,,,,,,,,,,,,,,,,,,,,,,,,,,,,,,,,,,,,,,,,,,,,,,,,,,,,
1725715960.438967,1725715960.440792,207.0,0.0,4279.615234,4266.025879,4320.512695,4321.922852,4234.230957,4121.282227,4137.05127,4264.743652,4253.846191,4247.563965,4462.94873,4522.692383,4360.128418,4411.666504,3111.0,1.0,15.0,,,,0.0,4.0,4.0,4.0,4.0,4.0,4.0,4.0,4.0,4.0,4.0,4.0,4.0,4.0,4.0,100.0,,,,,,,,,,,,,,,,,,,,,,,,,,,,,,,,,,,,,,,,,,,,,,,,,,,,,,,,,,,,,,,,,,,,,,,,,,,,,,,,,,,,,,,,,,,,,,,,,,,,,,,,,,,,,,,,,,,,,,,,,,,,,,,,,,,
1725715960.442871,1725715960.444696,208.0,0.0,4275.256348,4266.153809,4323.077148,4318.333496,4233.589844,4121.153809,4137.05127,4264.102539,4251.666504,4244.615234,4460.256348,4517.692383,4353.205078,4408.717773,3395.0,1.0,15.0,,,,0.0,4.0,4.0,4.0,4.0,4.0,4.0,4.0,4.0,4.0,4.0,4.0,4.0,4.0,4.0,100.0,,,,,,,,,,,,,,,,,,,,,,,,,,,,,,,,,,,,,,,,,,,,,,,,,,,,,,,,,,,,,,,,,,,,,,,,,,,,,,,,,,,,,,,,,,,,,,,,,,,,,,,,,,,,,,,,,,,,,,,,,,,,,,,,,,,
1725715960.446776,1725715960.4487,209.0,0.0,4270.0,4264.487305,4324.487305,4314.871582,4233.846191,4121.025879,4133.974121,4261.410156,4247.94873,4239.743652,4454.230957,4510.512695,4346.538574,4403.461426,3804.0,1.0,15.0,,,,0.0,4.0,4.0,4.0,4.0,4.0,4.0,4.0,4.0,4.0,4.0,4.0,4.0,4.0,4.0,100.0,,,,,,,,,,,,,,,,,,,,,,,,,,,,,,,,,,,,,,,,,,,,,,,,,,,,,,,,,,,,,,,,,,,,,,,,,,,,,,,,,,,,,,,,,,,,,,,,,,,,,,,,,,,,,,,,,,,,,,,,,,,,,,,,,,,
1725715960.45068,1725715960.452605,210.0,0.0,4265.128418,4260.512695,4323.589844,4312.179688,4234.487305,4120.769043,4129.871582,4256.538574,4243.461426,4233.333496,4445.769043,4502.05127,4340.384766,4395.897461,2879.0,1.0,15.0,,,,0.0,4.0,4.0,4.0,4.0,4.0,4.0,4.0,4.0,4.0,4.0,4.0,4.0,4.0,4.0,100.0,,,,,,,,,,,,,,,,,,,,,,,,,,,,,,,,,,,,,,,,,,,,,,,,,,,,,,,,,,,,,,,,,,,,,,,,,,,,,,,,,,,,,,,,,,,,,,,,,,,,,,,,,,,,,,,,,,,,,,,,,,,,,,,,,,,
1725715960.454584,1725715960.456509,211.0,0.0,4260.769043,4254.743652,4319.615234,4310.0,4233.974121,4120.384766,4126.538574,4251.282227,4238.846191,4226.153809,4436.538574,4494.487305,4333.461426,4387.692383,3111.0,1.0,15.0,,,,0.0,4.0,4.0,4.0,4.0,4.0,4.0,4.0,4.0,4.0,4.0,4.0,4.0,4.0,4.0,100.0,,,,,,,,,,,,,,,,,,,,,,,,,,,,,,,,,,,,,,,,,,,,,,,,,,,,,,,,,,,,,,,,,,,,,,,,,,,,,,,,,,,,,,,,,,,,,,,,,,,,,,,,,,,,,,,,,,,,,,,,,,,,,,,,,,,
1725715960.458488,1725715960.460413,212.0,0.0,4256.794922,4248.589844,4313.974121,4307.436035,4231.410156,4120.769043,4125.769043,4247.05127,4234.102539,4219.487305,4428.461426,4489.358887,4325.128418,4380.641113,3395.0,1.0,15.0,,,,0.0,4.0,4.0,4.0,4.0,4.0,4.0,4.0,4.0,4.0,4.0,4.0,4.0,4.0,4.0,100.0,,,,,,,,,,,,,,,,,1.0,0.0,0.0,,,,,,,,,,,,,,,,,,,,,,,,,,,,,,,,,,,,,0.0,0.0,1.0,0.0,1.0,0.0,3.203277,1.292735,1.57953,0.288918,0.082425,2.14519,0.907764,0.670448,0.183924,0.032313,2.007897,0.597269,1.310173,0.082477,0.058415,1.623129,0.634433,0.554744,0.141968,0.057678,0.74285,0.383926,0.249185,0.071148,0.022651,0.864726,0.324865,0.372791,0.081518,0.033326,1.006125,0.446491,0.277345,0.081953,0.076833,0.394944,1.31161,0.578169,0.413905,0.127786,0.520777,0.655871,0.506714,0.238315,0.06783,1.091899,0.882519,1.066286,0.349264,0.068027,0.912676,1.122442,1.667552,0.45198,0.0986,2.35084,1.598295,1.742268,0.316767,0.146306,1.098708,1.149717,2.136676,0.355998,0.11551,1.648153,1.307201,1.924596,0.240815,0.071835
1725715960.462392,1725715960.464317,213.0,0.0,4253.589844,4243.589844,4309.102539,4303.974121,4227.563965,4121.666504,4127.94873,4244.871582,4229.615234,4214.230957,4422.94873,4487.307617,4316.666504,4375.769043,3804.0,1.0,15.0,,,,0.0,4.0,4.0,4.0,4.0,4.0,4.0,4.0,4.0,4.0,4.0,4.0,4.0,4.0,4.0,100.0,,,,,,,,,,,,,,,,,,,,,,,,,,,,,,,,,,,,,,,,,,,,,,,,,,,,,,,,,,,,,,,,,,,,,,,,,,,,,,,,,,,,,,,,,,,,,,,,,,,,,,,,,,,,,,,,,,,,,,,,,,,,,,,,,,,
1725715960.466296,1725715960.468121,214.0,0.0,4251.794922,4241.025879,4307.307617,4300.897461,4224.487305,4122.563965,4131.666504,4244.871582,4226.794922,4211.538574,4421.025879,4488.205078,4310.641113,4373.205078,2879.0,1.0,15.0,,,,0.0,4.0,4.0,4.0,4.0,4.0,4.0,4.0,4.0,4.0,4.0,4.0,4.0,4.0,4.0,100.0,,,,,,,,,,,,,,,,,,,,,,,,,,,,,,,,,,,,,,,,,,,,,,,,,,,,,,,,,,,,,,,,,,,,,,,,,,,,,,,,,,,,,,,,,,,,,,,,,,,,,,,,,,,,,,,,,,,,,,,,,,,,,,,,,,,
1725715960.4702,1725715960.472125,215.0,0.0,4252.179688,4241.538574,4309.358887,4300.256348,4224.230957,4122.563965,4135.0,4246.794922,4227.563965,4212.179688,4422.94873,4491.153809,4310.384766,4373.717773,3111.0,1.0,15.0,,,,0.0,4.0,4.0,4.0,4.0,4.0,4.0,4.0,4.0,4.0,4.0,4.0,4.0,4.0,4.0,100.0,,,,,,,,,,,,,,,,,,,,,,,,,,,,,,,,,,,,,,,,,,,,,,,,,,,,,,,,,,,,,,,,,,,,,,,,,,,,,,,,,,,,,,,,,,,,,,,,,,,,,,,,,,,,,,,,,,,,,,,,,,,,,,,,,,,
1725715960.474104,1725715960.476029,216.0,0.0,4254.743652,4245.128418,4313.974121,4303.846191,4226.922852,4121.922852,4137.05127,4250.0,4232.563965,4216.538574,4428.461426,4495.769043,4316.922852,4378.205078,3395.0,1.0,15.0,,,,0.0,4.0,4.0,4.0,4.0,4.0,4.0,4.0,4.0,4.0,4.0,4.0,4.0,4.0,4.0,100.0,,,,,,,,,,,,,,,,,,,,,,,,,,,,,,,,,,,,,,,,,,,,,,,,,,,,,,,,,,,,,,,,,,,,,,,,,,,,,,,,,,,,,,,,,,,,,,,,,,,,,,,,,,,,,,,,,,,,,,,,,,,,,,,,,,,
1725715960.478008,1725715960.479933,217.0,0.0,4258.846191,4250.641113,4318.974121,4310.769043,4230.897461,4122.179688,4138.205078,4253.717773,4240.0,4224.871582,4436.538574,4501.666504,4329.102539,4386.794922,3804.0,1.0,15.0,,,,0.0,4.0,4.0,4.0,4.0,4.0,4.0,4.0,4.0,4.0,4.0,4.0,4.0,4.0,4.0,100.0,,,,,,,,,,,,,,,,,,,,,,,,,,,,,,,,,,,,,,,,,,,,,,,,,,,,,,,,,,,,,,,,,,,,,,,,,,,,,,,,,,,,,,,,,,,,,,,,,,,,,,,,,,,,,,,,,,,,,,,,,,,,,,,,,,,
1725715960.481912,1725715960.483837,218.0,0.0,4263.717773,4256.794922,4323.205078,4317.820313,4234.230957,4124.358887,4140.0,4257.820313,4247.05127,4235.384766,4446.153809,4508.974121,4343.333496,4397.692383,2879.0,1.0,15.0,,,,0.0,4.0,4.0,4.0,4.0,4.0,4.0,4.0,4.0,4.0,4.0,4.0,4.0,4.0,4.0,100.0,,,,,,,,,,,,,,,,,,,,,,,,,,,,,,,,,,,,,,,,,,,,,,,,,,,,,,,,,,,,,,,,,,,,,,,,,,,,,,,,,,,,,,,,,,,,,,,,,,,,,,,,,,,,,,,,,,,,,,,,,,,,,,,,,,,
1725715960.485817,1725715960.487742,219.0,0.0,4268.589844,4262.179688,4326.666504,4322.436035,4235.641113,4128.461426,4143.461426,4262.307617,4252.307617,4245.769043,4456.666504,4517.436035,4355.512695,4407.820313,3111.0,1.0,15.0,,,,0.0,4.0,4.0,4.0,4.0,4.0,4.0,4.0,4.0,4.0,4.0,4.0,4.0,4.0,4.0,100.0,,,,,,,,,,,,,,,,,,,,,,,,,,,,,,,,,,,,,,,,,,,,,,,,,,,,,,,,,,,,,,,,,,,,,,,,,,,,,,,,,,,,,,,,,,,,,,,,,,,,,,,,,,,,,,,,,,,,,,,,,,,,,,,,,,,
1725715960.489721,1725715960.491646,220.0,0.0,4272.563965,4265.897461,4329.871582,4325.0,4235.897461,4133.077148,4147.94873,4267.307617,4256.538574,4253.205078,4466.538574,4525.897461,4363.077148,4414.487305,3395.0,1.0,15.0,,,,0.0,4.0,4.0,4.0,4.0,4.0,4.0,4.0,4.0,4.0,4.0,4.0,4.0,4.0,4.0,100.0,,,,,,,,,,,,,,,,,,,,,,,,,,,,,,,,,,,,,,,,,,,,,,,,,,,,,,,,0.0,0.0,1.0,0.0,1.0,0.0,,,,,,,,,,,,,,,,,,,,,,,,,,,,,,,,,,,,,,,,,,,,,,,,,,,,,,,,,,,,,,,,,,,,,,
1725715960.493625,1725715960.49555,221.0,0.0,4275.384766,4267.563965,4332.563965,4327.436035,4236.025879,4136.153809,4152.05127,4272.05127,4260.512695,4256.410156,4473.846191,4532.692383,4365.641113,4417.436035,3804.0,1.0,15.0,,,,0.0,4.0,4.0,4.0,4.0,4.0,4.0,4.0,4.0,4.0,4.0,4.0,4.0,4.0,4.0,100.0,,,,,,,,,,,,,,,,,,,,,,,,,,,,,,,,,,,,,,,,,,,,,,,,,,,,,,,,,,,,,,,,,,,,,,,,,,,,,,,,,,,,,,,,,,,,,,,,,,,,,,,,,,,,,,,,,,,,,,,,,,,,,,,,,,,
1725715960.497529,1725715960.499454,222.0,0.0,4277.563965,4267.692383,4334.615234,4329.871582,4236.794922,4135.897461,4154.487305,4275.769043,4263.974121,4256.153809,4476.922852,4536.282227,4364.487305,4417.436035,2879.0,1.0,15.0,,,,0.0,4.0,4.0,4.0,4.0,4.0,4.0,4.0,4.0,4.0,4.0,4.0,4.0,4.0,4.0,100.0,,,,,,,,,,,,,,,,,,,,,,,,,,,,,,,,,,,,,,,,,,,,,,,,,,,,,,,,,,,,,,,,,,,,,,,,,,,,,,,,,,,,,,,,,,,,,,,,,,,,,,,,,,,,,,,,,,,,,,,,,,,,,,,,,,,
1725715960.501433,1725715960.503358,223.0,0.0,4280.128418,4267.179688,4335.641113,4328.846191,4237.820313,4132.436035,4154.615234,4276.922852,4265.128418,4254.230957,4475.512695,4535.769043,4361.666504,4416.025879,3111.0,1.0,15.0,,,,0.0,4.0,4.0,4.0,4.0,4.0,4.0,4.0,4.0,4.0,4.0,4.0,4.0,4.0,4.0,100.0,,,,,,,,,,,,,,,,,,,,,,,,,,,,,,,,,,,,,,,,,,,,,,,,,,,,,,,,,,,,,,,,,,,,,,,,,,,,,,,,,,,,,,,,,,,,,,,,,,,,,,,,,,,,,,,,,,,,,,,,,,,,,,,,,,,
1725715960.505337,1725715960.507262,224.0,0.0,4283.589844,4266.922852,4336.666504,4319.743652,4238.077148,4127.820313,4152.94873,4275.641113,4262.563965,4252.307617,4471.025879,4532.05127,4358.974121,4414.358887,3395.0,1.0,15.0,,,,0.0,4.0,4.0,4.0,4.0,4.0,4.0,4.0,4.0,4.0,4.0,4.0,4.0,4.0,4.0,100.0,,,,,,,,,,,,,,,,,,,,,,,,,,,,,,,,,,,,,,,,,,,,,,,,,,,,,,,,,,,,,,,,,,,,,,,,,,,,,,,,,,,,,,,,,,,,,,,,,,,,,,,,,,,,,,,,,,,,,,,,,,,,,,,,,,,
1725715960.509241,1725715960.511266,225.0,0.0,4287.307617,4267.05127,4338.333496,4301.666504,4236.794922,4124.615234,4151.410156,4272.307617,4257.179688,4250.769043,4465.641113,4527.436035,4357.563965,4413.205078,3804.0,1.0,15.0,,,,0.0,4.0,4.0,4.0,4.0,4.0,4.0,4.0,4.0,4.0,4.0,4.0,4.0,4.0,4.0,100.0,,,,,,,,,,,,,,,,,,,,,,,,,,,,,,,,,,,,,,,,,,,,,,,,,,,,,,,,,,,,,,,,,,,,,,,,,,,,,,,,,,,,,,,,,,,,,,,,,,,,,,,,,,,,,,,,,,,,,,,,,,,,,,,,,,,
1725715960.513145,1725715960.51517,226.0,0.0,4290.769043,4266.666504,4340.897461,4278.205078,4234.487305,4124.743652,4152.94873,4268.205078,4251.153809,4249.487305,4461.666504,4524.102539,4357.692383,4413.077148,2879.0,1.0,15.0,,,,0.0,4.0,4.0,4.0,4.0,4.0,4.0,4.0,4.0,4.0,4.0,4.0,4.0,4.0,4.0,100.0,,,,,,,,,,,,,,,,,,,,,,,,,,,,,,,,,,,,,,,,,,,,,,,,,,,,,,,,,,,,,,,,,,,,,,,,,,,,,,,,,,,,,,,,,,,,,,,,,,,,,,,,,,,,,,,,,,,,,,,,,,,,,,,,,,,
1725715960.517049,1725715960.519074,227.0,0.0,4293.974121,4264.871582,4343.589844,4255.769043,4232.692383,4127.94873,4158.589844,4264.871582,4247.179688,4248.333496,4460.512695,4523.589844,4358.589844,4413.461426,3111.0,1.0,15.0,,,,0.0,4.0,4.0,4.0,4.0,4.0,4.0,4.0,4.0,4.0,4.0,4.0,4.0,4.0,4.0,100.0,,,,,,,,,,,,,,,,,,,,,,,,,,,,,,,,,,,,,,,,,,,,,,,,,,,,,,,,,,,,,,,,,,,,,,,,,,,,,,,,,,,,,,,,,,,,,,,,,,,,,,,,,,,,,,,,,,,,,,,,,,,,,,,,,,,
1725715960.520954,1725715960.522978,228.0,0.0,4296.922852,4262.820313,4345.641113,4240.641113,4232.563965,4132.307617,4167.05127,4263.589844,4246.025879,4247.563965,4461.538574,4525.384766,4359.358887,4413.717773,3395.0,1.0,15.0,,,,0.0,4.0,4.0,4.0,4.0,4.0,4.0,4.0,4.0,4.0,4.0,4.0,4.0,4.0,4.0,100.0,,,,,,,,,,,,,,,,,,,,,,,,,,,,,,,,,,,,,,,,,,,,,,,,,,,,,,,,0.0,0.0,1.0,0.0,1.0,0.0,,,,,,,,,,,,,,,,,,,,,,,,,,,,,,,,,,,,,,,,,,,,,,,,,,,,,,,,,,,,,,,,,,,,,,
1725715960.524858,1725715960.526783,229.0,0.0,4298.461426,4262.436035,4346.282227,4235.769043,4233.846191,4135.897461,4175.256348,4263.589844,4247.179688,4247.820313,4463.333496,4527.436035,4359.487305,4413.333496,3804.0,1.0,15.0,,,,0.0,4.0,4.0,4.0,4.0,4.0,4.0,4.0,4.0,4.0,4.0,4.0,4.0,4.0,4.0,100.0,,,,,,,,,,,,,,,,,,,,,,,,,,,,,,,,,,,,,,,,,,,,,,,,,,,,,,,,,,,,,,,,,,,,,,,,,,,,,,,,,,,,,,,,,,,,,,,,,,,,,,,,,,,,,,,,,,,,,,,,,,,,,,,,,,,
1725715960.528762,1725715960.530687,230.0,0.0,4297.563965,4264.358887,4345.384766,4239.230957,4235.0,4137.692383,4181.025879,4263.717773,4249.102539,4248.717773,4463.974121,4527.820313,4359.102539,4413.333496,2879.0,1.0,15.0,,,,0.0,4.0,4.0,4.0,4.0,4.0,4.0,4.0,4.0,4.0,4.0,4.0,4.0,4.0,4.0,100.0,,,,,,,,,,,,,,,,,,,,,,,,,,,,,,,,,,,,,,,,,,,,,,,,,,,,,,,,,,,,,,,,,,,,,,,,,,,,,,,,,,,,,,,,,,,,,,,,,,,,,,,,,,,,,,,,,,,,,,,,,,,,,,,,,,,
1725715960.532666,1725715960.534591,231.0,0.0,4294.615234,4266.794922,4343.846191,4245.128418,4235.128418,4137.692383,4184.743652,4263.205078,4250.128418,4249.358887,4463.205078,4526.025879,4359.102539,4413.974121,3111.0,1.0,15.0,,,,0.0,4.0,4.0,4.0,4.0,4.0,4.0,4.0,4.0,4.0,4.0,4.0,4.0,4.0,4.0,100.0,,,,,,,,,,,,,,,,,,,,,,,,,,,,,,,,,,,,,,,,,,,,,,,,,,,,,,,,,,,,,,,,,,,,,,,,,,,,,,,,,,,,,,,,,,,,,,,,,,,,,,,,,,,,,,,,,,,,,,,,,,,,,,,,,,,
1725715960.53657,1725715960.538595,232.0,0.0,4290.769043,4266.410156,4342.692383,4247.94873,4234.230957,4137.179688,4187.94873,4262.820313,4250.128418,4249.358887,4461.794922,4523.846191,4359.615234,4414.487305,3395.0,1.0,15.0,,,,0.0,4.0,4.0,4.0,4.0,4.0,4.0,4.0,4.0,4.0,4.0,4.0,4.0,4.0,4.0,100.0,,,,,,,,,,,,,,,,,,,,,,,,,,,,,,,,,,,,,,,,,,,,,,,,,,,,,,,,,,,,,,,,,,,,,,,,,,,,,,,,,,,,,,,,,,,,,,,,,,,,,,,,,,,,,,,,,,,,,,,,,,,,,,,,,,,
1725715960.540474,1725715960.542499,233.0,0.0,4287.179688,4261.794922,4342.563965,4244.871582,4233.077148,4136.794922,4191.794922,4263.589844,4249.743652,4248.974121,4461.410156,4522.820313,4360.0,4413.717773,3804.0,1.0,15.0,,,,0.0,4.0,4.0,4.0,4.0,4.0,4.0,4.0,4.0,4.0,4.0,4.0,4.0,4.0,4.0,100.0,,,,,,,,,,,,,,,,,,,,,,,,,,,,,,,,,,,,,,,,,,,,,,,,,,,,,,,,,,,,,,,,,,,,,,,,,,,,,,,,,,,,,,,,,,,,,,,,,,,,,,,,,,,,,,,,,,,,,,,,,,,,,,,,,,,
1725715960.544378,1725715960.546403,234.0,0.0,4283.846191,4254.871582,4343.205078,4238.077148,4232.179688,4137.179688,4195.769043,4264.871582,4249.615234,4248.589844,4461.794922,4523.205078,4358.717773,4410.641113,2879.0,1.0,15.0,,,,0.0,4.0,4.0,4.0,4.0,4.0,4.0,4.0,4.0,4.0,4.0,4.0,4.0,4.0,4.0,100.0,,,,,,,,,,,,,,,,,,,,,,,,,,,,,,,,,,,,,,,,,,,,,,,,,,,,,,,,,,,,,,,,,,,,,,,,,,,,,,,,,,,,,,,,,,,,,,,,,,,,,,,,,,,,,,,,,,,,,,,,,,,,,,,,,,,
1725715960.548282,1725715960.550307,235.0,0.0,4281.282227,4250.128418,4343.333496,4232.563965,4231.922852,4137.94873,4198.846191,4264.487305,4249.615234,4247.94873,4461.153809,4523.333496,4355.384766,4406.282227,3111.0,1.0,15.0,,,,0.0,4.0,4.0,4.0,4.0,4.0,4.0,4.0,4.0,4.0,4.0,4.0,4.0,4.0,4.0,100.0,,,,,,,,,,,,,,,,,,,,,,,,,,,,,,,,,,,,,,,,,,,,,,,,,,,,,,,,,,,,,,,,,,,,,,,,,,,,,,,,,,,,,,,,,,,,,,,,,,,,,,,,,,,,,,,,,,,,,,,,,,,,,,,,,,,
1725715960.552186,1725715960.554311,236.0,0.0,4280.128418,4250.769043,4342.179688,4232.179688,4232.05127,4138.974121,4200.641113,4260.769043,4249.230957,4246.410156,4457.307617,4521.025879,4351.410156,4402.436035,3395.0,1.0,15.0,,,,0.0,4.0,4.0,4.0,4.0,4.0,4.0,4.0,4.0,4.0,4.0,4.0,4.0,4.0,4.0,100.0,,,,,,,,,,,,,,,,,,,,,,,,,,,,,,,,,,,,,,,,,,,,,,,,,,,,,,,,0.0,0.0,1.0,0.0,1.0,0.0,,,,,,,,,,,,,,,,,,,,,,,,,,,,,,,,,,,,,,,,,,,,,,,,,,,,,,,,,,,,,,,,,,,,,,
1725715960.55609,1725715960.558215,237.0,0.0,4280.769043,4257.05127,4340.384766,4236.794922,4232.563965,4139.358887,4202.05127,4255.0,4248.333496,4243.205078,4450.512695,4515.897461,4348.846191,4400.641113,3804.0,1.0,15.0,,,,0.0,4.0,4.0,4.0,4.0,4.0,4.0,4.0,4.0,4.0,4.0,4.0,4.0,4.0,4.0,100.0,,,,,,,,,,,,,,,,,,,,,,,,,,,,,,,,,,,,,,,,,,,,,,,,,,,,,,,,,,,,,,,,,,,,,,,,,,,,,,,,,,,,,,,,,,,,,,,,,,,,,,,,,,,,,,,,,,,,,,,,,,,,,,,,,,,
1725715960.559995,1725715960.562119,238.0,0.0,4282.179688,4265.512695,4338.974121,4243.077148,4233.461426,4138.846191,4204.743652,4250.384766,4247.692383,4238.846191,4443.846191,4509.358887,4348.846191,4401.538574,2879.0,1.0,15.0,,,,0.0,4.0,4.0,4.0,4.0,4.0,4.0,4.0,4.0,4.0,4.0,4.0,4.0,4.0,4.0,100.0,,,,,,,,,,,,,,,,,,,,,,,,,,,,,,,,,,,,,,,,,,,,,,,,,,,,,,,,,,,,,,,,,,,,,,,,,,,,,,,,,,,,,,,,,,,,,,,,,,,,,,,,,,,,,,,,,,,,,,,,,,,,,,,,,,,
1725715960.563899,1725715960.566023,239.0,0.0,4283.846191,4271.666504,4338.846191,4247.05127,4234.487305,4137.94873,4209.487305,4250.0,4247.820313,4235.128418,4441.153809,4504.615234,4351.538574,4405.0,3111.0,1.0,15.0,,,,0.0,4.0,4.0,4.0,4.0,4.0,4.0,4.0,4.0,4.0,4.0,4.0,4.0,4.0,4.0,100.0,,,,,,,,,,,,,,,,,,,,,,,,,,,,,,,,,,,,,,,,,,,,,,,,,,,,,,,,,,,,,,,,,,,,,,,,,,,,,,,,,,,,,,,,,,,,,,,,,,,,,,,,,,,,,,,,,,,,,,,,,,,,,,,,,,,
1725715960.567803,1725715960.569928,240.0,0.0,4286.153809,4272.820313,4340.0,4247.563965,4235.641113,4137.692383,4215.384766,4253.717773,4248.333496,4233.717773,4444.358887,4504.102539,4355.641113,4409.743652,3395.0,1.0,15.0,,,,0.0,4.0,4.0,4.0,4.0,4.0,4.0,4.0,4.0,4.0,4.0,4.0,4.0,4.0,4.0,100.0,,,,,,,,,,,,,,,,,,,,,,,,,,,,,,,,,,,,,,,,,,,,,,,,,,,,,,,,,,,,,,,,,,,,,,,,,,,,,,,,,,,,,,,,,,,,,,,,,,,,,,,,,,,,,,,,,,,,,,,,,,,,,,,,,,,
1725715960.571707,1725715960.573732,241.0,0.0,4289.871582,4270.0,4342.05127,4245.897461,4236.666504,4138.717773,4220.384766,4259.102539,4248.589844,4234.487305,4451.410156,4508.589844,4359.102539,4413.974121,3804.0,1.0,15.0,,,,0.0,4.0,4.0,4.0,4.0,4.0,4.0,4.0,4.0,4.0,4.0,4.0,4.0,4.0,4.0,100.0,,,,,,,,,,,,,,,,,,,,,,,,,,,,,,,,,,,,,,,,,,,,,,,,,,,,,,,,,,,,,,,,,,,,,,,,,,,,,,,,,,,,,,,,,,,,,,,,,,,,,,,,,,,,,,,,,,,,,,,,,,,,,,,,,,,
1725715960.575611,1725715960.577636,242.0,0.0,4294.615234,4266.666504,4343.846191,4244.487305,4237.307617,4140.512695,4222.692383,4262.563965,4248.077148,4235.512695,4458.205078,4515.769043,4359.615234,4415.897461,2879.0,1.0,15.0,,,,0.0,4.0,4.0,4.0,4.0,4.0,4.0,4.0,4.0,4.0,4.0,4.0,4.0,4.0,4.0,100.0,,,,,,,,,,,,,,,,,,,,,,,,,,,,,,,,,,,,,,,,,,,,,,,,,,,,,,,,,,,,,,,,,,,,,,,,,,,,,,,,,,,,,,,,,,,,,,,,,,,,,,,,,,,,,,,,,,,,,,,,,,,,,,,,,,,
1725715960.579515,1725715960.58154,243.0,0.0,4297.820313,4265.256348,4344.358887,4244.230957,4237.05127,4141.538574,4222.436035,4262.179688,4247.05127,4235.641113,4460.512695,4521.538574,4356.410156,4415.0,3111.0,1.0,15.0,,,,0.0,4.0,4.0,4.0,4.0,4.0,4.0,4.0,4.0,4.0,4.0,4.0,4.0,4.0,4.0,100.0,,,,,,,,,,,,,,,,,,,,,,,,,,,,,,,,,,,,,,,,,,,,,,,,,,,,,,,,,,,,,,,,,,,,,,,,,,,,,,,,,,,,,,,,,,,,,,,,,,,,,,,,,,,,,,,,,,,,,,,,,,,,,,,,,,,
1725715960.583419,1725715960.585544,244.0,0.0,4297.179688,4266.153809,4343.333496,4244.615234,4236.282227,4140.512695,4221.282227,4258.974121,4246.538574,4234.871582,4457.307617,4522.94873,4350.897461,4411.922852,3395.0,1.0,15.0,,,,0.0,4.0,4.0,4.0,4.0,4.0,4.0,4.0,4.0,4.0,4.0,4.0,4.0,4.0,4.0,100.0,,,,,,,,,,,,,,,,,1.0,0.0,0.0,,,,,,,,,,,,,,,,,,,,,,,,,,,,,,,,,,,,,0.0,0.0,1.0,0.0,1.0,0.0,2.746022,1.084759,1.437618,0.277284,0.073319,2.016708,0.835551,0.643602,0.176513,0.028852,1.64731,0.514014,1.248912,0.080539,0.053393,1.552184,0.635527,0.563027,0.134999,0.05017,0.709722,0.347092,0.249339,0.075735,0.026585,0.935157,0.310383,0.401562,0.086272,0.035508,0.958266,0.450195,0.272004,0.080562,0.082904,0.399853,1.261741,0.493047,0.364446,0.117813,0.561466,0.563293,0.422007,0.233448,0.070909,1.033807,0.700063,0.952361,0.327249,0.067428,0.912992,0.941964,1.49124,0.432035,0.106064,2.35495,1.358411,1.682169,0.294801,0.157318,1.047897,0.9336,1.932388,0.33659,0.119942,1.547719,1.072769,1.775738,0.231559,0.080069
1725715960.587323,1725715960.589448,245.0,0.0,4292.307617,4267.436035,4341.410156,4243.717773,4235.897461,4137.692383,4221.794922,4256.922852,4247.05127,4235.128418,4451.153809,4519.743652,4346.410156,4407.94873,3804.0,1.0,15.0,,,,0.0,4.0,4.0,4.0,4.0,4.0,4.0,4.0,4.0,4.0,4.0,4.0,4.0,4.0,4.0,100.0,,,,,,,,,,,,,,,,,,,,,,,,,,,,,,,,,,,,,,,,,,,,,,,,,,,,,,,,,,,,,,,,,,,,,,,,,,,,,,,,,,,,,,,,,,,,,,,,,,,,,,,,,,,,,,,,,,,,,,,,,,,,,,,,,,,
1725715960.591227,1725715960.593352,246.0,0.0,4285.641113,4266.922852,4339.871582,4241.025879,4236.153809,4135.384766,4225.256348,4258.974121,4248.589844,4237.307617,4446.153809,4514.743652,4345.256348,4404.230957,2879.0,1.0,15.0,,,,0.0,4.0,4.0,4.0,4.0,4.0,4.0,4.0,4.0,4.0,4.0,4.0,4.0,4.0,4.0,100.0,,,,,,,,,,,,,,,,,,,,,,,,,,,,,,,,,,,,,,,,,,,,,,,,,,,,,,,,,,,,,,,,,,,,,,,,,,,,,,,,,,,,,,,,,,,,,,,,,,,,,,,,,,,,,,,,,,,,,,,,,,,,,,,,,,,
1725715960.595131,1725715960.597256,247.0,0.0,4279.615234,4264.743652,4339.871582,4237.179688,4236.794922,4136.153809,4230.256348,4263.846191,4250.641113,4240.641113,4445.0,4511.025879,4347.179688,4401.153809,3111.0,1.0,15.0,,,,0.0,4.0,4.0,4.0,4.0,4.0,4.0,4.0,4.0,4.0,4.0,4.0,4.0,4.0,4.0,100.0,,,,,,,,,,,,,,,,,,,,,,,,,,,,,,,,,,,,,,,,,,,,,,,,,,,,,,,,,,,,,,,,,,,,,,,,,,,,,,,,,,,,,,,,,,,,,,,,,,,,,,,,,,,,,,,,,,,,,,,,,,,,,,,,,,,
1725715960.599035,1725715960.60106,248.0,0.0,4275.384766,4262.436035,4340.769043,4234.487305,4236.922852,4140.384766,4233.717773,4267.179688,4252.05127,4242.692383,4446.666504,4509.743652,4349.615234,4398.974121,3395.0,1.0,15.0,,,,0.0,4.0,4.0,4.0,4.0,4.0,4.0,4.0,4.0,4.0,4.0,4.0,4.0,4.0,4.0,100.0,,,,,,,,,,,,,,,,,,,,,,,,,,,,,,,,,,,,,,,,,,,,,,,,,,,,,,,,,,,,,,,,,,,,,,,,,,,,,,,,,,,,,,,,,,,,,,,,,,,,,,,,,,,,,,,,,,,,,,,,,,,,,,,,,,,
1725715960.602939,1725715960.604965,249.0,0.0,4272.436035,4261.794922,4341.538574,4234.230957,4236.410156,4145.512695,4234.230957,4265.512695,4251.666504,4241.794922,4448.205078,4509.871582,4350.0,4398.077148,3804.0,1.0,15.0,,,,0.0,4.0,4.0,4.0,4.0,4.0,4.0,4.0,4.0,4.0,4.0,4.0,4.0,4.0,4.0,100.0,,,,,,,,,,,,,,,,,,,,,,,,,,,,,,,,,,,,,,,,,,,,,,,,,,,,,,,,,,,,,,,,,,,,,,,,,,,,,,,,,,,,,,,,,,,,,,,,,,,,,,,,,,,,,,,,,,,,,,,,,,,,,,,,,,,
1725715960.606844,1725715960.608869,250.0,0.0,4269.743652,4262.692383,4341.666504,4235.769043,4235.897461,4148.974121,4233.461426,4260.0,4249.358887,4238.461426,4447.820313,4509.743652,4347.692383,4398.461426,2879.0,1.0,15.0,,,,0.0,4.0,4.0,4.0,4.0,4.0,4.0,4.0,4.0,4.0,4.0,4.0,4.0,4.0,4.0,100.0,,,,,,,,,,,,,,,,,,,,,,,,,,,,,,,,,,,,,,,,,,,,,,,,,,,,,,,,,,,,,,,,,,,,,,,,,,,,,,,,,,,,,,,,,,,,,,,,,,,,,,,,,,,,,,,,,,,,,,,,,,,,,,,,,,,
1725715960.610748,1725715960.612773,251.0,0.0,4267.307617,4264.230957,4340.897461,4236.666504,4236.538574,4149.358887,4233.589844,4255.0,4246.794922,4234.871582,4445.769043,4508.974121,4344.358887,4399.615234,3111.0,1.0,15.0,,,,0.0,4.0,4.0,4.0,4.0,4.0,4.0,4.0,4.0,4.0,4.0,4.0,4.0,4.0,4.0,100.0,,,,,,,,,,,,,,,,,,,,,,,,,,,,,,,,,,,,,,,,,,,,,,,,,,,,,,,,,,,,,,,,,,,,,,,,,,,,,,,,,,,,,,,,,,,,,,,,,,,,,,,,,,,,,,,,,,,,,,,,,,,,,,,,,,,
1725715960.614652,1725715960.616577,252.0,0.0,4265.512695,4265.0,4340.128418,4236.282227,4238.846191,4147.563965,4235.769043,4254.102539,4246.025879,4233.589844,4444.230957,4508.205078,4342.692383,4400.384766,3395.0,1.0,15.0,,,,0.0,4.0,4.0,4.0,4.0,4.0,4.0,4.0,4.0,4.0,4.0,4.0,4.0,4.0,4.0,100.0,,,,,,,,,,,,,,,,,,,,,,,,,,,,,,,,,,,,,,,,,,,,,,,,,,,,,,,,0.0,0.0,1.0,0.0,1.0,0.0,,,,,,,,,,,,,,,,,,,,,,,,,,,,,,,,,,,,,,,,,,,,,,,,,,,,,,,,,,,,,,,,,,,,,,
1725715960.618556,1725715960.620481,253.0,0.0,4264.487305,4265.128418,4339.871582,4235.769043,4242.307617,4146.282227,4239.358887,4256.410156,4247.05127,4234.743652,4444.871582,4508.205078,4343.717773,4400.0,3804.0,1.0,15.0,,,,0.0,4.0,4.0,4.0,4.0,4.0,4.0,4.0,4.0,4.0,4.0,4.0,4.0,4.0,4.0,100.0,,,,,,,,,,,,,,,,,,,,,,,,,,,,,,,,,,,,,,,,,,,,,,,,,,,,,,,,,,,,,,,,,,,,,,,,,,,,,,,,,,,,,,,,,,,,,,,,,,,,,,,,,,,,,,,,,,,,,,,,,,,,,,,,,,,
1725715960.62246,1725715960.624485,254.0,0.0,4263.717773,4265.0,4340.256348,4237.307617,4245.384766,4147.436035,4243.205078,4258.333496,4247.692383,4236.282227,4447.436035,4509.102539,4346.282227,4398.974121,2879.0,1.0,15.0,,,,0.0,4.0,4.0,4.0,4.0,4.0,4.0,4.0,4.0,4.0,4.0,4.0,4.0,4.0,4.0,100.0,,,,,,,,,,,,,,,,,,,,,,,,,,,,,,,,,,,,,,,,,,,,,,,,,,,,,,,,,,,,,,,,,,,,,,,,,,,,,,,,,,,,,,,,,,,,,,,,,,,,,,,,,,,,,,,,,,,,,,,,,,,,,,,,,,,
1725715960.626364,1725715960.628389,255.0,0.0,4263.589844,4265.384766,4341.153809,4241.153809,4247.436035,4151.153809,4246.922852,4257.05127,4246.153809,4236.410156,4450.128418,4510.769043,4347.94873,4398.461426,15.0,1.0,15.0,,,,0.0,4.0,4.0,4.0,4.0,4.0,4.0,4.0,4.0,4.0,4.0,4.0,4.0,4.0,4.0,100.0,,,,,,,,,,,,,,,,,,,,,,,,,,,,,,,,,,,,,,,,,,,,,,,,,,,,,,,,,,,,,,,,,,,,,,,,,,,,,,,,,,,,,,,,,,,,,,,,,,,,,,,,,,,,,,,,,,,,,,,,,,,,,,,,,,,
1725715960.630268,1725715960.632293,0.0,0.0,4264.743652,4265.897461,4342.436035,4245.512695,4249.358887,4155.128418,4250.769043,4252.05127,4242.436035,4234.487305,4450.897461,4512.179688,4347.307617,4399.230957,2672.0,1.0,15.0,,,,0.0,4.0,4.0,4.0,4.0,4.0,4.0,4.0,4.0,4.0,4.0,4.0,4.0,4.0,4.0,100.0,,,,,,,,,,,,,,,,,,,,,,,,,,,,,,,,,,,,,,,,,,,,,,,,,,,,,,,,,,,,,,,,,,,,,,,,,,,,,,,,,,,,,,,,,,,,,,,,,,,,,,,,,,,,,,,,,,,,,,,,,,,,,,,,,,,
1725715960.634172,1725715960.636197,1.0,0.0,4267.436035,4265.769043,4343.461426,4248.077148,4252.179688,4157.436035,4254.871582,4246.025879,4237.820313,4231.922852,4448.846191,4512.179688,4344.230957,4400.128418,2566.0,1.0,15.0,,,,0.0,4.0,4.0,4.0,4.0,4.0,4.0,4.0,4.0,4.0,4.0,4.0,4.0,4.0,4.0,100.0,,,,,,,,,,,,,,,,,,,,,,,,,,,,,,,,,,,,,,,,,,,,,,,,,,,,,,,,,,,,,,,,,,,,,,,,,,,,,,,,,,,,,,,,,,,,,,,,,,,,,,,,,,,,,,,,,,,,,,,,,,,,,,,,,,,
1725715960.638076,1725715960.640101,2.0,0.0,4270.769043,4265.256348,4343.717773,4247.94873,4256.282227,4156.794922,4258.974121,4242.436035,4234.358887,4230.384766,4445.128418,4510.128418,4340.128418,4400.0,2494.0,1.0,15.0,,,,0.0,4.0,4.0,4.0,4.0,4.0,4.0,4.0,4.0,4.0,4.0,4.0,4.0,4.0,4.0,100.0,,,,,,,,,,,,,,,,,,,,,,,,,,,,,,,,,,,,,,,,,,,,,,,,,,,,,,,,,,,,,,,,,,,,,,,,,,,,,,,,,,,,,,,,,,,,,,,,,,,,,,,,,,,,,,,,,,,,,,,,,,,,,,,,,,,
1725715960.641981,1725715960.644105,3.0,0.0,4273.205078,4265.0,4343.205078,4245.769043,4260.769043,4154.487305,4262.436035,4242.563965,4232.563965,4230.128418,4441.410156,4506.666504,4337.307617,4398.077148,2459.0,1.0,15.0,,,,0.0,4.0,4.0,4.0,4.0,4.0,4.0,4.0,4.0,4.0,4.0,4.0,4.0,4.0,4.0,100.0,,,,,,,,,,,,,,,,,,,,,,,,,,,,,,,,,,,,,,,,,,,,,,,,,,,,,,,,,,,,,,,,,,,,,,,,,,,,,,,,,,,,,,,,,,,,,,,,,,,,,,,,,,,,,,,,,,,,,,,,,,,,,,,,,,,
1725715960.645885,1725715960.64801,4.0,0.0,4273.717773,4265.128418,4342.307617,4243.333496,4263.589844,4152.436035,4264.230957,4244.871582,4232.436035,4230.641113,4439.487305,4503.461426,4336.410156,4395.128418,2431.0,1.0,15.0,,,,0.0,4.0,4.0,4.0,4.0,4.0,4.0,4.0,4.0,4.0,4.0,4.0,4.0,4.0,4.0,100.0,,,,,,,,,,,,,,,,,,,,,,,,,,,,,,,,,,,,,,,,,,,,,,,,,,,,,,,,0.0,0.0,1.0,0.0,1.0,0.0,,,,,,,,,,,,,,,,,,,,,,,,,,,,,,,,,,,,,,,,,,,,,,,,,,,,,,,,,,,,,,,,,,,,,,
1725715960.649789,1725715960.651914,5.0,0.0,4272.563965,4265.0,4341.666504,4242.436035,4263.717773,4152.05127,4263.974121,4246.922852,4233.717773,4231.025879,4439.871582,4502.179688,4336.794922,4392.179688,2384.0,1.0,15.0,,,,0.0,4.0,4.0,4.0,4.0,4.0,4.0,4.0,4.0,4.0,4.0,4.0,4.0,4.0,4.0,100.0,,,,,,,,,,,,,,,,,,,,,,,,,,,,,,,,,,,,,,,,,,,,,,,,,,,,,,,,,,,,,,,,,,,,,,,,,,,,,,,,,,,,,,,,,,,,,,,,,,,,,,,,,,,,,,,,,,,,,,,,,,,,,,,,,,,
1725715960.653693,1725715960.655918,6.0,0.0,4270.897461,4263.205078,4341.153809,4242.820313,4261.794922,4152.820313,4262.179688,4247.563965,4236.282227,4231.153809,4442.179688,4503.333496,4336.282227,4390.641113,2424.0,1.0,15.0,,,,0.0,4.0,4.0,4.0,4.0,4.0,4.0,4.0,4.0,4.0,4.0,4.0,4.0,4.0,4.0,100.0,,,,,,,,,,,,,,,,,,,,,,,,,,,,,,,,,,,,,,,,,,,,,,,,,,,,,,,,,,,,,,,,,,,,,,,,,,,,,,,,,,,,,,,,,,,,,,,,,,,,,,,,,,,,,,,,,,,,,,,,,,,,,,,,,,,
1725715960.657597,1725715960.659822,7.0,0.0,4270.769043,4259.615234,4340.256348,4243.846191,4260.0,4153.717773,4260.128418,4247.436035,4239.102539,4231.666504,4444.743652,4505.384766,4334.487305,4391.282227,2486.0,1.0,15.0,,,,0.0,4.0,4.0,4.0,4.0,4.0,4.0,4.0,4.0,4.0,4.0,4.0,4.0,4.0,4.0,100.0,,,,,,,,,,,,,,,,,,,,,,,,,,,,,,,,,,,,,,,,,,,,,,,,,,,,,,,,,,,,,,,,,,,,,,,,,,,,,,,,,,,,,,,,,,,,,,,,,,,,,,,,,,,,,,,,,,,,,,,,,,,,,,,,,,,
1725715960.661501,1725715960.663726,8.0,0.0,4273.077148,4255.384766,4339.102539,4244.102539,4260.384766,4153.846191,4259.358887,4248.077148,4241.282227,4232.307617,4446.153809,4507.05127,4332.692383,4393.333496,2459.0,1.0,15.0,,,,0.0,4.0,4.0,4.0,4.0,4.0,4.0,4.0,4.0,4.0,4.0,4.0,4.0,4.0,4.0,100.0,,,,,,,,,,,,,,,,,,,,,,,,,,,,,,,,,,,,,,,,,,,,,,,,,,,,,,,,,,,,,,,,,,,,,,,,,,,,,,,,,,,,,,,,,,,,,,,,,,,,,,,,,,,,,,,,,,,,,,,,,,,,,,,,,,,
1725715960.665405,1725715960.66763,9.0,0.0,4276.794922,4252.307617,4338.333496,4244.358887,4262.820313,4153.589844,4260.641113,4249.743652,4241.538574,4232.692383,4445.769043,4507.307617,4332.563965,4395.641113,2553.0,1.0,15.0,,,,0.0,4.0,4.0,4.0,4.0,4.0,4.0,4.0,4.0,4.0,4.0,4.0,4.0,4.0,4.0,100.0,,,,,,,,,,,,,,,,,,,,,,,,,,,,,,,,,,,,,,,,,,,,,,,,,,,,,,,,,,,,,,,,,,,,,,,,,,,,,,,,,,,,,,,,,,,,,,,,,,,,,,,,,,,,,,,,,,,,,,,,,,,,,,,,,,,
1725715960.669309,1725715960.671534,10.0,0.0,4279.743652,4251.666504,4338.846191,4245.769043,4265.641113,4153.846191,4263.974121,4251.666504,4240.384766,4232.179688,4444.230957,4506.282227,4335.0,4396.794922,2879.0,1.0,15.0,,,,0.0,4.0,4.0,4.0,4.0,4.0,4.0,4.0,4.0,4.0,4.0,4.0,4.0,4.0,4.0,100.0,,,,,,,,,,,,,,,,,,,,,,,,,,,,,,,,,,,,,,,,,,,,,,,,,,,,,,,,,,,,,,,,,,,,,,,,,,,,,,,,,,,,,,,,,,,,,,,,,,,,,,,,,,,,,,,,,,,,,,,,,,,,,,,,,,,
1725715960.673213,1725715960.675438,11.0,0.0,4280.641113,4253.974121,4341.153809,4248.846191,4266.794922,4154.743652,4268.333496,4253.077148,4238.589844,4230.897461,4443.205078,4505.256348,4338.205078,4396.922852,3106.0,1.0,15.0,,,,0.0,4.0,4.0,4.0,4.0,4.0,4.0,4.0,4.0,4.0,4.0,4.0,4.0,4.0,4.0,100.0,,,,,,,,,,,,,,,,,,,,,,,,,,,,,,,,,,,,,,,,,,,,,,,,,,,,,,,,,,,,,,,,,,,,,,,,,,,,,,,,,,,,,,,,,,,,,,,,,,,,,,,,,,,,,,,,,,,,,,,,,,,,,,,,,,,
1725715960.677117,1725715960.679242,12.0,0.0,4280.0,4258.589844,4344.615234,4252.820313,4266.538574,4155.897461,4272.179688,4254.743652,4237.563965,4230.128418,4444.230957,4506.410156,4340.256348,4397.179688,3390.0,1.0,15.0,,,,0.0,4.0,4.0,4.0,4.0,4.0,4.0,4.0,4.0,4.0,4.0,4.0,4.0,4.0,4.0,100.0,,,,,,,,,,,,,,,,,,,,,,,,,,,,,,,,,,,,,,,,,,,,,,,,,,,,,,,,0.0,0.0,1.0,0.0,1.0,0.0,,,,,,,,,,,,,,,,,,,,,,,,,,,,,,,,,,,,,,,,,,,,,,,,,,,,,,,,,,,,,,,,,,,,,,
1725715960.681022,1725715960.683147,13.0,0.0,4279.487305,4263.589844,4347.94873,4256.410156,4266.282227,4157.05127,4275.128418,4257.692383,4238.717773,4230.512695,4448.333496,4511.153809,4340.0,4398.205078,3805.0,1.0,15.0,,,,0.0,4.0,4.0,4.0,4.0,4.0,4.0,4.0,4.0,4.0,4.0,4.0,4.0,4.0,4.0,100.0,,,,,,,,,,,,,,,,,,,,,,,,,,,,,,,,,,,,,,,,,,,,,,,,,,,,,,,,,,,,,,,,,,,,,,,,,,,,,,,,,,,,,,,,,,,,,,,,,,,,,,,,,,,,,,,,,,,,,,,,,,,,,,,,,,,
1725715960.684926,1725715960.687151,14.0,0.0,4279.743652,4266.410156,4350.128418,4258.589844,4267.05127,4157.94873,4277.307617,4261.153809,4242.179688,4232.179688,4454.102539,4518.461426,4338.461426,4400.128418,2879.0,1.0,15.0,,,,0.0,4.0,4.0,4.0,4.0,4.0,4.0,4.0,4.0,4.0,4.0,4.0,4.0,4.0,4.0,100.0,,,,,,,,,,,,,,,,,,,,,,,,,,,,,,,,,,,,,,,,,,,,,,,,,,,,,,,,,,,,,,,,,,,,,,,,,,,,,,,,,,,,,,,,,,,,,,,,,,,,,,,,,,,,,,,,,,,,,,,,,,,,,,,,,,,
1725715960.68883,1725715960.691055,15.0,0.0,4280.512695,4265.384766,4351.025879,4259.102539,4268.846191,4158.461426,4278.846191,4262.820313,4246.410156,4233.846191,4458.974121,4524.230957,4336.794922,4401.538574,3106.0,1.0,15.0,,,,0.0,4.0,4.0,4.0,4.0,4.0,4.0,4.0,4.0,4.0,4.0,4.0,4.0,4.0,4.0,100.0,,,,,,,,,,,,,,,,,,,,,,,,,,,,,,,,,,,,,,,,,,,,,,,,,,,,,,,,,,,,,,,,,,,,,,,,,,,,,,,,,,,,,,,,,,,,,,,,,,,,,,,,,,,,,,,,,,,,,,,,,,,,,,,,,,,
1725715960.692734,1725715960.694959,16.0,0.0,4280.384766,4260.897461,4350.897461,4258.205078,4270.512695,4157.820313,4279.871582,4260.512695,4248.974121,4234.102539,4460.641113,4524.871582,4335.128418,4401.538574,3390.0,1.0,15.0,,,,0.0,4.0,4.0,4.0,4.0,4.0,4.0,4.0,4.0,4.0,4.0,4.0,4.0,4.0,4.0,100.0,,,,,,,,,,,,,,,,,,,,,,,,,,,,,,,,,,,,,,,,,,,,,,,,,,,,,,,,,,,,,,,,,,,,,,,,,,,,,,,,,,,,,,,,,,,,,,,,,,,,,,,,,,,,,,,,,,,,,,,,,,,,,,,,,,,
1725715960.696638,1725715960.698863,17.0,0.0,4278.333496,4255.256348,4350.128418,4256.794922,4270.641113,4156.153809,4280.512695,4255.256348,4248.333496,4232.563965,4458.846191,4520.128418,4333.205078,4400.769043,3805.0,1.0,15.0,,,,0.0,4.0,4.0,4.0,4.0,4.0,4.0,4.0,4.0,4.0,4.0,4.0,4.0,4.0,4.0,100.0,,,,,,,,,,,,,,,,,,,,,,,,,,,,,,,,,,,,,,,,,,,,,,,,,,,,,,,,,,,,,,,,,,,,,,,,,,,,,,,,,,,,,,,,,,,,,,,,,,,,,,,,,,,,,,,,,,,,,,,,,,,,,,,,,,,
1725715960.700542,1725715960.702767,18.0,0.0,4275.641113,4250.769043,4349.230957,4255.512695,4269.102539,4154.871582,4281.410156,4250.897461,4245.641113,4230.384766,4455.897461,4514.230957,4331.538574,4400.641113,2879.0,1.0,15.0,,,,0.0,4.0,4.0,4.0,4.0,4.0,4.0,4.0,4.0,4.0,4.0,4.0,4.0,4.0,4.0,100.0,,,,,,,,,,,,,,,,,,,,,,,,,,,,,,,,,,,,,,,,,,,,,,,,,,,,,,,,,,,,,,,,,,,,,,,,,,,,,,,,,,,,,,,,,,,,,,,,,,,,,,,,,,,,,,,,,,,,,,,,,,,,,,,,,,,
1725715960.704446,1725715960.706571,19.0,0.0,4274.487305,4249.102539,4349.358887,4255.384766,4267.05127,4155.512695,4282.179688,4251.153809,4244.230957,4228.974121,4454.743652,4512.436035,4331.794922,4401.794922,3106.0,1.0,15.0,,,,0.0,4.0,4.0,4.0,4.0,4.0,4.0,4.0,4.0,4.0,4.0,4.0,4.0,4.0,4.0,100.0,,,,,,,,,,,,,,,,,,,,,,,,,,,,,,,,,,,,,,,,,,,,,,,,,,,,,,,,,,,,,,,,,,,,,,,,,,,,,,,,,,,,,,,,,,,,,,,,,,,,,,,,,,,,,,,,,,,,,,,,,,,,,,,,,,,
1725715960.70835,1725715960.710475,20.0,0.0,4276.153809,4250.769043,4350.897461,4256.794922,4265.512695,4158.461426,4282.563965,4256.666504,4245.769043,4229.615234,4456.538574,4517.05127,4334.487305,4403.333496,3390.0,1.0,15.0,,,,0.0,4.0,4.0,4.0,4.0,4.0,4.0,4.0,4.0,4.0,4.0,4.0,4.0,4.0,4.0,100.0,,,,,,,,,,,,,,,,,1.0,0.0,0.0,,,,,,,,,,,,,,,,,,,,,,,,,,,,,,,,,,,,,0.0,0.0,1.0,0.0,1.0,0.0,2.315429,0.90467,1.228164,0.259298,0.063896,1.747717,0.700409,0.559509,0.153968,0.028065,1.279365,0.461897,1.056093,0.08543,0.049174,1.491962,0.70266,0.568904,0.128934,0.04518,0.649426,0.311613,0.236608,0.074443,0.032821,1.022728,0.323252,0.447122,0.092822,0.038774,1.083217,0.434901,0.254636,0.079613,0.089084,0.430726,1.134221,0.387704,0.309079,0.113003,0.610315,0.486718,0.330917,0.217611,0.073206,0.934125,0.530085,0.746143,0.276698,0.066458,0.981841,0.783066,1.187338,0.397337,0.120907,2.360404,1.138225,1.460436,0.288858,0.167716,1.050194,0.729762,1.537023,0.297476,0.126652,1.50666,0.866226,1.444838,0.2173,0.088823
1725715960.712254,1725715960.714379,21.0,0.0,4278.846191,4254.871582,4353.205078,4259.487305,4265.128418,4162.563965,4282.436035,4264.230957,4248.974121,4231.794922,4459.871582,4524.615234,4339.102539,4403.589844,3805.0,1.0,15.0,,,,0.0,4.0,4.0,4.0,4.0,4.0,4.0,4.0,4.0,4.0,4.0,4.0,4.0,4.0,4.0,100.0,,,,,,,,,,,,,,,,,,,,,,,,,,,,,,,,,,,,,,,,,,,,,,,,,,,,,,,,,,,,,,,,,,,,,,,,,,,,,,,,,,,,,,,,,,,,,,,,,,,,,,,,,,,,,,,,,,,,,,,,,,,,,,,,,,,
1725715960.716159,1725715960.718283,22.0,0.0,4279.487305,4259.743652,4354.230957,4261.922852,4265.512695,4166.025879,4282.179688,4268.205078,4251.153809,4234.230957,4462.05127,4528.461426,4343.717773,4402.05127,2879.0,1.0,15.0,,,,0.0,4.0,4.0,4.0,4.0,4.0,4.0,4.0,4.0,4.0,4.0,4.0,4.0,4.0,4.0,100.0,,,,,,,,,,,,,,,,,,,,,,,,,,,,,,,,,,,,,,,,,,,,,,,,,,,,,,,,,,,,,,,,,,,,,,,,,,,,,,,,,,,,,,,,,,,,,,,,,,,,,,,,,,,,,,,,,,,,,,,,,,,,,,,,,,,
1725715960.720063,1725715960.722088,23.0,0.0,4276.282227,4263.589844,4352.692383,4262.692383,4265.769043,4167.307617,4281.922852,4265.384766,4250.641113,4235.256348,4461.538574,4523.974121,4346.538574,4399.358887,3106.0,1.0,15.0,,,,0.0,4.0,4.0,4.0,4.0,4.0,4.0,4.0,4.0,4.0,4.0,4.0,4.0,4.0,4.0,100.0,,,,,,,,,,,,,,,,,,,,,,,,,,,,,,,,,,,,,,,,,,,,,,,,,,,,,,,,,,,,,,,,,,,,,,,,,,,,,,,,,,,,,,,,,,,,,,,,,,,,,,,,,,,,,,,,,,,,,,,,,,,,,,,,,,,
1725715960.723967,1725715960.725992,24.0,0.0,4270.641113,4264.743652,4348.846191,4261.282227,4265.641113,4166.666504,4281.794922,4257.436035,4248.077148,4234.615234,4458.846191,4513.077148,4347.05127,4396.410156,3390.0,1.0,15.0,,,,0.0,4.0,4.0,4.0,4.0,4.0,4.0,4.0,4.0,4.0,4.0,4.0,4.0,4.0,4.0,100.0,,,,,,,,,,,,,,,,,,,,,,,,,,,,,,,,,,,,,,,,,,,,,,,,,,,,,,,,,,,,,,,,,,,,,,,,,,,,,,,,,,,,,,,,,,,,,,,,,,,,,,,,,,,,,,,,,,,,,,,,,,,,,,,,,,,
1725715960.727871,1725715960.729896,25.0,0.0,4265.641113,4263.461426,4344.871582,4259.102539,4265.384766,4165.512695,4281.410156,4249.743652,4245.769043,4233.077148,4455.769043,4503.461426,4346.025879,4394.487305,3805.0,1.0,15.0,,,,0.0,4.0,4.0,4.0,4.0,4.0,4.0,4.0,4.0,4.0,4.0,4.0,4.0,4.0,4.0,100.0,,,,,,,,,,,,,,,,,,,,,,,,,,,,,,,,,,,,,,,,,,,,,,,,,,,,,,,,,,,,,,,,,,,,,,,,,,,,,,,,,,,,,,,,,,,,,,,,,,,,,,,,,,,,,,,,,,,,,,,,,,,,,,,,,,,
1725715960.731775,1725715960.7338,26.0,0.0,4263.974121,4261.922852,4343.205078,4257.820313,4265.256348,4165.512695,4280.897461,4247.692383,4245.128418,4232.307617,4454.487305,4501.794922,4345.256348,4394.358887,2879.0,1.0,15.0,,,,0.0,4.0,4.0,4.0,4.0,4.0,4.0,4.0,4.0,4.0,4.0,4.0,4.0,4.0,4.0,100.0,,,,,,,,,,,,,,,,,,,,,,,,,,,,,,,,,,,,,,,,,,,,,,,,,,,,,,,,,,,,,,,,,,,,,,,,,,,,,,,,,,,,,,,,,,,,,,,,,,,,,,,,,,,,,,,,,,,,,,,,,,,,,,,,,,,
1725715960.735679,1725715960.737604,27.0,0.0,4266.538574,4261.922852,4345.0,4258.461426,4266.025879,4167.179688,4280.512695,4252.307617,4246.538574,4233.461426,4455.897461,4508.846191,4346.153809,4396.025879,3106.0,1.0,15.0,,,,0.0,4.0,4.0,4.0,4.0,4.0,4.0,4.0,4.0,4.0,4.0,4.0,4.0,4.0,4.0,100.0,,,,,,,,,,,,,,,,,,,,,,,,,,,,,,,,,,,,,,,,,,,,,,,,,,,,,,,,,,,,,,,,,,,,,,,,,,,,,,,,,,,,,,,,,,,,,,,,,,,,,,,,,,,,,,,,,,,,,,,,,,,,,,,,,,,
1725715960.739583,1725715960.741508,28.0,0.0,4271.794922,4263.846191,4349.230957,4260.769043,4267.692383,4169.871582,4280.256348,4260.256348,4248.974121,4235.641113,4459.102539,4518.589844,4348.846191,4398.333496,3390.0,1.0,15.0,,,,0.0,4.0,4.0,4.0,4.0,4.0,4.0,4.0,4.0,4.0,4.0,4.0,4.0,4.0,4.0,100.0,,,,,,,,,,,,,,,,,,,,,,,,,,,,,,,,,,,,,,,,,,,,,,,,,,,,,,,,0.0,0.0,1.0,0.0,1.0,0.0,,,,,,,,,,,,,,,,,,,,,,,,,,,,,,,,,,,,,,,,,,,,,,,,,,,,,,,,,,,,,,,,,,,,,,
1725715960.743487,1725715960.745412,29.0,0.0,4276.794922,4265.897461,4352.820313,4262.94873,4268.846191,4172.307617,4280.0,4266.025879,4250.641113,4237.05127,4461.794922,4523.333496,4351.666504,4399.102539,3805.0,1.0,15.0,,,,0.0,4.0,4.0,4.0,4.0,4.0,4.0,4.0,4.0,4.0,4.0,4.0,4.0,4.0,4.0,100.0,,,,,,,,,,,,,,,,,,,,,,,,,,,,,,,,,,,,,,,,,,,,,,,,,,,,,,,,,,,,,,,,,,,,,,,,,,,,,,,,,,,,,,,,,,,,,,,,,,,,,,,,,,,,,,,,,,,,,,,,,,,,,,,,,,,
1725715960.747391,1725715960.749416,30.0,0.0,4279.102539,4266.666504,4353.461426,4263.717773,4268.333496,4173.461426,4279.871582,4266.025879,4250.384766,4236.538574,4461.666504,4519.743652,4352.05127,4397.820313,2879.0,1.0,15.0,,,,0.0,4.0,4.0,4.0,4.0,4.0,4.0,4.0,4.0,4.0,4.0,4.0,4.0,4.0,4.0,100.0,,,,,,,,,,,,,,,,,,,,,,,,,,,,,,,,,,,,,,,,,,,,,,,,,,,,,,,,,,,,,,,,,,,,,,,,,,,,,,,,,,,,,,,,,,,,,,,,,,,,,,,,,,,,,,,,,,,,,,,,,,,,,,,,,,,
1725715960.751295,1725715960.753321,31.0,0.0,4278.461426,4266.025879,4351.153809,4262.94873,4266.538574,4174.102539,4279.871582,4261.282227,4248.205078,4234.871582,4458.589844,4511.538574,4349.743652,4396.410156,3106.0,1.0,15.0,,,,0.0,4.0,4.0,4.0,4.0,4.0,4.0,4.0,4.0,4.0,4.0,4.0,4.0,4.0,4.0,100.0,,,,,,,,,,,,,,,,,,,,,,,,,,,,,,,,,,,,,,,,,,,,,,,,,,,,,,,,,,,,,,,,,,,,,,,,,,,,,,,,,,,,,,,,,,,,,,,,,,,,,,,,,,,,,,,,,,,,,,,,,,,,,,,,,,,
1725715960.7552,1725715960.757225,32.0,0.0,4277.179688,4265.128418,4348.461426,4262.179688,4265.128418,4175.128418,4280.128418,4256.538574,4246.025879,4234.230957,4455.641113,4506.410156,4347.307617,4397.820313,0.0,1.0,15.0,,,,0.0,4.0,4.0,4.0,4.0,4.0,4.0,4.0,4.0,4.0,4.0,4.0,4.0,4.0,4.0,100.0,,,,,,,,,,,,,,,,,,,,,,,,,,,,,,,,,,,,,,,,,,,,,,,,,,,,,,,,,,,,,,,,,,,,,,,,,,,,,,,,,,,,,,,,,,,,,,,,,,,,,,,,,,,,,,,,,,,,,,,,,,,,,,,,,,,
1725715960.759104,1725715960.761129,33.0,0.0,4277.307617,4264.871582,4348.205078,4262.820313,4265.769043,4177.307617,4280.512695,4256.922852,4246.794922,4236.538574,4456.410156,4509.230957,4347.692383,4402.436035,0.0,1.0,15.0,,,,0.0,4.0,4.0,4.0,4.0,4.0,4.0,4.0,4.0,4.0,4.0,4.0,4.0,4.0,4.0,100.0,,,,,,,,,,,,,,,,,,,,,,,,,,,,,,,,,,,,,,,,,,,,,,,,,,,,,,,,,,,,,,,,,,,,,,,,,,,,,,,,,,,,,,,,,,,,,,,,,,,,,,,,,,,,,,,,,,,,,,,,,,,,,,,,,,,
1725715960.763008,1725715960.765133,34.0,0.0,4279.230957,4265.128418,4350.897461,4264.230957,4268.717773,4180.641113,4280.641113,4263.846191,4251.666504,4241.282227,4461.666504,4518.333496,4351.025879,4408.333496,0.0,1.0,15.0,,,,0.0,4.0,4.0,4.0,4.0,4.0,4.0,4.0,4.0,4.0,4.0,4.0,4.0,4.0,4.0,100.0,,,,,,,,,,,,,,,,,,,,,,,,,,,,,,,,,,,,,,,,,,,,,,,,,,,,,,,,,,,,,,,,,,,,,,,,,,,,,,,,,,,,,,,,,,,,,,,,,,,,,,,,,,,,,,,,,,,,,,,,,,,,,,,,,,,
1725715960.766912,1725715960.769037,35.0,0.0,4281.153809,4265.512695,4353.974121,4264.743652,4272.692383,4183.717773,4280.128418,4273.589844,4258.717773,4245.897461,4468.461426,4527.436035,4353.974121,4411.922852,0.0,1.0,15.0,,,,0.0,4.0,4.0,4.0,4.0,4.0,4.0,4.0,4.0,4.0,4.0,4.0,4.0,4.0,4.0,100.0,,,,,,,,,,,,,,,,,,,,,,,,,,,,,,,,,,,,,,,,,,,,,,,,,,,,,,,,,,,,,,,,,,,,,,,,,,,,,,,,,,,,,,,,,,,,,,,,,,,,,,,,,,,,,,,,,,,,,,,,,,,,,,,,,,,
1725715960.770816,1725715960.772941,36.0,0.0,4280.641113,4265.641113,4354.615234,4263.589844,4275.897461,4185.384766,4278.846191,4279.871582,4264.102539,4247.692383,4472.94873,4530.641113,4353.846191,4411.666504,0.0,1.0,15.0,,,,0.0,4.0,4.0,4.0,4.0,4.0,4.0,4.0,4.0,4.0,4.0,4.0,4.0,4.0,4.0,100.0,,,,,,,,,,,,,,,,,,,,,,,,,,,,,,,,,,,,,,,,,,,,,,,,,,,,,,,,0.0,0.0,1.0,0.0,1.0,0.0,,,,,,,,,,,,,,,,,,,,,,,,,,,,,,,,,,,,,,,,,,,,,,,,,,,,,,,,,,,,,,,,,,,,,,
1725715960.77472,1725715960.776945,37.0,0.0,4277.436035,4265.128418,4352.179688,4262.692383,4276.794922,4185.384766,4277.179688,4278.461426,4265.384766,4246.410156,4473.589844,4527.179688,4350.897461,4408.717773,0.0,1.0,15.0,,,,0.0,4.0,4.0,4.0,4.0,4.0,4.0,4.0,4.0,4.0,4.0,4.0,4.0,4.0,4.0,100.0,,,,,,,,,,,,,,,,,,,,,,,,,,,,,,,,,,,,,,,,,,,,,,,,,,,,,,,,,,,,,,,,,,,,,,,,,,,,,,,,,,,,,,,,,,,,,,,,,,,,,,,,,,,,,,,,,,,,,,,,,,,,,,,,,,,
1725715960.778624,1725715960.780849,38.0,0.0,4273.717773,4264.487305,4348.974121,4264.230957,4275.512695,4184.743652,4276.153809,4271.282227,4263.461426,4243.589844,4471.794922,4520.769043,4348.077148,4406.025879,0.0,1.0,15.0,,,,0.0,4.0,4.0,4.0,4.0,4.0,4.0,4.0,4.0,4.0,4.0,4.0,4.0,4.0,4.0,100.0,,,,,,,,,,,,,,,,,,,,,,,,,,,,,,,,,,,,,,,,,,,,,,,,,,,,,,,,,,,,,,,,,,,,,,,,,,,,,,,,,,,,,,,,,,,,,,,,,,,,,,,,,,,,,,,,,,,,,,,,,,,,,,,,,,,
1725715960.782528,1725715960.784753,39.0,0.0,4272.05127,4264.487305,4348.205078,4268.589844,4273.846191,4184.230957,4276.282227,4264.615234,4260.897461,4241.922852,4470.256348,4516.922852,4348.333496,4406.282227,0.0,1.0,15.0,,,,0.0,4.0,4.0,4.0,4.0,4.0,4.0,4.0,4.0,4.0,4.0,4.0,4.0,4.0,4.0,100.0,,,,,,,,,,,,,,,,,,,,,,,,,,,,,,,,,,,,,,,,,,,,,,,,,,,,,,,,,,,,,,,,,,,,,,,,,,,,,,,,,,,,,,,,,,,,,,,,,,,,,,,,,,,,,,,,,,,,,,,,,,,,,,,,,,,
1725715960.786432,1725715960.788657,40.0,0.0,4273.205078,4265.512695,4351.282227,4273.589844,4273.589844,4184.358887,4277.692383,4264.358887,4260.512695,4242.820313,4470.897461,4518.589844,4351.410156,4409.358887,0.0,1.0,15.0,,,,0.0,4.0,4.0,4.0,4.0,4.0,4.0,4.0,4.0,4.0,4.0,4.0,4.0,4.0,4.0,100.0,,,,,,,,,,,,,,,,,,,,,,,,,,,,,,,,,,,,,,,,,,,,,,,,,,,,,,,,,,,,,,,,,,,,,,,,,,,,,,,,,,,,,,,,,,,,,,,,,,,,,,,,,,,,,,,,,,,,,,,,,,,,,,,,,,,
1725715960.790336,1725715960.792661,41.0,0.0,4275.769043,4266.410156,4356.153809,4276.282227,4275.128418,4184.743652,4279.230957,4271.153809,4262.94873,4245.769043,4473.205078,4524.743652,4355.256348,4413.333496,0.0,1.0,15.0,,,,0.0,4.0,4.0,4.0,4.0,4.0,4.0,4.0,4.0,4.0,4.0,4.0,4.0,4.0,4.0,100.0,,,,,,,,,,,,,,,,,,,,,,,,,,,,,,,,,,,,,,,,,,,,,,,,,,,,,,,,,,,,,,,,,,,,,,,,,,,,,,,,,,,,,,,,,,,,,,,,,,,,,,,,,,,,,,,,,,,,,,,,,,,,,,,,,,,
1725715960.794241,1725715960.796565,42.0,0.0,4277.820313,4266.153809,4359.615234,4275.512695,4277.436035,4185.256348,4280.256348,4280.256348,4266.410156,4248.974121,4475.256348,4530.641113,4357.820313,4415.641113,0.0,1.0,15.0,,,,0.0,4.0,4.0,4.0,4.0,4.0,4.0,4.0,4.0,4.0,4.0,4.0,4.0,4.0,4.0,100.0,,,,,,,,,,,,,,,,,,,,,,,,,,,,,,,,,,,,,,,,,,,,,,,,,,,,,,,,,,,,,,,,,,,,,,,,,,,,,,,,,,,,,,,,,,,,,,,,,,,,,,,,,,,,,,,,,,,,,,,,,,,,,,,,,,,
1725715960.798144,1725715960.800469,43.0,0.0,4278.717773,4264.487305,4360.128418,4272.692383,4278.717773,4185.897461,4280.384766,4285.128418,4268.205078,4250.769043,4475.128418,4532.307617,4358.205078,4415.128418,0.0,1.0,15.0,,,,0.0,4.0,4.0,4.0,4.0,4.0,4.0,4.0,4.0,4.0,4.0,4.0,4.0,4.0,4.0,100.0,,,,,,,,,,,,,,,,,,,,,,,,,,,,,,,,,,,,,,,,,,,,,,,,,,,,,,,,,,,,,,,,,,,,,,,,,,,,,,,,,,,,,,,,,,,,,,,,,,,,,,,,,,,,,,,,,,,,,,,,,,,,,,,,,,,
1725715960.802049,1725715960.804374,44.0,0.0,4278.846191,4263.077148,4358.461426,4271.153809,4278.717773,4187.05127,4280.128418,4282.94873,4267.179688,4250.641113,4472.94873,4529.358887,4357.307617,4412.94873,0.0,1.0,15.0,,,,0.0,4.0,4.0,4.0,4.0,4.0,4.0,4.0,4.0,4.0,4.0,4.0,4.0,4.0,4.0,100.0,,,,,,,,,,,,,,,,,,,,,,,,,,,,,,,,,,,,,,,,,,,,,,,,,,,,,,,,0.0,0.0,1.0,0.0,1.0,0.0,,,,,,,,,,,,,,,,,,,,,,,,,,,,,,,,,,,,,,,,,,,,,,,,,,,,,,,,,,,,,,,,,,,,,,
1725715960.805953,1725715960.808278,45.0,0.0,4279.230957,4264.102539,4357.05127,4273.333496,4278.461426,4188.717773,4279.743652,4275.256348,4264.230957,4248.974121,4470.769043,4525.128418,4356.538574,4411.666504,0.0,1.0,15.0,,,,0.0,4.0,4.0,4.0,4.0,4.0,4.0,4.0,4.0,4.0,4.0,4.0,4.0,4.0,4.0,100.0,,,,,,,,,,,,,,,,,,,,,,,,,,,,,,,,,,,,,,,,,,,,,,,,,,,,,,,,,,,,,,,,,,,,,,,,,,,,,,,,,,,,,,,,,,,,,,,,,,,,,,,,,,,,,,,,,,,,,,,,,,,,,,,,,,,
1725715960.809857,1725715960.812082,46.0,0.0,4280.384766,4268.333496,4357.94873,4278.717773,4279.230957,4190.0,4280.0,4267.179688,4261.794922,4247.436035,4471.282227,4523.974121,4357.05127,4412.94873,0.0,1.0,15.0,,,,0.0,4.0,4.0,4.0,4.0,4.0,4.0,4.0,4.0,4.0,4.0,4.0,4.0,4.0,4.0,100.0,,,,,,,,,,,,,,,,,,,,,,,,,,,,,,,,,,,,,,,,,,,,,,,,,,,,,,,,,,,,,,,,,,,,,,,,,,,,,,,,,,,,,,,,,,,,,,,,,,,,,,,,,,,,,,,,,,,,,,,,,,,,,,,,,,,
1725715960.813761,1725715960.815986,47.0,0.0,4282.05127,4274.230957,4361.410156,4283.974121,4281.410156,4190.512695,4280.384766,4262.94873,4261.666504,4246.666504,4475.0,4526.794922,4359.230957,4416.025879,0.0,1.0,15.0,,,,0.0,4.0,4.0,4.0,4.0,4.0,4.0,4.0,4.0,4.0,4.0,4.0,4.0,4.0,4.0,100.0,,,,,,,,,,,,,,,,,,,,,,,,,,,,,,,,,,,,,,,,,,,,,,,,,,,,,,,,,,,,,,,,,,,,,,,,,,,,,,,,,,,,,,,,,,,,,,,,,,,,,,,,,,,,,,,,,,,,,,,,,,,,,,,,,,,
1725715960.817665,1725715960.81989,48.0,0.0,4283.333496,4278.974121,4365.641113,4285.897461,4283.333496,4189.743652,4280.641113,4263.205078,4263.461426,4246.794922,4479.102539,4530.897461,4361.794922,4418.205078,0.0,1.0,15.0,,,,0.0,4.0,4.0,4.0,4.0,4.0,4.0,4.0,4.0,4.0,4.0,4.0,4.0,4.0,4.0,100.0,,,,,,,,,,,,,,,,,,,,,,,,,,,,,,,,,,,,,,,,,,,,,,,,,,,,,,,,,,,,,,,,,,,,,,,,,,,,,,,,,,,,,,,,,,,,,,,,,,,,,,,,,,,,,,,,,,,,,,,,,,,,,,,,,,,
1725715960.821569,1725715960.823794,49.0,0.0,4283.461426,4280.384766,4367.692383,4283.846191,4283.461426,4188.589844,4280.641113,4265.128418,4265.256348,4247.307617,4479.743652,4532.307617,4362.436035,4417.692383,0.0,1.0,15.0,,,,0.0,4.0,4.0,4.0,4.0,4.0,4.0,4.0,4.0,4.0,4.0,4.0,4.0,4.0,4.0,100.0,,,,,,,,,,,,,,,,,,,,,,,,,,,,,,,,,,,,,,,,,,,,,,,,,,,,,,,,,,,,,,,,,,,,,,,,,,,,,,,,,,,,,,,,,,,,,,,,,,,,,,,,,,,,,,,,,,,,,,,,,,,,,,,,,,,
1725715960.825473,1725715960.827598,50.0,0.0,4282.692383,4279.102539,4366.666504,4280.256348,4282.307617,4188.461426,4280.897461,4265.512695,4265.128418,4247.820313,4475.769043,4529.743652,4360.256348,4414.871582,0.0,1.0,15.0,,,,0.0,4.0,4.0,4.0,4.0,4.0,4.0,4.0,4.0,4.0,4.0,4.0,4.0,4.0,4.0,100.0,,,,,,,,,,,,,,,,,,,,,,,,,,,,,,,,,,,,,,,,,,,,,,,,,,,,,,,,,,,,,,,,,,,,,,,,,,,,,,,,,,,,,,,,,,,,,,,,,,,,,,,,,,,,,,,,,,,,,,,,,,,,,,,,,,,
1725715960.829377,1725715960.831502,51.0,0.0,4281.794922,4277.307617,4364.102539,4278.717773,4281.153809,4190.256348,4281.666504,4263.974121,4263.333496,4248.205078,4471.153809,4525.641113,4357.05127,4412.563965,0.0,1.0,15.0,,,,0.0,4.0,4.0,4.0,4.0,4.0,4.0,4.0,4.0,4.0,4.0,4.0,4.0,4.0,4.0,100.0,,,,,,,,,,,,,,,,,,,,,,,,,,,,,,,,,,,,,,,,,,,,,,,,,,,,,,,,,,,,,,,,,,,,,,,,,,,,,,,,,,,,,,,,,,,,,,,,,,,,,,,,,,,,,,,,,,,,,,,,,,,,,,,,,,,
1725715960.833281,1725715960.835407,52.0,0.0,4281.666504,4277.563965,4362.692383,4280.256348,4281.025879,4194.358887,4282.692383,4262.05127,4261.666504,4248.461426,4470.769043,4524.230957,4355.512695,4412.94873,0.0,1.0,15.0,,,,0.0,4.0,4.0,4.0,4.0,4.0,4.0,4.0,4.0,4.0,4.0,4.0,4.0,4.0,4.0,100.0,1.0,50.0,4.0,4.0,3.0,4.0,4.0,3.0,0.0,4.0,4.0,4.0,4.0,4.0,4.0,4.0,1.0,0.0,0.0,1.0,0.461838,-7.841384,-13.936835,-1.638753,1.0,0.543016,-0.569422,-1.164136,-0.075342,1.0,0.371848,3.499283,1.398514,7.051146,0.315442,1.0,0.439787,48.357576,-822.570441,1105.987885,1.0,0.414411,0.156377,0.046849,0.298652,1.0,0.53386,4.5503,-13.772529,20.907316,1.0,0.385949,0.385949,0.0,1.0,0.0,0.0,1.0,0.0,1.0,0.0,1.868706,0.768618,0.985028,0.23714,0.055017,1.402423,0.54313,0.470959,0.127584,0.031441,0.988163,0.424707,0.805386,0.096916,0.046204,1.582603,0.914568,0.64745,0.143062,0.046879,0.568522,0.275511,0.218426,0.069467,0.0404,1.104269,0.356581,0.508269,0.099393,0.043362,1.238348,0.401284,0.227774,0.084209,0.094759,0.502155,0.978178,0.288276,0.26482,0.113431,0.681963,0.451501,0.2749,0.203855,0.07413,0.854763,0.435387,0.533752,0.225595,0.06507,1.133295,0.697259,0.873826,0.376913,0.137958,2.369958,0.986959,1.16109,0.309216,0.174061,1.1375,0.609899,1.120765,0.266421,0.13223,1.506981,0.741346,1.073382,0.212191,0.095564
1725715960.837186,1725715960.839311,53.0,0.0,4281.922852,4279.487305,4363.846191,4283.077148,4281.025879,4199.487305,4283.205078,4261.922852,4261.666504,4248.846191,4476.025879,4527.436035,4357.563965,4415.641113,0.0,1.0,15.0,,,,0.0,4.0,4.0,4.0,4.0,4.0,4.0,4.0,4.0,4.0,4.0,4.0,4.0,4.0,4.0,100.0,,,,,,,,,,,,,,,,,,,,,,,,,,,,,,,,,,,,,,,,,,,,,,,,,,,,,,,,,,,,,,,,,,,,,,,,,,,,,,,,,,,,,,,,,,,,,,,,,,,,,,,,,,,,,,,,,,,,,,,,,,,,,,,,,,,
1725715960.84109,1725715960.843115,54.0,0.0,4281.794922,4281.025879,4366.538574,4284.102539,4279.871582,4203.461426,4282.820313,4263.589844,4262.94873,4249.230957,4482.307617,4532.820313,4361.794922,4418.205078,0.0,1.0,15.0,,,,0.0,4.0,4.0,4.0,4.0,4.0,4.0,4.0,4.0,4.0,4.0,4.0,4.0,4.0,4.0,100.0,,,,,,,,,,,,,,,,,,,,,,,,,,,,,,,,,,,,,,,,,,,,,,,,,,,,,,,,,,,,,,,,,,,,,,,,,,,,,,,,,,,,,,,,,,,,,,,,,,,,,,,,,,,,,,,,,,,,,,,,,,,,,,,,,,,
1725715960.844994,1725715960.847019,55.0,0.0,4280.641113,4280.512695,4367.820313,4281.794922,4278.205078,4204.615234,4282.05127,4265.128418,4264.102539,4248.974121,4482.692383,4535.641113,4364.871582,4417.692383,0.0,1.0,15.0,,,,0.0,4.0,4.0,4.0,4.0,4.0,4.0,4.0,4.0,4.0,4.0,4.0,4.0,4.0,4.0,100.0,,,,,,,,,,,,,,,,,,,,,,,,,,,,,,,,,,,,,,,,,,,,,,,,,,,,,,,,,,,,,,,,,,,,,,,,,,,,,,,,,,,,,,,,,,,,,,,,,,,,,,,,,,,,,,,,,,,,,,,,,,,,,,,,,,,
1725715960.848898,1725715960.850923,56.0,0.0,4278.974121,4278.589844,4366.153809,4277.692383,4277.94873,4202.692383,4281.922852,4265.384766,4263.461426,4247.563965,4474.230957,4532.692383,4363.974121,4413.589844,0.0,1.0,15.0,,,,0.0,4.0,4.0,4.0,4.0,4.0,4.0,4.0,4.0,4.0,4.0,4.0,4.0,4.0,4.0,100.0,,,,,,,,,,,,,,,,,,,,,,,,,,,,,,,,,,,,,,,,,,,,,,,,,,,,,,,,,,,,,,,,,,,,,,,,,,,,,,,,,,,,,,,,,,,,,,,,,,,,,,,,,,,,,,,,,,,,,,,,,,,,,,,,,,,
1725715960.852802,1725715960.854927,57.0,0.0,4277.692383,4277.436035,4362.05127,4274.487305,4280.256348,4199.358887,4283.589844,4264.615234,4261.282227,4245.384766,4461.282227,4525.0,4358.846191,4407.692383,0.0,1.0,15.0,,,,0.0,4.0,4.0,4.0,4.0,4.0,4.0,4.0,4.0,4.0,4.0,4.0,4.0,4.0,4.0,100.0,,,,,,,,,,,,,,,,,,,,,,,,,,,,,,,,,,,,,,,,,,,,,,,,,,,,,,,,,,,,,,,,,,,,,,,,,,,,,,,,,,,,,,,,,,,,,,,,,,,,,,,,,,,,,,,,,,,,,,,,,,,,,,,,,,,
1725715960.856706,1725715960.858831,58.0,0.0,4277.563965,4278.461426,4357.820313,4274.230957,4284.230957,4197.436035,4287.307617,4264.230957,4258.846191,4243.205078,4452.94873,4517.436035,4352.05127,4403.461426,0.0,1.0,15.0,,,,0.0,4.0,4.0,4.0,4.0,4.0,4.0,4.0,4.0,4.0,4.0,4.0,4.0,4.0,4.0,100.0,,,,,,,,,,,,,,,,,,,,,,,,,,,,,,,,,,,,,,,,,,,,,,,,,,,,,,,,,,,,,,,,,,,,,,,,,,,,,,,,,,,,,,,,,,,,,,,,,,,,,,,,,,,,,,,,,,,,,,,,,,,,,,,,,,,
1725715960.86061,1725715960.862735,59.0,0.0,4278.077148,4281.666504,4356.282227,4276.794922,4287.692383,4197.820313,4291.666504,4265.641113,4258.205078,4242.179688,4455.128418,4514.487305,4347.436035,4403.461426,0.0,1.0,15.0,,,,0.0,4.0,4.0,4.0,4.0,4.0,4.0,4.0,4.0,4.0,4.0,4.0,4.0,4.0,4.0,100.0,,,,,,,,,,,,,,,,,,,,,,,,,,,,,,,,,,,,,,,,,,,,,,,,,,,,,,,,,,,,,,,,,,,,,,,,,,,,,,,,,,,,,,,,,,,,,,,,,,,,,,,,,,,,,,,,,,,,,,,,,,,,,,,,,,,
1725715960.864514,1725715960.866739,60.0,0.0,4278.717773,4285.256348,4358.205078,4280.384766,4288.846191,4199.615234,4294.871582,4269.358887,4259.871582,4243.333496,4465.897461,4517.94873,4347.692383,4407.307617,0.0,1.0,15.0,,,,0.0,4.0,4.0,4.0,4.0,4.0,4.0,4.0,4.0,4.0,4.0,4.0,4.0,4.0,4.0,100.0,,,,,,,,,,,,,,,,,,,,,,,,,,,,,,,,,,,,,,,,,,,,,,,,,,,,,,,,0.0,0.0,1.0,0.0,1.0,0.0,,,,,,,,,,,,,,,,,,,,,,,,,,,,,,,,,,,,,,,,,,,,,,,,,,,,,,,,,,,,,,,,,,,,,,
1725715960.868418,1725715960.870643,61.0,0.0,4279.358887,4287.436035,4362.307617,4282.436035,4287.179688,4200.769043,4295.897461,4274.102539,4262.94873,4246.025879,4476.410156,4525.769043,4352.179688,4412.436035,0.0,1.0,15.0,,,,0.0,4.0,4.0,4.0,4.0,4.0,4.0,4.0,4.0,4.0,4.0,4.0,4.0,4.0,4.0,100.0,,,,,,,,,,,,,,,,,,,,,,,,,,,,,,,,,,,,,,,,,,,,,,,,,,,,,,,,,,,,,,,,,,,,,,,,,,,,,,,,,,,,,,,,,,,,,,,,,,,,,,,,,,,,,,,,,,,,,,,,,,,,,,,,,,,
1725715960.872322,1725715960.874548,62.0,0.0,4280.384766,4287.563965,4366.538574,4281.410156,4284.358887,4200.769043,4295.128418,4278.461426,4265.769043,4248.974121,4478.846191,4534.102539,4356.666504,4415.512695,0.0,1.0,15.0,,,,0.0,4.0,4.0,4.0,4.0,4.0,4.0,4.0,4.0,4.0,4.0,4.0,4.0,4.0,4.0,100.0,,,,,,,,,,,,,,,,,,,,,,,,,,,,,,,,,,,,,,,,,,,,,,,,,,,,,,,,,,,,,,,,,,,,,,,,,,,,,,,,,,,,,,,,,,,,,,,,,,,,,,,,,,,,,,,,,,,,,,,,,,,,,,,,,,,
1725715960.876227,1725715960.878452,63.0,0.0,4281.922852,4286.410156,4369.102539,4278.461426,4282.820313,4200.641113,4293.846191,4281.025879,4267.05127,4250.384766,4471.922852,4539.230957,4357.307617,4414.743652,0.0,1.0,15.0,,,,0.0,4.0,4.0,4.0,4.0,4.0,4.0,4.0,4.0,4.0,4.0,4.0,4.0,4.0,4.0,100.0,,,,,,,,,,,,,,,,,,,,,,,,,,,,,,,,,,,,,,,,,,,,,,,,,,,,,,,,,,,,,,,,,,,,,,,,,,,,,,,,,,,,,,,,,,,,,,,,,,,,,,,,,,,,,,,,,,,,,,,,,,,,,,,,,,,
1725715960.880131,1725715960.882356,64.0,0.0,4282.820313,4285.256348,4369.102539,4276.153809,4283.974121,4202.179688,4293.333496,4282.05127,4266.922852,4249.743652,4461.538574,4539.102539,4353.077148,4411.153809,0.0,1.0,15.0,,,,0.0,4.0,4.0,4.0,4.0,4.0,4.0,4.0,4.0,4.0,4.0,4.0,4.0,4.0,4.0,100.0,,,,,,,,,,,,,,,,,,,,,,,,,,,,,,,,,,,,,,,,,,,,,,,,,,,,,,,,,,,,,,,,,,,,,,,,,,,,,,,,,,,,,,,,,,,,,,,,,,,,,,,,,,,,,,,,,,,,,,,,,,,,,,,,,,,
1725715960.884035,1725715960.88626,65.0,0.0,4282.05127,4285.512695,4367.179688,4276.538574,4286.922852,4206.025879,4294.358887,4281.666504,4266.410156,4247.820313,4455.897461,4534.743652,4347.94873,4407.692383,0.0,1.0,15.0,,,,0.0,4.0,4.0,4.0,4.0,4.0,4.0,4.0,4.0,4.0,4.0,4.0,4.0,4.0,4.0,100.0,,,,,,,,,,,,,,,,,,,,,,,,,,,,,,,,,,,,,,,,,,,,,,,,,,,,,,,,,,,,,,,,,,,,,,,,,,,,,,,,,,,,,,,,,,,,,,,,,,,,,,,,,,,,,,,,,,,,,,,,,,,,,,,,,,,
1725715960.887939,1725715960.890064,66.0,0.0,4279.230957,4287.307617,4365.128418,4278.846191,4289.358887,4211.282227,4296.410156,4280.641113,4266.153809,4246.282227,4459.102539,4528.846191,4346.922852,4406.794922,0.0,1.0,15.0,,,,0.0,4.0,4.0,4.0,4.0,4.0,4.0,4.0,4.0,4.0,4.0,4.0,4.0,4.0,4.0,100.0,,,,,,,,,,,,,,,,,,,,,,,,,,,,,,,,,,,,,,,,,,,,,,,,,,,,,,,,,,,,,,,,,,,,,,,,,,,,,,,,,,,,,,,,,,,,,,,,,,,,,,,,,,,,,,,,,,,,,,,,,,,,,,,,,,,
1725715960.891843,1725715960.893968,67.0,0.0,4275.769043,4289.615234,4364.743652,4279.871582,4289.743652,4215.769043,4298.846191,4280.256348,4265.897461,4246.282227,4468.589844,4525.0,4352.179688,4409.487305,0.0,1.0,15.0,,,,0.0,4.0,4.0,4.0,4.0,4.0,4.0,4.0,4.0,4.0,4.0,4.0,4.0,4.0,4.0,100.0,,,,,,,,,,,,,,,,,,,,,,,,,,,,,,,,,,,,,,,,,,,,,,,,,,,,,,,,,,,,,,,,,,,,,,,,,,,,,,,,,,,,,,,,,,,,,,,,,,,,,,,,,,,,,,,,,,,,,,,,,,,,,,,,,,,
1725715960.895747,1725715960.897972,68.0,0.0,4273.589844,4290.769043,4366.666504,4277.05127,4287.94873,4217.94873,4301.153809,4281.410156,4265.512695,4247.563965,4478.333496,4525.641113,4361.025879,4413.717773,0.0,1.0,15.0,,,,0.0,4.0,4.0,4.0,4.0,4.0,4.0,4.0,4.0,4.0,4.0,4.0,4.0,4.0,4.0,100.0,,,,,,,,,,,,,,,,,,,,,,,,,,,,,,,,,,,,,,,,,,,,,,,,,,,,,,,,0.0,0.0,1.0,0.0,1.0,0.0,,,,,,,,,,,,,,,,,,,,,,,,,,,,,,,,,,,,,,,,,,,,,,,,,,,,,,,,,,,,,,,,,,,,,,
1725715960.899651,1725715960.901876,69.0,0.0,4273.589844,4289.102539,4370.128418,4270.897461,4285.897461,4217.436035,4303.461426,4283.846191,4265.256348,4248.846191,4483.461426,4531.025879,4368.333496,4417.179688,0.0,1.0,15.0,,,,0.0,4.0,4.0,4.0,4.0,4.0,4.0,4.0,4.0,4.0,4.0,4.0,4.0,4.0,4.0,100.0,,,,,,,,,,,,,,,,,,,,,,,,,,,,,,,,,,,,,,,,,,,,,,,,,,,,,,,,,,,,,,,,,,,,,,,,,,,,,,,,,,,,,,,,,,,,,,,,,,,,,,,,,,,,,,,,,,,,,,,,,,,,,,,,,,,
1725715960.903555,1725715960.90578,70.0,0.0,4275.384766,4285.128418,4373.333496,4265.0,4285.256348,4215.769043,4305.641113,4285.128418,4265.897461,4248.974121,4483.333496,4538.461426,4370.512695,4417.692383,0.0,1.0,15.0,,,,0.0,4.0,4.0,4.0,4.0,4.0,4.0,4.0,4.0,4.0,4.0,4.0,4.0,4.0,4.0,100.0,,,,,,,,,,,,,,,,,,,,,,,,,,,,,,,,,,,,,,,,,,,,,,,,,,,,,,,,,,,,,,,,,,,,,,,,,,,,,,,,,,,,,,,,,,,,,,,,,,,,,,,,,,,,,,,,,,,,,,,,,,,,,,,,,,,
1725715960.907459,1725715960.909684,71.0,0.0,4277.436035,4280.641113,4374.743652,4262.692383,4286.794922,4214.615234,4307.179688,4283.333496,4266.410156,4247.563965,4479.743652,4543.333496,4367.563965,4415.512695,0.0,1.0,15.0,,,,0.0,4.0,4.0,4.0,4.0,4.0,4.0,4.0,4.0,4.0,4.0,4.0,4.0,4.0,4.0,100.0,,,,,,,,,,,,,,,,,,,,,,,,,,,,,,,,,,,,,,,,,,,,,,,,,,,,,,,,,,,,,,,,,,,,,,,,,,,,,,,,,,,,,,,,,,,,,,,,,,,,,,,,,,,,,,,,,,,,,,,,,,,,,,,,,,,
1725715960.911363,1725715960.913589,72.0,0.0,4278.589844,4278.205078,4374.358887,4265.641113,4289.487305,4215.256348,4308.077148,4277.94873,4265.128418,4245.384766,4475.769043,4543.077148,4363.077148,4412.94873,0.0,1.0,15.0,,,,0.0,4.0,4.0,4.0,4.0,4.0,4.0,4.0,4.0,4.0,4.0,4.0,4.0,4.0,4.0,100.0,,,,,,,,,,,,,,,,,,,,,,,,,,,,,,,,,,,,,,,,,,,,,,,,,,,,,,,,,,,,,,,,,,,,,,,,,,,,,,,,,,,,,,,,,,,,,,,,,,,,,,,,,,,,,,,,,,,,,,,,,,,,,,,,,,,
1725715960.915268,1725715960.917393,73.0,0.0,4278.589844,4279.358887,4373.333496,4271.922852,4292.307617,4216.794922,4308.974121,4270.641113,4261.025879,4244.102539,4473.717773,4539.230957,4361.153809,4412.436035,0.0,1.0,15.0,,,,0.0,4.0,4.0,4.0,4.0,4.0,4.0,4.0,4.0,4.0,4.0,4.0,4.0,4.0,4.0,100.0,,,,,,,,,,,,,,,,,,,,,,,,,,,,,,,,,,,,,,,,,,,,,,,,,,,,,,,,,,,,,,,,,,,,,,,,,,,,,,,,,,,,,,,,,,,,,,,,,,,,,,,,,,,,,,,,,,,,,,,,,,,,,,,,,,,
1725715960.919172,1725715960.921297,74.0,0.0,4278.461426,4283.717773,4372.820313,4278.205078,4294.487305,4217.820313,4310.512695,4264.358887,4255.897461,4244.230957,4474.871582,4535.512695,4362.94873,4415.0,0.0,1.0,15.0,,,,0.0,4.0,4.0,4.0,4.0,4.0,4.0,4.0,4.0,4.0,4.0,4.0,4.0,4.0,4.0,100.0,,,,,,,,,,,,,,,,,,,,,,,,,,,,,,,,,,,,,,,,,,,,,,,,,,,,,,,,,,,,,,,,,,,,,,,,,,,,,,,,,,,,,,,,,,,,,,,,,,,,,,,,,,,,,,,,,,,,,,,,,,,,,,,,,,,
1725715960.923076,1725715960.925201,75.0,0.0,4278.846191,4288.717773,4373.333496,4281.666504,4295.512695,4217.692383,4312.94873,4261.025879,4252.179688,4245.256348,4478.846191,4535.0,4366.538574,4418.846191,0.0,1.0,15.0,,,,0.0,4.0,4.0,4.0,4.0,4.0,4.0,4.0,4.0,4.0,4.0,4.0,4.0,4.0,4.0,100.0,,,,,,,,,,,,,,,,,,,,,,,,,,,,,,,,,,,,,,,,,,,,,,,,,,,,,,,,,,,,,,,,,,,,,,,,,,,,,,,,,,,,,,,,,,,,,,,,,,,,,,,,,,,,,,,,,,,,,,,,,,,,,,,,,,,
1725715960.92698,1725715960.929105,76.0,0.0,4279.230957,4290.512695,4374.358887,4281.282227,4295.384766,4217.179688,4315.641113,4260.512695,4252.179688,4246.153809,4483.589844,4537.692383,4368.461426,4421.282227,0.0,1.0,15.0,,,,0.0,4.0,4.0,4.0,4.0,4.0,4.0,4.0,4.0,4.0,4.0,4.0,4.0,4.0,4.0,100.0,,,,,,,,,,,,,,,,,,,,,,,,,,,,,,,,,,,,,,,,,,,,,,,,,,,,,,,,0.0,0.0,1.0,0.0,1.0,0.0,,,,,,,,,,,,,,,,,,,,,,,,,,,,,,,,,,,,,,,,,,,,,,,,,,,,,,,,,,,,,,,,,,,,,,
1725715960.930884,1725715960.932909,77.0,0.0,4278.717773,4287.179688,4374.615234,4278.717773,4294.230957,4216.794922,4318.333496,4261.538574,4255.641113,4246.410156,4487.179688,4541.410156,4366.922852,4420.641113,0.0,1.0,15.0,,,,0.0,4.0,4.0,4.0,4.0,4.0,4.0,4.0,4.0,4.0,4.0,4.0,4.0,4.0,4.0,100.0,,,,,,,,,,,,,,,,,,,,,,,,,,,,,,,,,,,,,,,,,,,,,,,,,,,,,,,,,,,,,,,,,,,,,,,,,,,,,,,,,,,,,,,,,,,,,,,,,,,,,,,,,,,,,,,,,,,,,,,,,,,,,,,,,,,
1725715960.934788,1725715960.936813,78.0,0.0,4277.05127,4280.641113,4374.358887,4276.538574,4292.179688,4216.922852,4320.512695,4263.461426,4260.512695,4246.922852,4488.589844,4544.102539,4363.846191,4418.846191,0.0,1.0,15.0,,,,0.0,4.0,4.0,4.0,4.0,4.0,4.0,4.0,4.0,4.0,4.0,4.0,4.0,4.0,4.0,100.0,,,,,,,,,,,,,,,,,,,,,,,,,,,,,,,,,,,,,,,,,,,,,,,,,,,,,,,,,,,,,,,,,,,,,,,,,,,,,,,,,,,,,,,,,,,,,,,,,,,,,,,,,,,,,,,,,,,,,,,,,,,,,,,,,,,
1725715960.938692,1725715960.940718,79.0,0.0,4275.384766,4275.769043,4374.487305,4276.282227,4290.512695,4216.794922,4322.05127,4266.282227,4264.743652,4248.974121,4489.615234,4545.641113,4363.205078,4419.358887,0.0,1.0,15.0,,,,0.0,4.0,4.0,4.0,4.0,4.0,4.0,4.0,4.0,4.0,4.0,4.0,4.0,4.0,4.0,100.0,,,,,,,,,,,,,,,,,,,,,,,,,,,,,,,,,,,,,,,,,,,,,,,,,,,,,,,,,,,,,,,,,,,,,,,,,,,,,,,,,,,,,,,,,,,,,,,,,,,,,,,,,,,,,,,,,,,,,,,,,,,,,,,,,,,
1725715960.942596,1725715960.944722,80.0,0.0,4275.256348,4276.666504,4375.897461,4277.692383,4289.615234,4216.153809,4323.461426,4271.025879,4268.077148,4253.077148,4492.94873,4548.077148,4367.563965,4424.230957,0.0,1.0,15.0,,,,0.0,4.0,4.0,4.0,4.0,4.0,4.0,4.0,4.0,4.0,4.0,4.0,4.0,4.0,4.0,100.0,,,,,,,,,,,,,,,,,,,,,,,,,,,,,,,,,,,,,,,,,,,,,,,,,,,,,,,,,,,,,,,,,,,,,,,,,,,,,,,,,,,,,,,,,,,,,,,,,,,,,,,,,,,,,,,,,,,,,,,,,,,,,,,,,,,
1725715960.9465,1725715960.948626,81.0,0.0,4277.307617,4282.307617,4378.589844,4279.615234,4289.871582,4215.256348,4325.256348,4277.436035,4271.410156,4258.589844,4499.615234,4552.436035,4375.897461,4431.794922,0.0,1.0,15.0,,,,0.0,4.0,4.0,4.0,4.0,4.0,4.0,4.0,4.0,4.0,4.0,4.0,4.0,4.0,4.0,100.0,,,,,,,,,,,,,,,,,,,,,,,,,,,,,,,,,,,,,,,,,,,,,,,,,,,,,,,,,,,,,,,,,,,,,,,,,,,,,,,,,,,,,,,,,,,,,,,,,,,,,,,,,,,,,,,,,,,,,,,,,,,,,,,,,,,
1725715960.950405,1725715960.95253,82.0,0.0,4279.743652,4288.333496,4381.282227,4280.512695,4290.769043,4215.128418,4327.692383,4283.589844,4275.128418,4263.974121,4507.436035,4557.436035,4384.230957,4437.820313,0.0,1.0,15.0,,,,0.0,4.0,4.0,4.0,4.0,4.0,4.0,4.0,4.0,4.0,4.0,4.0,4.0,4.0,4.0,100.0,,,,,,,,,,,,,,,,,,,,,,,,,,,,,,,,,,,,,,,,,,,,,,,,,,,,,,,,,,,,,,,,,,,,,,,,,,,,,,,,,,,,,,,,,,,,,,,,,,,,,,,,,,,,,,,,,,,,,,,,,,,,,,,,,,,
1725715960.954309,1725715960.956434,83.0,0.0,4279.743652,4290.128418,4382.436035,4280.128418,4291.922852,4216.282227,4329.615234,4286.794922,4278.846191,4267.692383,4511.538574,4559.743652,4388.205078,4438.717773,0.0,1.0,15.0,,,,0.0,4.0,4.0,4.0,4.0,4.0,4.0,4.0,4.0,4.0,4.0,4.0,4.0,4.0,4.0,100.0,,,,,,,,,,,,,,,,,,,,,,,,,,,,,,,,,,,,,,,,,,,,,,,,,,,,,,,,,,,,,,,,,,,,,,,,,,,,,,,,,,,,,,,,,,,,,,,,,,,,,,,,,,,,,,,,,,,,,,,,,,,,,,,,,,,
1725715960.958213,1725715960.960438,84.0,0.0,4275.897461,4286.538574,4380.769043,4279.102539,4292.94873,4217.94873,4330.0,4285.897461,4280.512695,4268.589844,4508.333496,4557.307617,4386.666504,4433.717773,0.0,1.0,15.0,,,,0.0,4.0,4.0,4.0,4.0,4.0,4.0,4.0,4.0,4.0,4.0,4.0,4.0,4.0,4.0,100.0,,,,,,,,,,,,,,,,,1.0,0.0,0.0,,,,,,,,,,,,,,,,,,,,,,,,,,,,,,,,,,,,,0.0,0.0,1.0,0.0,1.0,0.0,1.561958,0.698804,0.775857,0.216468,0.047925,1.083974,0.413556,0.433473,0.110508,0.040466,0.824191,0.397713,0.583435,0.111809,0.045154,1.987983,1.321789,0.879219,0.196431,0.058818,0.502913,0.236807,0.204158,0.064051,0.047668,1.15291,0.387959,0.565736,0.104004,0.049074,1.630678,0.354387,0.193852,0.097842,0.099015,0.620447,0.86315,0.219185,0.242138,0.118628,0.776852,0.478308,0.28035,0.205096,0.073673,0.858578,0.45712,0.392916,0.20281,0.063766,1.397373,0.719308,0.670005,0.394511,0.15238,2.453052,0.932244,0.894928,0.357405,0.175324,1.356635,0.615678,0.8559,0.270916,0.134778,1.586785,0.717219,0.812428,0.228853,0.098334
1725715960.962117,1725715960.964342,85.0,0.0,4269.358887,4280.384766,4376.538574,4278.717773,4292.94873,4218.974121,4329.102539,4282.436035,4278.717773,4266.666504,4499.358887,4551.282227,4381.410156,4426.153809,0.0,1.0,15.0,,,,0.0,4.0,4.0,4.0,4.0,4.0,4.0,4.0,4.0,4.0,4.0,4.0,4.0,4.0,4.0,100.0,,,,,,,,,,,,,,,,,,,,,,,,,,,,,,,,,,,,,,,,,,,,,,,,,,,,,,,,,,,,,,,,,,,,,,,,,,,,,,,,,,,,,,,,,,,,,,,,,,,,,,,,,,,,,,,,,,,,,,,,,,,,,,,,,,,
1725715960.966021,1725715960.968246,86.0,0.0,4264.102539,4276.282227,4371.666504,4279.358887,4291.922852,4219.230957,4327.692383,4278.846191,4273.717773,4262.05127,4490.0,4544.743652,4375.512695,4420.256348,0.0,1.0,15.0,,,,0.0,4.0,4.0,4.0,4.0,4.0,4.0,4.0,4.0,4.0,4.0,4.0,4.0,4.0,4.0,100.0,,,,,,,,,,,,,,,,,,,,,,,,,,,,,,,,,,,,,,,,,,,,,,,,,,,,,,,,,,,,,,,,,,,,,,,,,,,,,,,,,,,,,,,,,,,,,,,,,,,,,,,,,,,,,,,,,,,,,,,,,,,,,,,,,,,
1725715960.969925,1725715960.97215,87.0,0.0,4263.589844,4276.410156,4368.333496,4280.641113,4290.128418,4218.717773,4326.538574,4277.179688,4267.94873,4256.282227,4485.512695,4540.384766,4371.153809,4418.077148,0.0,1.0,15.0,,,,0.0,4.0,4.0,4.0,4.0,4.0,4.0,4.0,4.0,4.0,4.0,4.0,4.0,4.0,4.0,100.0,,,,,,,,,,,,,,,,,,,,,,,,,,,,,,,,,,,,,,,,,,,,,,,,,,,,,,,,,,,,,,,,,,,,,,,,,,,,,,,,,,,,,,,,,,,,,,,,,,,,,,,,,,,,,,,,,,,,,,,,,,,,,,,,,,,
1725715960.973829,1725715960.975954,88.0,0.0,4267.820313,4279.743652,4367.563965,4281.410156,4287.94873,4217.563965,4326.153809,4277.820313,4264.487305,4251.153809,4487.05127,4539.358887,4367.820313,4417.692383,0.0,1.0,15.0,,,,0.0,4.0,4.0,4.0,4.0,4.0,4.0,4.0,4.0,4.0,4.0,4.0,4.0,4.0,4.0,100.0,,,,,,,,,,,,,,,,,,,,,,,,,,,,,,,,,,,,,,,,,,,,,,,,,,,,,,,,,,,,,,,,,,,,,,,,,,,,,,,,,,,,,,,,,,,,,,,,,,,,,,,,,,,,,,,,,,,,,,,,,,,,,,,,,,,
1725715960.977733,1725715960.979858,89.0,0.0,4274.102539,4282.563965,4368.974121,4280.769043,4286.153809,4216.025879,4325.897461,4279.487305,4264.871582,4248.333496,4491.153809,4540.512695,4364.358887,4416.025879,0.0,1.0,15.0,,,,0.0,4.0,4.0,4.0,4.0,4.0,4.0,4.0,4.0,4.0,4.0,4.0,4.0,4.0,4.0,100.0,,,,,,,,,,,,,,,,,,,,,,,,,,,,,,,,,,,,,,,,,,,,,,,,,,,,,,,,,,,,,,,,,,,,,,,,,,,,,,,,,,,,,,,,,,,,,,,,,,,,,,,,,,,,,,,,,,,,,,,,,,,,,,,,,,,
1725715960.981637,1725715960.983763,90.0,0.0,4278.333496,4281.922852,4371.282227,4279.358887,4285.256348,4215.384766,4325.256348,4280.897461,4267.563965,4249.230957,4493.205078,4541.666504,4361.025879,4412.05127,0.0,1.0,15.0,,,,0.0,4.0,4.0,4.0,4.0,4.0,4.0,4.0,4.0,4.0,4.0,4.0,4.0,4.0,4.0,100.0,,,,,,,,,,,,,,,,,,,,,,,,,,,,,,,,,,,,,,,,,,,,,,,,,,,,,,,,,,,,,,,,,,,,,,,,,,,,,,,,,,,,,,,,,,,,,,,,,,,,,,,,,,,,,,,,,,,,,,,,,,,,,,,,,,,
1725715960.985541,1725715960.987667,91.0,0.0,4279.487305,4278.717773,4373.077148,4278.717773,4286.025879,4216.794922,4324.358887,4280.897461,4270.128418,4254.102539,4491.794922,4541.794922,4360.384766,4408.974121,0.0,1.0,15.0,,,,0.0,4.0,4.0,4.0,4.0,4.0,4.0,4.0,4.0,4.0,4.0,4.0,4.0,4.0,4.0,100.0,,,,,,,,,,,,,,,,,,,,,,,,,,,,,,,,,,,,,,,,,,,,,,,,,,,,,,,,,,,,,,,,,,,,,,,,,,,,,,,,,,,,,,,,,,,,,,,,,,,,,,,,,,,,,,,,,,,,,,,,,,,,,,,,,,,
1725715960.989446,1725715960.991471,92.0,0.0,4279.102539,4276.922852,4373.974121,4280.641113,4288.846191,4220.769043,4324.358887,4279.487305,4270.897461,4261.153809,4489.487305,4541.410156,4364.487305,4410.512695,0.0,1.0,15.0,,,,0.0,4.0,4.0,4.0,4.0,4.0,4.0,4.0,4.0,4.0,4.0,4.0,4.0,4.0,4.0,100.0,,,,,,,,,,,,,,,,,,,,,,,,,,,,,,,,,,,,,,,,,,,,,,,,,,,,,,,,0.0,0.0,1.0,0.0,1.0,0.0,,,,,,,,,,,,,,,,,,,,,,,,,,,,,,,,,,,,,,,,,,,,,,,,,,,,,,,,,,,,,,,,,,,,,,
1725715960.99335,1725715960.995375,93.0,0.0,4280.384766,4279.487305,4373.974121,4285.512695,4293.077148,4226.025879,4325.641113,4276.666504,4270.128418,4266.666504,4488.974121,4541.410156,4372.307617,4416.794922,0.0,1.0,15.0,,,,0.0,4.0,4.0,4.0,4.0,4.0,4.0,4.0,4.0,4.0,4.0,4.0,4.0,4.0,4.0,100.0,,,,,,,,,,,,,,,,,,,,,,,,,,,,,,,,,,,,,,,,,,,,,,,,,,,,,,,,,,,,,,,,,,,,,,,,,,,,,,,,,,,,,,,,,,,,,,,,,,,,,,,,,,,,,,,,,,,,,,,,,,,,,,,,,,,
1725715960.997254,1725715960.999279,94.0,0.0,4283.846191,4285.128418,4373.077148,4291.666504,4296.538574,4230.641113,4327.05127,4272.94873,4268.077148,4267.05127,4490.256348,4541.538574,4378.461426,4423.589844,0.0,1.0,15.0,,,,0.0,4.0,4.0,4.0,4.0,4.0,4.0,4.0,4.0,4.0,4.0,4.0,4.0,4.0,4.0,100.0,,,,,,,,,,,,,,,,,,,,,,,,,,,,,,,,,,,,,,,,,,,,,,,,,,,,,,,,,,,,,,,,,,,,,,,,,,,,,,,,,,,,,,,,,,,,,,,,,,,,,,,,,,,,,,,,,,,,,,,,,,,,,,,,,,,
1725715961.001158,1725715961.003283,95.0,0.0,4287.307617,4290.0,4371.922852,4296.282227,4297.563965,4232.692383,4327.436035,4268.461426,4265.256348,4261.794922,4490.897461,4540.769043,4378.461426,4425.384766,0.0,1.0,15.0,,,,0.0,4.0,4.0,4.0,4.0,4.0,4.0,4.0,4.0,4.0,4.0,4.0,4.0,4.0,4.0,100.0,,,,,,,,,,,,,,,,,,,,,,,,,,,,,,,,,,,,,,,,,,,,,,,,,,,,,,,,,,,,,,,,,,,,,,,,,,,,,,,,,,,,,,,,,,,,,,,,,,,,,,,,,,,,,,,,,,,,,,,,,,,,,,,,,,,
1725715961.005062,1725715961.007187,96.0,0.0,4287.692383,4290.769043,4371.538574,4297.820313,4296.282227,4231.922852,4325.897461,4264.102539,4262.563965,4254.487305,4488.974121,4538.461426,4372.692383,4421.153809,0.0,1.0,15.0,,,,0.0,4.0,4.0,4.0,4.0,4.0,4.0,4.0,4.0,4.0,4.0,4.0,4.0,4.0,4.0,100.0,,,,,,,,,,,,,,,,,,,,,,,,,,,,,,,,,,,,,,,,,,,,,,,,,,,,,,,,,,,,,,,,,,,,,,,,,,,,,,,,,,,,,,,,,,,,,,,,,,,,,,,,,,,,,,,,,,,,,,,,,,,,,,,,,,,
1725715961.008966,1725715961.011091,97.0,0.0,4284.230957,4288.077148,4372.307617,4296.794922,4294.102539,4229.871582,4322.94873,4261.666504,4262.307617,4250.256348,4485.512695,4536.666504,4366.410156,4414.743652,0.0,1.0,15.0,,,,0.0,4.0,4.0,4.0,4.0,4.0,4.0,4.0,4.0,4.0,4.0,4.0,4.0,4.0,4.0,100.0,,,,,,,,,,,,,,,,,,,,,,,,,,,,,,,,,,,,,,,,,,,,,,,,,,,,,,,,,,,,,,,,,,,,,,,,,,,,,,,,,,,,,,,,,,,,,,,,,,,,,,,,,,,,,,,,,,,,,,,,,,,,,,,,,,,
1725715961.01287,1725715961.014995,98.0,0.0,4278.589844,4285.512695,4373.974121,4295.384766,4292.436035,4228.461426,4320.0,4262.94873,4265.641113,4251.666504,4483.461426,4537.05127,4365.128418,4411.282227,0.0,1.0,15.0,,,,0.0,4.0,4.0,4.0,4.0,4.0,4.0,4.0,4.0,4.0,4.0,4.0,4.0,4.0,4.0,100.0,,,,,,,,,,,,,,,,,,,,,,,,,,,,,,,,,,,,,,,,,,,,,,,,,,,,,,,,,,,,,,,,,,,,,,,,,,,,,,,,,,,,,,,,,,,,,,,,,,,,,,,,,,,,,,,,,,,,,,,,,,,,,,,,,,,
1725715961.016774,1725715961.018899,99.0,0.0,4273.333496,4285.641113,4375.512695,4295.256348,4291.538574,4228.846191,4318.205078,4267.307617,4271.025879,4257.05127,4483.974121,4539.615234,4369.487305,4412.94873,0.0,1.0,15.0,,,,0.0,4.0,4.0,4.0,4.0,4.0,4.0,4.0,4.0,4.0,4.0,4.0,4.0,4.0,4.0,100.0,,,,,,,,,,,,,,,,,,,,,,,,,,,,,,,,,,,,,,,,,,,,,,,,,,,,,,,,,,,,,,,,,,,,,,,,,,,,,,,,,,,,,,,,,,,,,,,,,,,,,,,,,,,,,,,,,,,,,,,,,,,,,,,,,,,
1725715961.020678,1725715961.022704,100.0,0.0,4268.717773,4287.692383,4375.512695,4296.666504,4290.384766,4230.769043,4317.820313,4271.794922,4275.128418,4261.282227,4485.0,4541.538574,4374.358887,4416.666504,0.0,1.0,15.0,,,,0.0,4.0,4.0,4.0,4.0,4.0,4.0,4.0,4.0,4.0,4.0,4.0,4.0,4.0,4.0,100.0,,,,,,,,,,,,,,,,,,,,,,,,,,,,,,,,,,,,,,,,,,,,,,,,,,,,,,,,0.0,0.0,1.0,0.0,1.0,0.0,,,,,,,,,,,,,,,,,,,,,,,,,,,,,,,,,,,,,,,,,,,,,,,,,,,,,,,,,,,,,,,,,,,,,,
1725715961.024582,1725715961.026608,101.0,0.0,4263.846191,4289.102539,4373.974121,4298.717773,4288.205078,4232.692383,4318.461426,4274.102539,4274.871582,4260.512695,4483.461426,4539.358887,4374.102539,4417.820313,0.0,1.0,15.0,,,,0.0,4.0,4.0,4.0,4.0,4.0,4.0,4.0,4.0,4.0,4.0,4.0,4.0,4.0,4.0,100.0,,,,,,,,,,,,,,,,,,,,,,,,,,,,,,,,,,,,,,,,,,,,,,,,,,,,,,,,,,,,,,,,,,,,,,,,,,,,,,,,,,,,,,,,,,,,,,,,,,,,,,,,,,,,,,,,,,,,,,,,,,,,,,,,,,,
1725715961.028486,1725715961.030512,102.0,0.0,4258.077148,4287.94873,4372.05127,4299.871582,4284.743652,4232.94873,4319.102539,4273.717773,4270.256348,4254.487305,4479.230957,4532.820313,4366.794922,4414.102539,0.0,1.0,15.0,,,,0.0,4.0,4.0,4.0,4.0,4.0,4.0,4.0,4.0,4.0,4.0,4.0,4.0,4.0,4.0,100.0,,,,,,,,,,,,,,,,,,,,,,,,,,,,,,,,,,,,,,,,,,,,,,,,,,,,,,,,,,,,,,,,,,,,,,,,,,,,,,,,,,,,,,,,,,,,,,,,,,,,,,,,,,,,,,,,,,,,,,,,,,,,,,,,,,,
1725715961.03239,1725715961.034416,103.0,0.0,4252.692383,4284.487305,4370.897461,4299.487305,4281.025879,4231.922852,4319.230957,4272.179688,4264.230957,4246.922852,4474.871582,4525.897461,4356.922852,4407.436035,0.0,1.0,15.0,,,,0.0,4.0,4.0,4.0,4.0,4.0,4.0,4.0,4.0,4.0,4.0,4.0,4.0,4.0,4.0,100.0,,,,,,,,,,,,,,,,,,,,,,,,,,,,,,,,,,,,,,,,,,,,,,,,,,,,,,,,,,,,,,,,,,,,,,,,,,,,,,,,,,,,,,,,,,,,,,,,,,,,,,,,,,,,,,,,,,,,,,,,,,,,,,,,,,,
1725715961.036295,1725715961.03822,104.0,0.0,4249.743652,4281.025879,4370.769043,4298.205078,4278.461426,4230.384766,4319.102539,4271.025879,4260.897461,4242.307617,4474.358887,4523.333496,4351.282227,4402.563965,0.0,1.0,15.0,,,,0.0,4.0,4.0,4.0,4.0,4.0,4.0,4.0,4.0,4.0,4.0,4.0,4.0,4.0,4.0,100.0,,,,,,,,,,,,,,,,,,,,,,,,,,,,,,,,,,,,,,,,,,,,,,,,,,,,,,,,,,,,,,,,,,,,,,,,,,,,,,,,,,,,,,,,,,,,,,,,,,,,,,,,,,,,,,,,,,,,,,,,,,,,,,,,,,,
1725715961.040199,1725715961.042124,105.0,0.0,4250.256348,4279.102539,4371.794922,4297.692383,4277.692383,4230.128418,4319.102539,4270.769043,4261.922852,4242.94873,4478.589844,4527.179688,4354.102539,4403.333496,0.0,1.0,15.0,,,,0.0,4.0,4.0,4.0,4.0,4.0,4.0,4.0,4.0,4.0,4.0,4.0,4.0,4.0,4.0,100.0,,,,,,,,,,,,,,,,,,,,,,,,,,,,,,,,,,,,,,,,,,,,,,,,,,,,,,,,,,,,,,,,,,,,,,,,,,,,,,,,,,,,,,,,,,,,,,,,,,,,,,,,,,,,,,,,,,,,,,,,,,,,,,,,,,,
1725715961.044103,1725715961.046028,106.0,0.0,4253.333496,4279.615234,4373.333496,4298.589844,4278.461426,4231.410156,4318.974121,4270.769043,4266.025879,4247.94873,4485.512695,4534.487305,4363.717773,4409.743652,0.0,1.0,15.0,,,,0.0,4.0,4.0,4.0,4.0,4.0,4.0,4.0,4.0,4.0,4.0,4.0,4.0,4.0,4.0,100.0,,,,,,,,,,,,,,,,,,,,,,,,,,,,,,,,,,,,,,,,,,,,,,,,,,,,,,,,,,,,,,,,,,,,,,,,,,,,,,,,,,,,,,,,,,,,,,,,,,,,,,,,,,,,,,,,,,,,,,,,,,,,,,,,,,,
1725715961.048007,1725715961.050032,107.0,0.0,4256.282227,4281.282227,4374.358887,4300.384766,4278.974121,4233.077148,4317.692383,4270.0,4270.256348,4253.589844,4490.641113,4539.615234,4373.717773,4416.922852,0.0,1.0,15.0,,,,0.0,4.0,4.0,4.0,4.0,4.0,4.0,4.0,4.0,4.0,4.0,4.0,4.0,4.0,4.0,100.0,,,,,,,,,,,,,,,,,,,,,,,,,,,,,,,,,,,,,,,,,,,,,,,,,,,,,,,,,,,,,,,,,,,,,,,,,,,,,,,,,,,,,,,,,,,,,,,,,,,,,,,,,,,,,,,,,,,,,,,,,,,,,,,,,,,
1725715961.051911,1725715961.053937,108.0,0.0,4256.538574,4282.307617,4373.589844,4301.538574,4277.94873,4233.974121,4315.0,4268.333496,4271.794922,4256.153809,4490.0,4538.077148,4376.794922,4418.589844,0.0,1.0,15.0,,,,0.0,4.0,4.0,4.0,4.0,4.0,4.0,4.0,4.0,4.0,4.0,4.0,4.0,4.0,4.0,100.0,,,,,,,,,,,,,,,,,,,,,,,,,,,,,,,,,,,,,,,,,,,,,,,,,,,,,,,,0.0,0.0,1.0,0.0,1.0,0.0,,,,,,,,,,,,,,,,,,,,,,,,,,,,,,,,,,,,,,,,,,,,,,,,,,,,,,,,,,,,,,,,,,,,,,
1725715961.055815,1725715961.057841,109.0,0.0,4253.846191,4281.410156,4370.384766,4301.538574,4276.410156,4233.589844,4311.666504,4266.666504,4269.871582,4253.846191,4483.461426,4530.512695,4371.153809,4412.692383,0.0,1.0,15.0,,,,0.0,4.0,4.0,4.0,4.0,4.0,4.0,4.0,4.0,4.0,4.0,4.0,4.0,4.0,4.0,100.0,,,,,,,,,,,,,,,,,,,,,,,,,,,,,,,,,,,,,,,,,,,,,,,,,,,,,,,,,,,,,,,,,,,,,,,,,,,,,,,,,,,,,,,,,,,,,,,,,,,,,,,,,,,,,,,,,,,,,,,,,,,,,,,,,,,
1725715961.059719,1725715961.061745,110.0,0.0,4250.128418,4278.974121,4365.897461,4300.641113,4275.641113,4232.820313,4309.615234,4265.769043,4266.282227,4248.077148,4475.256348,4522.436035,4360.897461,4403.077148,0.0,1.0,15.0,,,,0.0,4.0,4.0,4.0,4.0,4.0,4.0,4.0,4.0,4.0,4.0,4.0,4.0,4.0,4.0,100.0,,,,,,,,,,,,,,,,,,,,,,,,,,,,,,,,,,,,,,,,,,,,,,,,,,,,,,,,,,,,,,,,,,,,,,,,,,,,,,,,,,,,,,,,,,,,,,,,,,,,,,,,,,,,,,,,,,,,,,,,,,,,,,,,,,,
1725715961.063623,1725715961.065549,111.0,0.0,4248.077148,4276.410156,4362.94873,4299.615234,4276.794922,4232.820313,4309.743652,4265.897461,4263.846191,4242.179688,4470.897461,4519.358887,4352.94873,4396.282227,0.0,1.0,15.0,,,,0.0,4.0,4.0,4.0,4.0,4.0,4.0,4.0,4.0,4.0,4.0,4.0,4.0,4.0,4.0,100.0,,,,,,,,,,,,,,,,,,,,,,,,,,,,,,,,,,,,,,,,,,,,,,,,,,,,,,,,,,,,,,,,,,,,,,,,,,,,,,,,,,,,,,,,,,,,,,,,,,,,,,,,,,,,,,,,,,,,,,,,,,,,,,,,,,,
1725715961.067527,1725715961.069453,112.0,0.0,4248.589844,4273.846191,4363.333496,4298.717773,4278.333496,4233.205078,4311.025879,4266.538574,4264.102539,4238.461426,4472.05127,4522.179688,4350.256348,4395.256348,0.0,1.0,15.0,,,,0.0,4.0,4.0,4.0,4.0,4.0,4.0,4.0,4.0,4.0,4.0,4.0,4.0,4.0,4.0,100.0,,,,,,,,,,,,,,,,,,,,,,,,,,,,,,,,,,,,,,,,,,,,,,,,,,,,,,,,,,,,,,,,,,,,,,,,,,,,,,,,,,,,,,,,,,,,,,,,,,,,,,,,,,,,,,,,,,,,,,,,,,,,,,,,,,,
1725715961.071432,1725715961.073357,113.0,0.0,4249.871582,4270.641113,4365.641113,4297.820313,4277.563965,4233.077148,4311.666504,4266.794922,4265.256348,4236.282227,4475.0,4526.025879,4350.512695,4398.077148,0.0,1.0,15.0,,,,0.0,4.0,4.0,4.0,4.0,4.0,4.0,4.0,4.0,4.0,4.0,4.0,4.0,4.0,4.0,100.0,,,,,,,,,,,,,,,,,,,,,,,,,,,,,,,,,,,,,,,,,,,,,,,,,,,,,,,,,,,,,,,,,,,,,,,,,,,,,,,,,,,,,,,,,,,,,,,,,,,,,,,,,,,,,,,,,,,,,,,,,,,,,,,,,,,
1725715961.075336,1725715961.077261,114.0,0.0,4249.743652,4266.666504,4366.153809,4296.410156,4273.717773,4232.05127,4310.512695,4265.769043,4265.256348,4234.102539,4474.743652,4525.128418,4350.128418,4400.0,0.0,1.0,15.0,,,,0.0,4.0,4.0,4.0,4.0,4.0,4.0,4.0,4.0,4.0,4.0,4.0,4.0,4.0,4.0,100.0,,,,,,,,,,,,,,,,,,,,,,,,,,,,,,,,,,,,,,,,,,,,,,,,,,,,,,,,,,,,,,,,,,,,,,,,,,,,,,,,,,,,,,,,,,,,,,,,,,,,,,,,,,,,,,,,,,,,,,,,,,,,,,,,,,,
1725715961.07924,1725715961.081165,115.0,0.0,4247.820313,4264.102539,4362.307617,4295.256348,4268.717773,4231.153809,4308.333496,4263.974121,4263.846191,4232.820313,4470.0,4518.717773,4348.333496,4399.230957,0.0,1.0,15.0,,,,0.0,4.0,4.0,4.0,4.0,4.0,4.0,4.0,4.0,4.0,4.0,4.0,4.0,4.0,4.0,100.0,,,,,,,,,,,,,,,,,,,,,,,,,,,,,,,,,,,,,,,,,,,,,,,,,,,,,,,,,,,,,,,,,,,,,,,,,,,,,,,,,,,,,,,,,,,,,,,,,,,,,,,,,,,,,,,,,,,,,,,,,,,,,,,,,,,
1725715961.083144,1725715961.08497,116.0,0.0,4245.384766,4264.615234,4355.0,4295.384766,4265.769043,4231.410156,4306.538574,4262.307617,4262.94873,4233.846191,4464.615234,4511.922852,4346.794922,4397.179688,0.0,1.0,15.0,,,,0.0,4.0,4.0,4.0,4.0,4.0,4.0,4.0,4.0,4.0,4.0,4.0,4.0,4.0,4.0,100.0,,,,,,,,,,,,,,,,,1.0,0.0,0.0,,,,,,,,,,,,,,,,,,,,,,,,,,,,,,,,,,,,,0.0,0.0,1.0,0.0,1024.0,0.077145,1.533547,0.72111,0.660342,0.204401,0.043842,0.856144,0.345435,0.471279,0.110907,0.055213,0.759035,0.384909,0.446089,0.125226,0.046831,2.717412,1.886276,1.275787,0.293184,0.081342,0.493541,0.19718,0.199035,0.060904,0.0529,1.133028,0.394433,0.593504,0.105307,0.05521,2.002827,0.302072,0.162284,0.119657,0.100667,0.766566,0.842605,0.184794,0.239775,0.128767,0.875703,0.563487,0.339267,0.224762,0.072536,0.97938,0.586759,0.353278,0.220806,0.063039,1.78095,0.843177,0.630547,0.452994,0.162217,2.653343,0.972263,0.737433,0.422259,0.175178,1.728463,0.738167,0.820402,0.3197,0.134444,1.785584,0.779481,0.739477,0.269063,0.096831
1725715961.087048,1725715961.088874,117.0,0.0,4243.205078,4266.410156,4346.538574,4296.410156,4265.769043,4232.179688,4305.512695,4261.410156,4263.589844,4237.307617,4462.05127,4509.230957,4346.282227,4395.256348,0.0,1.0,15.0,,,,0.0,4.0,4.0,4.0,4.0,4.0,4.0,4.0,4.0,4.0,4.0,4.0,4.0,4.0,4.0,100.0,,,,,,,,,,,,,,,,,,,,,,,,,,,,,,,,,,,,,,,,,,,,,,,,,,,,,,,,,,,,,,,,,,,,,,,,,,,,,,,,,,,,,,,,,,,,,,,,,,,,,,,,,,,,,,,,,,,,,,,,,,,,,,,,,,,
1725715961.090952,1725715961.092878,118.0,0.0,4240.641113,4265.0,4337.820313,4296.794922,4266.410156,4231.666504,4304.230957,4259.871582,4264.358887,4240.0,4461.025879,4510.0,4344.487305,4392.563965,0.0,1.0,15.0,,,,0.0,4.0,4.0,4.0,4.0,4.0,4.0,4.0,4.0,4.0,4.0,4.0,4.0,4.0,4.0,100.0,,,,,,,,,,,,,,,,,,,,,,,,,,,,,,,,,,,,,,,,,,,,,,,,,,,,,,,,,,,,,,,,,,,,,,,,,,,,,,,,,,,,,,,,,,,,,,,,,,,,,,,,,,,,,,,,,,,,,,,,,,,,,,,,,,,
1725715961.094856,1725715961.096782,119.0,0.0,4236.153809,4257.692383,4325.897461,4294.230957,4264.230957,4228.205078,4301.794922,4255.897461,4262.436035,4238.333496,4456.666504,4508.461426,4337.820313,4386.666504,0.0,1.0,15.0,,,,0.0,4.0,4.0,4.0,4.0,4.0,4.0,4.0,4.0,4.0,4.0,4.0,4.0,4.0,4.0,100.0,,,,,,,,,,,,,,,,,,,,,,,,,,,,,,,,,,,,,,,,,,,,,,,,,,,,,,,,,,,,,,,,,,,,,,,,,,,,,,,,,,,,,,,,,,,,,,,,,,,,,,,,,,,,,,,,,,,,,,,,,,,,,,,,,,,
1725715961.09876,1725715961.100686,120.0,0.0,4230.641113,4246.538574,4306.282227,4288.974121,4258.589844,4222.820313,4298.461426,4249.743652,4257.05127,4231.410156,4446.538574,4500.769043,4325.769043,4377.179688,0.0,1.0,15.0,,,,0.0,4.0,4.0,4.0,4.0,4.0,4.0,4.0,4.0,4.0,4.0,4.0,4.0,4.0,4.0,100.0,,,,,,,,,,,,,,,,,,,,,,,,,,,,,,,,,,,,,,,,,,,,,,,,,,,,,,,,,,,,,,,,,,,,,,,,,,,,,,,,,,,,,,,,,,,,,,,,,,,,,,,,,,,,,,,,,,,,,,,,,,,,,,,,,,,
1725715961.102664,1725715961.10459,121.0,0.0,4227.820313,4236.922852,4276.666504,4283.717773,4251.666504,4218.589844,4296.410156,4244.358887,4250.897461,4222.692383,4434.102539,4489.487305,4312.692383,4367.436035,0.0,1.0,15.0,,,,0.0,4.0,4.0,4.0,4.0,4.0,4.0,4.0,4.0,4.0,4.0,4.0,4.0,4.0,4.0,100.0,,,,,,,,,,,,,,,,,,,,,,,,,,,,,,,,,,,,,,,,,,,,,,,,,,,,,,,,,,,,,,,,,,,,,,,,,,,,,,,,,,,,,,,,,,,,,,,,,,,,,,,,,,,,,,,,,,,,,,,,,,,,,,,,,,,
1725715961.106568,1725715961.108594,122.0,0.0,4231.153809,4233.717773,4240.384766,4281.666504,4247.307617,4218.589844,4298.077148,4242.94873,4247.94873,4217.436035,4426.794922,4481.538574,4305.128418,4362.436035,0.0,1.0,15.0,,,,0.0,4.0,4.0,4.0,4.0,4.0,4.0,4.0,4.0,4.0,4.0,4.0,4.0,4.0,4.0,100.0,,,,,,,,,,,,,,,,,,,,,,,,,,,,,,,,,,,,,,,,,,,,,,,,,,,,,,,,,,,,,,,,,,,,,,,,,,,,,,,,,,,,,,,,,,,,,,,,,,,,,,,,,,,,,,,,,,,,,,,,,,,,,,,,,,,
1725715961.110473,1725715961.112498,123.0,0.0,4240.0,4237.307617,4206.025879,4284.102539,4247.94873,4223.205078,4304.358887,4245.128418,4250.0,4219.230957,4429.743652,4482.436035,4306.922852,4364.615234,0.0,1.0,15.0,,,,0.0,4.0,4.0,4.0,4.0,4.0,4.0,4.0,4.0,4.0,4.0,4.0,4.0,4.0,4.0,100.0,,,,,,,,,,,,,,,,,,,,,,,,,,,,,,,,,,,,,,,,,,,,,,,,,,,,,,,,,,,,,,,,,,,,,,,,,,,,,,,,,,,,,,,,,,,,,,,,,,,,,,,,,,,,,,,,,,,,,,,,,,,,,,,,,,,
1725715961.114377,1725715961.116402,124.0,0.0,4249.871582,4244.230957,4182.307617,4290.512695,4252.563965,4230.0,4313.589844,4247.94873,4255.769043,4226.282227,4440.897461,4491.410156,4316.410156,4372.179688,0.0,1.0,15.0,,,,0.0,4.0,4.0,4.0,4.0,4.0,4.0,4.0,4.0,4.0,4.0,4.0,4.0,4.0,4.0,100.0,,,,,,,,,,,,,,,,,,,,,,,,,,,,,,,,,,,,,,,,,,,,,,,,,,,,,,,,0.0,0.0,1.0,0.0,1024.0,0.077145,,,,,,,,,,,,,,,,,,,,,,,,,,,,,,,,,,,,,,,,,,,,,,,,,,,,,,,,,,,,,,,,,,,,,,
1725715961.118281,1725715961.120306,125.0,0.0,4256.025879,4249.487305,4173.461426,4298.205078,4258.461426,4235.641113,4322.94873,4248.717773,4261.538574,4234.230957,4453.077148,4502.94873,4327.436035,4380.384766,0.0,1.0,15.0,,,,0.0,4.0,4.0,4.0,4.0,4.0,4.0,4.0,4.0,4.0,4.0,4.0,4.0,4.0,4.0,100.0,,,,,,,,,,,,,,,,,,,,,,,,,,,,,,,,,,,,,,,,,,,,,,,,,,,,,,,,,,,,,,,,,,,,,,,,,,,,,,,,,,,,,,,,,,,,,,,,,,,,,,,,,,,,,,,,,,,,,,,,,,,,,,,,,,,
1725715961.122185,1725715961.12431,126.0,0.0,4256.666504,4251.153809,4175.897461,4304.230957,4262.563965,4237.94873,4330.0,4248.333496,4264.358887,4238.846191,4459.102539,4510.897461,4334.102539,4385.256348,0.0,1.0,15.0,,,,0.0,4.0,4.0,4.0,4.0,4.0,4.0,4.0,4.0,4.0,4.0,4.0,4.0,4.0,4.0,100.0,,,,,,,,,,,,,,,,,,,,,,,,,,,,,,,,,,,,,,,,,,,,,,,,,,,,,,,,,,,,,,,,,,,,,,,,,,,,,,,,,,,,,,,,,,,,,,,,,,,,,,,,,,,,,,,,,,,,,,,,,,,,,,,,,,,
1725715961.126089,1725715961.128214,127.0,0.0,4253.717773,4249.871582,4182.179688,4307.179688,4263.846191,4237.563965,4334.615234,4249.358887,4263.461426,4238.846191,4456.666504,4513.205078,4333.717773,4385.769043,0.0,1.0,15.0,,,,0.0,4.0,4.0,4.0,4.0,4.0,4.0,4.0,4.0,4.0,4.0,4.0,4.0,4.0,4.0,100.0,,,,,,,,,,,,,,,,,,,,,,,,,,,,,,,,,,,,,,,,,,,,,,,,,,,,,,,,,,,,,,,,,,,,,,,,,,,,,,,,,,,,,,,,,,,,,,,,,,,,,,,,,,,,,,,,,,,,,,,,,,,,,,,,,,,
1725715961.129993,1725715961.132119,128.0,0.0,4250.384766,4248.205078,4185.256348,4307.94873,4263.077148,4237.05127,4337.692383,4253.461426,4260.128418,4235.769043,4449.230957,4511.153809,4327.820313,4383.589844,2698.0,1.0,15.0,,,,0.0,4.0,4.0,4.0,4.0,4.0,4.0,4.0,4.0,4.0,4.0,4.0,4.0,4.0,4.0,100.0,,,,,,,,,,,,,,,,,,,,,,,,,,,,,,,,,,,,,,,,,,,,,,,,,,,,,,,,,,,,,,,,,,,,,,,,,,,,,,,,,,,,,,,,,,,,,,,,,,,,,,,,,,,,,,,,,,,,,,,,,,,,,,,,,,,
1725715961.133897,1725715961.136023,129.0,0.0,4249.358887,4247.307617,4183.333496,4308.846191,4261.922852,4238.333496,4340.256348,4258.717773,4256.666504,4231.922852,4442.563965,4507.820313,4321.153809,4381.794922,2550.0,1.0,15.0,,,,0.0,4.0,4.0,4.0,4.0,4.0,4.0,4.0,4.0,4.0,4.0,4.0,4.0,4.0,4.0,100.0,,,,,,,,,,,,,,,,,,,,,,,,,,,,,,,,,,,,,,,,,,,,,,,,,,,,,,,,,,,,,,,,,,,,,,,,,,,,,,,,,,,,,,,,,,,,,,,,,,,,,,,,,,,,,,,,,,,,,,,,,,,,,,,,,,,
1725715961.137801,1725715961.139927,130.0,0.0,4250.769043,4247.436035,4179.230957,4310.897461,4261.538574,4241.666504,4342.436035,4261.666504,4254.358887,4228.974121,4440.641113,4504.871582,4316.794922,4382.179688,2494.0,1.0,15.0,,,,0.0,4.0,4.0,4.0,4.0,4.0,4.0,4.0,4.0,4.0,4.0,4.0,4.0,4.0,4.0,100.0,,,,,,,,,,,,,,,,,,,,,,,,,,,,,,,,,,,,,,,,,,,,,,,,,,,,,,,,,,,,,,,,,,,,,,,,,,,,,,,,,,,,,,,,,,,,,,,,,,,,,,,,,,,,,,,,,,,,,,,,,,,,,,,,,,,
1725715961.141705,1725715961.143731,131.0,0.0,4252.94873,4247.820313,4176.794922,4313.333496,4261.282227,4245.128418,4343.589844,4259.743652,4252.820313,4227.692383,4442.820313,4501.922852,4315.128418,4383.974121,2454.0,1.0,15.0,,,,0.0,4.0,4.0,4.0,4.0,4.0,4.0,4.0,4.0,4.0,4.0,4.0,4.0,4.0,4.0,100.0,,,,,,,,,,,,,,,,,,,,,,,,,,,,,,,,,,,,,,,,,,,,,,,,,,,,,,,,,,,,,,,,,,,,,,,,,,,,,,,,,,,,,,,,,,,,,,,,,,,,,,,,,,,,,,,,,,,,,,,,,,,,,,,,,,,
1725715961.14561,1725715961.147635,132.0,0.0,4253.717773,4248.077148,4177.692383,4314.358887,4260.256348,4246.922852,4344.615234,4253.846191,4251.538574,4227.692383,4445.256348,4498.461426,4314.230957,4384.871582,2431.0,1.0,15.0,,,,0.0,4.0,4.0,4.0,4.0,4.0,4.0,4.0,4.0,4.0,4.0,4.0,4.0,4.0,4.0,100.0,,,,,,,,,,,,,,,,,,,,,,,,,,,,,,,,,,,,,,,,,,,,,,,,,,,,,,,,0.0,0.0,1.0,0.0,1024.0,0.077145,,,,,,,,,,,,,,,,,,,,,,,,,,,,,,,,,,,,,,,,,,,,,,,,,,,,,,,,,,,,,,,,,,,,,,
1725715961.149514,1725715961.151539,133.0,0.0,4252.436035,4249.487305,4179.871582,4313.461426,4259.358887,4246.794922,4346.538574,4247.307617,4250.128418,4227.820313,4445.256348,4494.615234,4312.692383,4382.94873,2383.0,1.0,15.0,,,,0.0,4.0,4.0,4.0,4.0,4.0,4.0,4.0,4.0,4.0,4.0,4.0,4.0,4.0,4.0,100.0,,,,,,,,,,,,,,,,,,,,,,,,,,,,,,,,,,,,,,,,,,,,,,,,,,,,,,,,,,,,,,,,,,,,,,,,,,,,,,,,,,,,,,,,,,,,,,,,,,,,,,,,,,,,,,,,,,,,,,,,,,,,,,,,,,,
1725715961.153418,1725715961.155443,134.0,0.0,4250.128418,4253.333496,4180.384766,4311.922852,4259.487305,4246.410156,4350.769043,4244.487305,4249.230957,4227.692383,4443.205078,4492.436035,4310.769043,4379.358887,2428.0,1.0,15.0,,,,0.0,4.0,4.0,4.0,4.0,4.0,4.0,4.0,4.0,4.0,4.0,4.0,4.0,4.0,4.0,100.0,,,,,,,,,,,,,,,,,,,,,,,,,,,,,,,,,,,,,,,,,,,,,,,,,,,,,,,,,,,,,,,,,,,,,,,,,,,,,,,,,,,,,,,,,,,,,,,,,,,,,,,,,,,,,,,,,,,,,,,,,,,,,,,,,,,
1725715961.157322,1725715961.159347,135.0,0.0,4248.461426,4259.102539,4178.461426,4311.538574,4261.282227,4247.436035,4356.282227,4246.153809,4249.871582,4227.436035,4441.666504,4493.589844,4309.615234,4376.153809,2498.0,1.0,15.0,,,,0.0,4.0,4.0,4.0,4.0,4.0,4.0,4.0,4.0,4.0,4.0,4.0,4.0,4.0,4.0,100.0,,,,,,,,,,,,,,,,,,,,,,,,,,,,,,,,,,,,,,,,,,,,,,,,,,,,,,,,,,,,,,,,,,,,,,,,,,,,,,,,,,,,,,,,,,,,,,,,,,,,,,,,,,,,,,,,,,,,,,,,,,,,,,,,,,,
1725715961.161226,1725715961.163251,136.0,0.0,4247.820313,4264.230957,4175.256348,4312.94873,4263.846191,4249.615234,4360.0,4250.0,4251.410156,4226.794922,4441.922852,4497.05127,4309.487305,4374.230957,2469.0,1.0,15.0,,,,0.0,4.0,4.0,4.0,4.0,4.0,4.0,4.0,4.0,4.0,4.0,4.0,4.0,4.0,4.0,100.0,,,,,,,,,,,,,,,,,,,,,,,,,,,,,,,,,,,,,,,,,,,,,,,,,,,,,,,,,,,,,,,,,,,,,,,,,,,,,,,,,,,,,,,,,,,,,,,,,,,,,,,,,,,,,,,,,,,,,,,,,,,,,,,,,,,
1725715961.16513,1725715961.167156,137.0,0.0,4247.179688,4265.512695,4172.05127,4315.384766,4265.0,4251.410156,4359.615234,4252.563965,4252.307617,4225.256348,4442.94873,4499.102539,4309.487305,4372.94873,2553.0,1.0,15.0,,,,0.0,4.0,4.0,4.0,4.0,4.0,4.0,4.0,4.0,4.0,4.0,4.0,4.0,4.0,4.0,100.0,,,,,,,,,,,,,,,,,,,,,,,,,,,,,,,,,,,,,,,,,,,,,,,,,,,,,,,,,,,,,,,,,,,,,,,,,,,,,,,,,,,,,,,,,,,,,,,,,,,,,,,,,,,,,,,,,,,,,,,,,,,,,,,,,,,
1725715961.169034,1725715961.17096,138.0,0.0,4245.897461,4262.563965,4169.615234,4317.307617,4264.102539,4251.666504,4355.256348,4252.179688,4252.307617,4223.077148,4443.205078,4497.179688,4309.487305,4371.666504,2887.0,1.0,15.0,,,,0.0,4.0,4.0,4.0,4.0,4.0,4.0,4.0,4.0,4.0,4.0,4.0,4.0,4.0,4.0,100.0,,,,,,,,,,,,,,,,,,,,,,,,,,,,,,,,,,,,,,,,,,,,,,,,,,,,,,,,,,,,,,,,,,,,,,,,,,,,,,,,,,,,,,,,,,,,,,,,,,,,,,,,,,,,,,,,,,,,,,,,,,,,,,,,,,,
1725715961.172938,1725715961.174864,139.0,0.0,4244.230957,4258.461426,4168.205078,4318.205078,4262.05127,4250.641113,4350.384766,4250.128418,4252.563965,4221.153809,4442.692383,4492.94873,4309.871582,4371.410156,3111.0,1.0,15.0,,,,0.0,4.0,4.0,4.0,4.0,4.0,4.0,4.0,4.0,4.0,4.0,4.0,4.0,4.0,4.0,100.0,,,,,,,,,,,,,,,,,,,,,,,,,,,,,,,,,,,,,,,,,,,,,,,,,,,,,,,,,,,,,,,,,,,,,,,,,,,,,,,,,,,,,,,,,,,,,,,,,,,,,,,,,,,,,,,,,,,,,,,,,,,,,,,,,,,
1725715961.176842,1725715961.178768,140.0,0.0,4243.461426,4256.410156,4167.563965,4318.589844,4260.769043,4249.615234,4348.333496,4249.102539,4254.487305,4220.769043,4442.563965,4490.512695,4310.512695,4372.692383,3428.0,1.0,15.0,,,,0.0,4.0,4.0,4.0,4.0,4.0,4.0,4.0,4.0,4.0,4.0,4.0,4.0,4.0,4.0,100.0,,,,,,,,,,,,,,,,,,,,,,,,,,,,,,,,,,,,,,,,,,,,,,,,,,,,,,,,0.0,0.0,1.0,0.0,1024.0,0.077145,,,,,,,,,,,,,,,,,,,,,,,,,,,,,,,,,,,,,,,,,,,,,,,,,,,,,,,,,,,,,,,,,,,,,,
1725715961.180746,1725715961.182772,141.0,0.0,4244.102539,4257.307617,4167.563965,4319.102539,4261.025879,4249.358887,4350.384766,4250.128418,4258.333496,4221.282227,4443.205078,4491.666504,4310.0,4374.358887,3832.0,1.0,15.0,,,,0.0,4.0,4.0,4.0,4.0,4.0,4.0,4.0,4.0,4.0,4.0,4.0,4.0,4.0,4.0,100.0,,,,,,,,,,,,,,,,,,,,,,,,,,,,,,,,,,,,,,,,,,,,,,,,,,,,,,,,,,,,,,,,,,,,,,,,,,,,,,,,,,,,,,,,,,,,,,,,,,,,,,,,,,,,,,,,,,,,,,,,,,,,,,,,,,,
1725715961.184651,1725715961.186676,142.0,0.0,4245.512695,4259.487305,4167.94873,4320.0,4262.05127,4249.615234,4355.128418,4252.05127,4262.05127,4221.153809,4443.333496,4494.102539,4307.307617,4374.743652,2887.0,1.0,15.0,,,,0.0,4.0,4.0,4.0,4.0,4.0,4.0,4.0,4.0,4.0,4.0,4.0,4.0,4.0,4.0,100.0,,,,,,,,,,,,,,,,,,,,,,,,,,,,,,,,,,,,,,,,,,,,,,,,,,,,,,,,,,,,,,,,,,,,,,,,,,,,,,,,,,,,,,,,,,,,,,,,,,,,,,,,,,,,,,,,,,,,,,,,,,,,,,,,,,,
1725715961.188555,1725715961.19058,143.0,0.0,4246.410156,4261.282227,4168.589844,4321.410156,4262.563965,4249.615234,4358.974121,4252.436035,4264.102539,4220.384766,4442.179688,4494.743652,4303.077148,4373.205078,3111.0,1.0,15.0,,,,0.0,4.0,4.0,4.0,4.0,4.0,4.0,4.0,4.0,4.0,4.0,4.0,4.0,4.0,4.0,100.0,,,,,,,,,,,,,,,,,,,,,,,,,,,,,,,,,,,,,,,,,,,,,,,,,,,,,,,,,,,,,,,,,,,,,,,,,,,,,,,,,,,,,,,,,,,,,,,,,,,,,,,,,,,,,,,,,,,,,,,,,,,,,,,,,,,
1725715961.192459,1725715961.194484,144.0,0.0,4246.666504,4262.05127,4169.102539,4323.333496,4262.307617,4249.358887,4359.871582,4250.512695,4263.974121,4220.641113,4440.384766,4492.692383,4300.769043,4372.05127,3428.0,1.0,15.0,,,,0.0,4.0,4.0,4.0,4.0,4.0,4.0,4.0,4.0,4.0,4.0,4.0,4.0,4.0,4.0,100.0,,,,,,,,,,,,,,,,,,,,,,,,,,,,,,,,,,,,,,,,,,,,,,,,,,,,,,,,,,,,,,,,,,,,,,,,,,,,,,,,,,,,,,,,,,,,,,,,,,,,,,,,,,,,,,,,,,,,,,,,,,,,,,,,,,,
1725715961.196363,1725715961.198488,145.0,0.0,4247.05127,4262.563965,4169.230957,4325.128418,4262.179688,4249.102539,4357.436035,4247.436035,4262.820313,4223.461426,4439.743652,4490.384766,4302.692383,4373.461426,3832.0,1.0,15.0,,,,0.0,4.0,4.0,4.0,4.0,4.0,4.0,4.0,4.0,4.0,4.0,4.0,4.0,4.0,4.0,100.0,,,,,,,,,,,,,,,,,,,,,,,,,,,,,,,,,,,,,,,,,,,,,,,,,,,,,,,,,,,,,,,,,,,,,,,,,,,,,,,,,,,,,,,,,,,,,,,,,,,,,,,,,,,,,,,,,,,,,,,,,,,,,,,,,,,
1725715961.200267,1725715961.202392,146.0,0.0,4247.692383,4263.077148,4169.102539,4326.153809,4262.692383,4249.102539,4353.461426,4245.256348,4261.666504,4228.205078,4441.153809,4491.538574,4307.94873,4377.563965,2887.0,1.0,15.0,,,,0.0,4.0,4.0,4.0,4.0,4.0,4.0,4.0,4.0,4.0,4.0,4.0,4.0,4.0,4.0,100.0,,,,,,,,,,,,,,,,,,,,,,,,,,,,,,,,,,,,,,,,,,,,,,,,,,,,,,,,,,,,,,,,,,,,,,,,,,,,,,,,,,,,,,,,,,,,,,,,,,,,,,,,,,,,,,,,,,,,,,,,,,,,,,,,,,,
1725715961.204171,1725715961.206296,147.0,0.0,4248.077148,4263.077148,4169.743652,4326.538574,4263.589844,4249.615234,4350.384766,4244.743652,4261.153809,4232.179688,4443.717773,4497.05127,4312.436035,4381.538574,3111.0,1.0,15.0,,,,0.0,4.0,4.0,4.0,4.0,4.0,4.0,4.0,4.0,4.0,4.0,4.0,4.0,4.0,4.0,100.0,,,,,,,,,,,,,,,,,,,,,,,,,,,,,,,,,,,,,,,,,,,,,,,,,,,,,,,,,,,,,,,,,,,,,,,,,,,,,,,,,,,,,,,,,,,,,,,,,,,,,,,,,,,,,,,,,,,,,,,,,,,,,,,,,,,
1725715961.208075,1725715961.210201,148.0,0.0,4247.05127,4262.179688,4171.922852,4326.666504,4263.205078,4250.384766,4349.358887,4245.641113,4260.897461,4232.94873,4445.256348,4503.974121,4312.307617,4382.820313,3428.0,1.0,15.0,,,,0.0,4.0,4.0,4.0,4.0,4.0,4.0,4.0,4.0,4.0,4.0,4.0,4.0,4.0,4.0,100.0,,,,,,,,,,,,,,,,,1.0,0.0,0.0,,,,,,,,,,,,,,,,,,,,,,,,,,,,,,,,,,,,,0.0,0.0,1.0,0.0,1024.0,0.001437,1.758912,0.822578,0.660846,0.206007,0.043487,0.732091,0.333949,0.56604,0.127438,0.074452,0.772218,0.380305,0.402463,0.131571,0.051483,3.582884,2.466821,1.761233,0.41359,0.110672,0.550225,0.161865,0.202655,0.060982,0.055071,1.035149,0.367586,0.570726,0.10299,0.060914,2.383449,0.255068,0.139747,0.144251,0.098849,0.903322,0.935733,0.177598,0.249801,0.144756,0.9671,0.68017,0.419995,0.255503,0.07195,1.191393,0.772792,0.391044,0.270367,0.063771,2.231406,1.025908,0.731962,0.530893,0.170244,2.908185,1.068573,0.706676,0.482133,0.180643,2.176084,0.922414,0.967488,0.399051,0.13357,2.049212,0.8816,0.829754,0.320467,0.093031
1725715961.211979,1725715961.214205,149.0,0.0,4245.0,4261.153809,4175.384766,4327.05127,4260.769043,4251.410156,4350.769043,4247.05127,4260.641113,4230.641113,4444.871582,4508.461426,4307.820313,4381.666504,3832.0,1.0,15.0,,,,0.0,4.0,4.0,4.0,4.0,4.0,4.0,4.0,4.0,4.0,4.0,4.0,4.0,4.0,4.0,100.0,,,,,,,,,,,,,,,,,,,,,,,,,,,,,,,,,,,,,,,,,,,,,,,,,,,,,,,,,,,,,,,,,,,,,,,,,,,,,,,,,,,,,,,,,,,,,,,,,,,,,,,,,,,,,,,,,,,,,,,,,,,,,,,,,,,
1725715961.215883,1725715961.218109,150.0,0.0,4243.205078,4261.538574,4179.358887,4327.692383,4256.666504,4251.666504,4352.94873,4248.205078,4260.641113,4228.205078,4443.717773,4509.358887,4302.820313,4380.641113,2887.0,1.0,15.0,,,,0.0,4.0,4.0,4.0,4.0,4.0,4.0,4.0,4.0,4.0,4.0,4.0,4.0,4.0,4.0,100.0,,,,,,,,,,,,,,,,,,,,,,,,,,,,,,,,,,,,,,,,,,,,,,,,,,,,,,,,,,,,,,,,,,,,,,,,,,,,,,,,,,,,,,,,,,,,,,,,,,,,,,,,,,,,,,,,,,,,,,,,,,,,,,,,,,,
1725715961.219787,1725715961.222013,151.0,0.0,4242.94873,4263.333496,4182.563965,4327.820313,4252.307617,4250.897461,4353.846191,4248.974121,4260.897461,4228.205078,4443.589844,4508.461426,4302.179688,4382.436035,3111.0,1.0,15.0,,,,0.0,4.0,4.0,4.0,4.0,4.0,4.0,4.0,4.0,4.0,4.0,4.0,4.0,4.0,4.0,100.0,,,,,,,,,,,,,,,,,,,,,,,,,,,,,,,,,,,,,,,,,,,,,,,,,,,,,,,,,,,,,,,,,,,,,,,,,,,,,,,,,,,,,,,,,,,,,,,,,,,,,,,,,,,,,,,,,,,,,,,,,,,,,,,,,,,
1725715961.223691,1725715961.225917,152.0,0.0,4244.487305,4264.743652,4184.230957,4327.436035,4249.615234,4249.615234,4352.692383,4249.358887,4261.794922,4231.410156,4446.282227,4508.974121,4307.563965,4387.436035,3428.0,1.0,15.0,,,,0.0,4.0,4.0,4.0,4.0,4.0,4.0,4.0,4.0,4.0,4.0,4.0,4.0,4.0,4.0,100.0,,,,,,,,,,,,,,,,,,,,,,,,,,,,,,,,,,,,,,,,,,,,,,,,,,,,,,,,,,,,,,,,,,,,,,,,,,,,,,,,,,,,,,,,,,,,,,,,,,,,,,,,,,,,,,,,,,,,,,,,,,,,,,,,,,,
1725715961.227595,1725715961.229921,153.0,0.0,4246.794922,4263.974121,4184.230957,4326.538574,4249.230957,4248.846191,4349.487305,4249.230957,4263.077148,4235.384766,4451.282227,4511.922852,4316.666504,4393.589844,3832.0,1.0,15.0,,,,0.0,4.0,4.0,4.0,4.0,4.0,4.0,4.0,4.0,4.0,4.0,4.0,4.0,4.0,4.0,100.0,,,,,,,,,,,,,,,,,,,,,,,,,,,,,,,,,,,,,,,,,,,,,,,,,,,,,,,,,,,,,,,,,,,,,,,,,,,,,,,,,,,,,,,,,,,,,,,,,,,,,,,,,,,,,,,,,,,,,,,,,,,,,,,,,,,
1725715961.2315,1725715961.233825,154.0,0.0,4248.461426,4260.512695,4183.333496,4325.769043,4250.769043,4249.102539,4345.641113,4248.974121,4264.102539,4237.820313,4457.05127,4516.410156,4325.256348,4398.333496,2887.0,1.0,15.0,,,,0.0,4.0,4.0,4.0,4.0,4.0,4.0,4.0,4.0,4.0,4.0,4.0,4.0,4.0,4.0,100.0,,,,,,,,,,,,,,,,,,,,,,,,,,,,,,,,,,,,,,,,,,,,,,,,,,,,,,,,,,,,,,,,,,,,,,,,,,,,,,,,,,,,,,,,,,,,,,,,,,,,,,,,,,,,,,,,,,,,,,,,,,,,,,,,,,,
1725715961.235404,1725715961.237729,155.0,0.0,4249.102539,4255.769043,4182.820313,4325.384766,4252.307617,4249.743652,4342.563965,4248.846191,4264.230957,4237.563965,4461.282227,4519.743652,4330.0,4400.0,3111.0,1.0,15.0,,,,0.0,4.0,4.0,4.0,4.0,4.0,4.0,4.0,4.0,4.0,4.0,4.0,4.0,4.0,4.0,100.0,,,,,,,,,,,,,,,,,,,,,,,,,,,,,,,,,,,,,,,,,,,,,,,,,,,,,,,,,,,,,,,,,,,,,,,,,,,,,,,,,,,,,,,,,,,,,,,,,,,,,,,,,,,,,,,,,,,,,,,,,,,,,,,,,,,
1725715961.239308,1725715961.241633,156.0,0.0,4248.461426,4252.436035,4183.333496,4325.0,4252.307617,4249.871582,4340.769043,4248.974121,4263.333496,4235.641113,4462.692383,4519.102539,4330.512695,4399.230957,3428.0,1.0,15.0,,,,0.0,4.0,4.0,4.0,4.0,4.0,4.0,4.0,4.0,4.0,4.0,4.0,4.0,4.0,4.0,100.0,,,,,,,,,,,,,,,,,,,,,,,,,,,,,,,,,,,,,,,,,,,,,,,,,,,,,,,,0.0,0.0,1.0,0.0,1024.0,0.001437,,,,,,,,,,,,,,,,,,,,,,,,,,,,,,,,,,,,,,,,,,,,,,,,,,,,,,,,,,,,,,,,,,,,,,
1725715961.243212,1725715961.245537,157.0,0.0,4247.05127,4252.692383,4184.743652,4324.230957,4250.769043,4248.846191,4340.512695,4248.974121,4261.794922,4233.333496,4461.666504,4513.846191,4329.230957,4397.307617,3832.0,1.0,15.0,,,,0.0,4.0,4.0,4.0,4.0,4.0,4.0,4.0,4.0,4.0,4.0,4.0,4.0,4.0,4.0,100.0,,,,,,,,,,,,,,,,,,,,,,,,,,,,,,,,,,,,,,,,,,,,,,,,,,,,,,,,,,,,,,,,,,,,,,,,,,,,,,,,,,,,,,,,,,,,,,,,,,,,,,,,,,,,,,,,,,,,,,,,,,,,,,,,,,,
1725715961.247116,1725715961.249342,158.0,0.0,4245.512695,4256.410156,4185.897461,4323.077148,4248.717773,4247.820313,4341.153809,4248.589844,4260.641113,4232.436035,4460.0,4506.922852,4329.102539,4396.282227,2887.0,1.0,15.0,,,,0.0,4.0,4.0,4.0,4.0,4.0,4.0,4.0,4.0,4.0,4.0,4.0,4.0,4.0,4.0,100.0,,,,,,,,,,,,,,,,,,,,,,,,,,,,,,,,,,,,,,,,,,,,,,,,,,,,,,,,,,,,,,,,,,,,,,,,,,,,,,,,,,,,,,,,,,,,,,,,,,,,,,,,,,,,,,,,,,,,,,,,,,,,,,,,,,,
1725715961.25102,1725715961.253246,159.0,0.0,4244.743652,4261.282227,4186.410156,4322.307617,4247.692383,4248.333496,4342.179688,4248.589844,4260.769043,4233.589844,4459.358887,4503.589844,4331.282227,4396.666504,3111.0,1.0,15.0,,,,0.0,4.0,4.0,4.0,4.0,4.0,4.0,4.0,4.0,4.0,4.0,4.0,4.0,4.0,4.0,100.0,,,,,,,,,,,,,,,,,,,,,,,,,,,,,,,,,,,,,,,,,,,,,,,,,,,,,,,,,,,,,,,,,,,,,,,,,,,,,,,,,,,,,,,,,,,,,,,,,,,,,,,,,,,,,,,,,,,,,,,,,,,,,,,,,,,
1725715961.254924,1725715961.25715,160.0,0.0,4245.0,4263.846191,4186.282227,4322.563965,4248.333496,4251.794922,4342.94873,4249.487305,4262.179688,4236.922852,4460.641113,4506.538574,4335.0,4398.077148,3428.0,1.0,15.0,,,,0.0,4.0,4.0,4.0,4.0,4.0,4.0,4.0,4.0,4.0,4.0,4.0,4.0,4.0,4.0,100.0,,,,,,,,,,,,,,,,,,,,,,,,,,,,,,,,,,,,,,,,,,,,,,,,,,,,,,,,,,,,,,,,,,,,,,,,,,,,,,,,,,,,,,,,,,,,,,,,,,,,,,,,,,,,,,,,,,,,,,,,,,,,,,,,,,,
1725715961.258828,1725715961.260954,161.0,0.0,4246.153809,4262.179688,4186.153809,4323.205078,4250.0,4257.563965,4343.077148,4251.153809,4264.230957,4240.897461,4462.692383,4513.717773,4338.461426,4398.846191,3832.0,1.0,15.0,,,,0.0,4.0,4.0,4.0,4.0,4.0,4.0,4.0,4.0,4.0,4.0,4.0,4.0,4.0,4.0,100.0,,,,,,,,,,,,,,,,,,,,,,,,,,,,,,,,,,,,,,,,,,,,,,,,,,,,,,,,,,,,,,,,,,,,,,,,,,,,,,,,,,,,,,,,,,,,,,,,,,,,,,,,,,,,,,,,,,,,,,,,,,,,,,,,,,,
1725715961.262732,1725715961.264858,162.0,0.0,4247.307617,4257.307617,4186.666504,4323.461426,4251.538574,4263.589844,4342.436035,4253.077148,4265.769043,4243.846191,4464.230957,4520.256348,4339.871582,4398.461426,2887.0,1.0,15.0,,,,0.0,4.0,4.0,4.0,4.0,4.0,4.0,4.0,4.0,4.0,4.0,4.0,4.0,4.0,4.0,100.0,,,,,,,,,,,,,,,,,,,,,,,,,,,,,,,,,,,,,,,,,,,,,,,,,,,,,,,,,,,,,,,,,,,,,,,,,,,,,,,,,,,,,,,,,,,,,,,,,,,,,,,,,,,,,,,,,,,,,,,,,,,,,,,,,,,
1725715961.266636,1725715961.268762,163.0,0.0,4247.307617,4252.05127,4187.692383,4322.179688,4252.179688,4267.05127,4340.641113,4254.102539,4266.410156,4244.871582,4464.615234,4522.179688,4338.974121,4397.179688,3111.0,1.0,15.0,,,,0.0,4.0,4.0,4.0,4.0,4.0,4.0,4.0,4.0,4.0,4.0,4.0,4.0,4.0,4.0,100.0,,,,,,,,,,,,,,,,,,,,,,,,,,,,,,,,,,,,,,,,,,,,,,,,,,,,,,,,,,,,,,,,,,,,,,,,,,,,,,,,,,,,,,,,,,,,,,,,,,,,,,,,,,,,,,,,,,,,,,,,,,,,,,,,,,,
1725715961.270541,1725715961.272666,164.0,0.0,4245.256348,4248.846191,4188.717773,4319.615234,4251.794922,4266.410156,4338.205078,4253.974121,4266.025879,4245.0,4463.846191,4519.102539,4337.179688,4396.153809,3428.0,1.0,15.0,,,,0.0,4.0,4.0,4.0,4.0,4.0,4.0,4.0,4.0,4.0,4.0,4.0,4.0,4.0,4.0,100.0,,,,,,,,,,,,,,,,,,,,,,,,,,,,,,,,,,,,,,,,,,,,,,,,,,,,,,,,0.0,0.0,1.0,0.0,1024.0,0.001437,,,,,,,,,,,,,,,,,,,,,,,,,,,,,,,,,,,,,,,,,,,,,,,,,,,,,,,,,,,,,,,,,,,,,,
1725715961.274445,1725715961.27647,165.0,0.0,4241.282227,4248.205078,4189.358887,4316.410156,4251.025879,4262.307617,4335.512695,4252.820313,4265.769043,4245.512695,4462.820313,4513.461426,4336.282227,4396.153809,3832.0,1.0,15.0,,,,0.0,4.0,4.0,4.0,4.0,4.0,4.0,4.0,4.0,4.0,4.0,4.0,4.0,4.0,4.0,100.0,,,,,,,,,,,,,,,,,,,,,,,,,,,,,,,,,,,,,,,,,,,,,,,,,,,,,,,,,,,,,,,,,,,,,,,,,,,,,,,,,,,,,,,,,,,,,,,,,,,,,,,,,,,,,,,,,,,,,,,,,,,,,,,,,,,
1725715961.278349,1725715961.280375,166.0,0.0,4236.410156,4248.461426,4189.615234,4313.589844,4250.256348,4257.436035,4333.333496,4251.282227,4266.538574,4247.563965,4462.436035,4508.717773,4336.794922,4396.922852,2887.0,1.0,15.0,,,,0.0,4.0,4.0,4.0,4.0,4.0,4.0,4.0,4.0,4.0,4.0,4.0,4.0,4.0,4.0,100.0,,,,,,,,,,,,,,,,,,,,,,,,,,,,,,,,,,,,,,,,,,,,,,,,,,,,,,,,,,,,,,,,,,,,,,,,,,,,,,,,,,,,,,,,,,,,,,,,,,,,,,,,,,,,,,,,,,,,,,,,,,,,,,,,,,,
1725715961.282253,1725715961.284279,167.0,0.0,4231.794922,4247.94873,4189.102539,4311.794922,4249.615234,4254.615234,4331.922852,4250.0,4267.563965,4249.743652,4462.436035,4506.410156,4337.307617,4397.179688,3111.0,1.0,15.0,,,,0.0,4.0,4.0,4.0,4.0,4.0,4.0,4.0,4.0,4.0,4.0,4.0,4.0,4.0,4.0,100.0,,,,,,,,,,,,,,,,,,,,,,,,,,,,,,,,,,,,,,,,,,,,,,,,,,,,,,,,,,,,,,,,,,,,,,,,,,,,,,,,,,,,,,,,,,,,,,,,,,,,,,,,,,,,,,,,,,,,,,,,,,,,,,,,,,,
1725715961.286157,1725715961.288183,168.0,0.0,4228.846191,4246.410156,4187.94873,4311.025879,4249.102539,4255.128418,4331.025879,4249.102539,4267.436035,4250.0,4462.179688,4505.897461,4335.769043,4395.769043,3428.0,1.0,15.0,,,,0.0,4.0,4.0,4.0,4.0,4.0,4.0,4.0,4.0,4.0,4.0,4.0,4.0,4.0,4.0,100.0,,,,,,,,,,,,,,,,,,,,,,,,,,,,,,,,,,,,,,,,,,,,,,,,,,,,,,,,,,,,,,,,,,,,,,,,,,,,,,,,,,,,,,,,,,,,,,,,,,,,,,,,,,,,,,,,,,,,,,,,,,,,,,,,,,,
1725715961.290061,1725715961.291987,169.0,0.0,4228.333496,4244.871582,4186.410156,4311.282227,4248.974121,4258.077148,4329.871582,4248.333496,4265.256348,4247.179688,4461.153809,4505.897461,4332.307617,4392.820313,3832.0,1.0,15.0,,,,0.0,4.0,4.0,4.0,4.0,4.0,4.0,4.0,4.0,4.0,4.0,4.0,4.0,4.0,4.0,100.0,,,,,,,,,,,,,,,,,,,,,,,,,,,,,,,,,,,,,,,,,,,,,,,,,,,,,,,,,,,,,,,,,,,,,,,,,,,,,,,,,,,,,,,,,,,,,,,,,,,,,,,,,,,,,,,,,,,,,,,,,,,,,,,,,,,
1725715961.293965,1725715961.295891,170.0,0.0,4230.128418,4244.615234,4185.256348,4312.563965,4249.230957,4261.538574,4328.205078,4247.307617,4262.179688,4241.794922,4458.846191,4506.025879,4328.846191,4389.358887,2887.0,1.0,15.0,,,,0.0,4.0,4.0,4.0,4.0,4.0,4.0,4.0,4.0,4.0,4.0,4.0,4.0,4.0,4.0,100.0,,,,,,,,,,,,,,,,,,,,,,,,,,,,,,,,,,,,,,,,,,,,,,,,,,,,,,,,,,,,,,,,,,,,,,,,,,,,,,,,,,,,,,,,,,,,,,,,,,,,,,,,,,,,,,,,,,,,,,,,,,,,,,,,,,,
1725715961.297869,1725715961.299895,171.0,0.0,4232.820313,4245.512695,4184.871582,4314.487305,4249.871582,4263.589844,4326.410156,4246.538574,4260.128418,4236.410156,4455.384766,4506.153809,4327.05127,4387.179688,3111.0,1.0,15.0,,,,0.0,4.0,4.0,4.0,4.0,4.0,4.0,4.0,4.0,4.0,4.0,4.0,4.0,4.0,4.0,100.0,,,,,,,,,,,,,,,,,,,,,,,,,,,,,,,,,,,,,,,,,,,,,,,,,,,,,,,,,,,,,,,,,,,,,,,,,,,,,,,,,,,,,,,,,,,,,,,,,,,,,,,,,,,,,,,,,,,,,,,,,,,,,,,,,,,
1725715961.301773,1725715961.303799,172.0,0.0,4235.256348,4247.179688,4185.256348,4316.153809,4250.384766,4263.717773,4325.384766,4246.153809,4260.128418,4232.820313,4451.538574,4505.897461,4326.666504,4387.179688,3428.0,1.0,15.0,,,,0.0,4.0,4.0,4.0,4.0,4.0,4.0,4.0,4.0,4.0,4.0,4.0,4.0,4.0,4.0,100.0,,,,,,,,,,,,,,,,,,,,,,,,,,,,,,,,,,,,,,,,,,,,,,,,,,,,,,,,0.0,0.0,1.0,0.0,1024.0,0.001437,,,,,,,,,,,,,,,,,,,,,,,,,,,,,,,,,,,,,,,,,,,,,,,,,,,,,,,,,,,,,,,,,,,,,,
1725715961.305678,1725715961.307703,173.0,0.0,4236.666504,4248.717773,4185.641113,4316.922852,4250.769043,4262.436035,4325.384766,4246.538574,4260.512695,4231.794922,4447.820313,4504.358887,4326.025879,4387.94873,3832.0,1.0,15.0,,,,0.0,4.0,4.0,4.0,4.0,4.0,4.0,4.0,4.0,4.0,4.0,4.0,4.0,4.0,4.0,100.0,,,,,,,,,,,,,,,,,,,,,,,,,,,,,,,,,,,,,,,,,,,,,,,,,,,,,,,,,,,,,,,,,,,,,,,,,,,,,,,,,,,,,,,,,,,,,,,,,,,,,,,,,,,,,,,,,,,,,,,,,,,,,,,,,,,
1725715961.309582,1725715961.311607,174.0,0.0,4237.179688,4249.487305,4185.256348,4316.794922,4250.641113,4261.025879,4325.769043,4247.05127,4259.358887,4232.436035,4444.615234,4500.769043,4323.589844,4387.436035,2887.0,1.0,15.0,,,,0.0,4.0,4.0,4.0,4.0,4.0,4.0,4.0,4.0,4.0,4.0,4.0,4.0,4.0,4.0,100.0,,,,,,,,,,,,,,,,,,,,,,,,,,,,,,,,,,,,,,,,,,,,,,,,,,,,,,,,,,,,,,,,,,,,,,,,,,,,,,,,,,,,,,,,,,,,,,,,,,,,,,,,,,,,,,,,,,,,,,,,,,,,,,,,,,,
1725715961.313486,1725715961.315512,175.0,0.0,4236.666504,4249.358887,4184.230957,4316.922852,4250.128418,4260.512695,4325.512695,4247.05127,4255.384766,4232.692383,4442.436035,4495.897461,4320.0,4384.871582,3111.0,1.0,15.0,,,,0.0,4.0,4.0,4.0,4.0,4.0,4.0,4.0,4.0,4.0,4.0,4.0,4.0,4.0,4.0,100.0,,,,,,,,,,,,,,,,,,,,,,,,,,,,,,,,,,,,,,,,,,,,,,,,,,,,,,,,,,,,,,,,,,,,,,,,,,,,,,,,,,,,,,,,,,,,,,,,,,,,,,,,,,,,,,,,,,,,,,,,,,,,,,,,,,,
1725715961.31739,1725715961.319516,176.0,0.0,4235.384766,4248.846191,4183.589844,4318.461426,4249.487305,4261.282227,4324.358887,4246.282227,4250.128418,4231.666504,4441.153809,4491.666504,4317.307617,4381.410156,3428.0,1.0,15.0,,,,0.0,4.0,4.0,4.0,4.0,4.0,4.0,4.0,4.0,4.0,4.0,4.0,4.0,4.0,4.0,100.0,,,,,,,,,,,,,,,,,,,,,,,,,,,,,,,,,,,,,,,,,,,,,,,,,,,,,,,,,,,,,,,,,,,,,,,,,,,,,,,,,,,,,,,,,,,,,,,,,,,,,,,,,,,,,,,,,,,,,,,,,,,,,,,,,,,
1725715961.321294,1725715961.32342,177.0,0.0,4233.589844,4249.230957,4183.974121,4321.410156,4249.358887,4262.820313,4322.436035,4245.0,4246.410156,4229.615234,4441.153809,4491.025879,4317.692383,4379.615234,3832.0,1.0,15.0,,,,0.0,4.0,4.0,4.0,4.0,4.0,4.0,4.0,4.0,4.0,4.0,4.0,4.0,4.0,4.0,100.0,,,,,,,,,,,,,,,,,,,,,,,,,,,,,,,,,,,,,,,,,,,,,,,,,,,,,,,,,,,,,,,,,,,,,,,,,,,,,,,,,,,,,,,,,,,,,,,,,,,,,,,,,,,,,,,,,,,,,,,,,,,,,,,,,,,
1725715961.325198,1725715961.327324,178.0,0.0,4232.436035,4250.384766,4185.384766,4325.128418,4250.128418,4264.102539,4320.0,4244.358887,4247.179688,4228.461426,4442.436035,4495.256348,4321.025879,4381.025879,2887.0,1.0,15.0,,,,0.0,4.0,4.0,4.0,4.0,4.0,4.0,4.0,4.0,4.0,4.0,4.0,4.0,4.0,4.0,100.0,,,,,,,,,,,,,,,,,,,,,,,,,,,,,,,,,,,,,,,,,,,,,,,,,,,,,,,,,,,,,,,,,,,,,,,,,,,,,,,,,,,,,,,,,,,,,,,,,,,,,,,,,,,,,,,,,,,,,,,,,,,,,,,,,,,
1725715961.329102,1725715961.331228,179.0,0.0,4232.820313,4251.153809,4186.794922,4327.94873,4251.538574,4264.358887,4317.563965,4245.128418,4252.307617,4229.487305,4444.230957,4502.692383,4325.128418,4384.743652,3111.0,1.0,15.0,,,,0.0,4.0,4.0,4.0,4.0,4.0,4.0,4.0,4.0,4.0,4.0,4.0,4.0,4.0,4.0,100.0,,,,,,,,,,,,,,,,,,,,,,,,,,,,,,,,,,,,,,,,,,,,,,,,,,,,,,,,,,,,,,,,,,,,,,,,,,,,,,,,,,,,,,,,,,,,,,,,,,,,,,,,,,,,,,,,,,,,,,,,,,,,,,,,,,,
1725715961.333006,1725715961.335232,180.0,0.0,4234.615234,4250.512695,4187.563965,4329.102539,4252.692383,4263.461426,4315.0,4247.179688,4258.846191,4232.179688,4445.256348,4508.974121,4326.666504,4387.94873,3428.0,1.0,15.0,,,,0.0,4.0,4.0,4.0,4.0,4.0,4.0,4.0,4.0,4.0,4.0,4.0,4.0,4.0,4.0,100.0,1.0,16.666666,4.0,4.0,1.0,4.0,4.0,1.0,0.0,4.0,4.0,4.0,4.0,4.0,4.0,4.0,1.0,0.0,0.0,,,,,,,,,,,,,,,,,,,,,,,,,,,,,,,,,,,,,0.0,0.0,1.0,0.0,1024.0,0.021643,2.090477,0.942297,0.750661,0.223709,0.047251,0.703676,0.34497,0.66903,0.151334,0.096534,1.121997,0.432005,0.45743,0.136114,0.059535,4.267618,2.878574,2.19522,0.521283,0.13991,0.650722,0.134151,0.211456,0.064295,0.054547,0.871996,0.31596,0.494819,0.099158,0.065548,2.662776,0.23673,0.131698,0.164707,0.093518,0.981609,1.120705,0.188295,0.261292,0.166237,1.016984,0.787871,0.484222,0.284165,0.073691,1.432413,0.937175,0.448147,0.327427,0.068536,2.664534,1.201719,0.882401,0.595808,0.183007,3.09017,1.167811,0.752557,0.516491,0.198538,2.615074,1.088517,1.165343,0.484724,0.137678,2.291213,0.966064,0.981235,0.365737,0.091394
1725715961.33691,1725715961.339136,181.0,0.0,4235.512695,4248.974121,4186.922852,4328.333496,4252.563965,4262.05127,4312.05127,4249.102539,4262.820313,4234.102539,4444.102539,4510.769043,4324.102539,4387.692383,3832.0,1.0,15.0,,,,0.0,4.0,4.0,4.0,4.0,4.0,4.0,4.0,4.0,4.0,4.0,4.0,4.0,4.0,4.0,100.0,,,,,,,,,,,,,,,,,,,,,,,,,,,,,,,,,,,,,,,,,,,,,,,,,,,,,,,,,,,,,,,,,,,,,,,,,,,,,,,,,,,,,,,,,,,,,,,,,,,,,,,,,,,,,,,,,,,,,,,,,,,,,,,,,,,
1725715961.340814,1725715961.34304,182.0,0.0,4233.333496,4247.692383,4184.743652,4326.282227,4251.282227,4261.153809,4309.487305,4250.0,4261.922852,4233.205078,4440.769043,4508.205078,4318.333496,4384.230957,2887.0,1.0,15.0,,,,0.0,4.0,4.0,4.0,4.0,4.0,4.0,4.0,4.0,4.0,4.0,4.0,4.0,4.0,4.0,100.0,,,,,,,,,,,,,,,,,,,,,,,,,,,,,,,,,,,,,,,,,,,,,,,,,,,,,,,,,,,,,,,,,,,,,,,,,,,,,,,,,,,,,,,,,,,,,,,,,,,,,,,,,,,,,,,,,,,,,,,,,,,,,,,,,,,
1725715961.344719,1725715961.346944,183.0,0.0,4228.077148,4247.692383,4182.563965,4324.230957,4249.743652,4260.769043,4307.563965,4249.871582,4257.307617,4228.974121,4436.153809,4504.230957,4312.307617,4379.743652,3111.0,1.0,15.0,,,,0.0,4.0,4.0,4.0,4.0,4.0,4.0,4.0,4.0,4.0,4.0,4.0,4.0,4.0,4.0,100.0,,,,,,,,,,,,,,,,,,,,,,,,,,,,,,,,,,,,,,,,,,,,,,,,,,,,,,,,,,,,,,,,,,,,,,,,,,,,,,,,,,,,,,,,,,,,,,,,,,,,,,,,,,,,,,,,,,,,,,,,,,,,,,,,,,,
1725715961.348623,1725715961.350848,184.0,0.0,4222.05127,4248.205078,4181.922852,4323.461426,4249.230957,4260.897461,4306.666504,4248.974121,4252.05127,4223.333496,4431.666504,4502.179688,4308.974121,4377.692383,3428.0,1.0,15.0,,,,0.0,4.0,4.0,4.0,4.0,4.0,4.0,4.0,4.0,4.0,4.0,4.0,4.0,4.0,4.0,100.0,,,,,,,,,,,,,,,,,,,,,,,,,,,,,,,,,,,,,,,,,,,,,,,,,,,,,,,,,,,,,,,,,,,,,,,,,,,,,,,,,,,,,,,,,,,,,,,,,,,,,,,,,,,,,,,,,,,,,,,,,,,,,,,,,,,
1725715961.352527,1725715961.354652,185.0,0.0,4218.461426,4248.461426,4183.461426,4324.615234,4250.128418,4261.282227,4306.794922,4247.563965,4249.102539,4219.102539,4428.461426,4502.820313,4308.333496,4379.102539,3832.0,1.0,15.0,,,,0.0,4.0,4.0,4.0,4.0,4.0,4.0,4.0,4.0,4.0,4.0,4.0,4.0,4.0,4.0,100.0,,,,,,,,,,,,,,,,,,,,,,,,,,,,,,,,,,,,,,,,,,,,,,,,,,,,,,,,,,,,,,,,,,,,,,,,,,,,,,,,,,,,,,,,,,,,,,,,,,,,,,,,,,,,,,,,,,,,,,,,,,,,,,,,,,,
1725715961.356431,1725715961.358557,186.0,0.0,4218.974121,4248.461426,4185.769043,4326.922852,4251.666504,4261.922852,4307.820313,4246.153809,4249.102539,4217.692383,4427.05127,4504.487305,4308.974121,4381.794922,2887.0,1.0,15.0,,,,0.0,4.0,4.0,4.0,4.0,4.0,4.0,4.0,4.0,4.0,4.0,4.0,4.0,4.0,4.0,100.0,,,,,,,,,,,,,,,,,,,,,,,,,,,,,,,,,,,,,,,,,,,,,,,,,,,,,,,,,,,,,,,,,,,,,,,,,,,,,,,,,,,,,,,,,,,,,,,,,,,,,,,,,,,,,,,,,,,,,,,,,,,,,,,,,,,
1725715961.360335,1725715961.362461,187.0,0.0,4222.94873,4248.846191,4187.307617,4329.615234,4252.307617,4262.563965,4309.102539,4245.0,4250.512695,4218.205078,4427.179688,4505.128418,4309.102539,4382.692383,3111.0,1.0,15.0,,,,0.0,4.0,4.0,4.0,4.0,4.0,4.0,4.0,4.0,4.0,4.0,4.0,4.0,4.0,4.0,100.0,,,,,,,,,,,,,,,,,,,,,,,,,,,,,,,,,,,,,,,,,,,,,,,,,,,,,,,,,,,,,,,,,,,,,,,,,,,,,,,,,,,,,,,,,,,,,,,,,,,,,,,,,,,,,,,,,,,,,,,,,,,,,,,,,,,
1725715961.364239,1725715961.366265,188.0,0.0,4227.692383,4250.256348,4187.307617,4332.05127,4251.282227,4263.333496,4309.487305,4245.0,4251.282227,4218.846191,4428.077148,4504.615234,4309.102539,4381.025879,3428.0,1.0,15.0,,,,0.0,4.0,4.0,4.0,4.0,4.0,4.0,4.0,4.0,4.0,4.0,4.0,4.0,4.0,4.0,100.0,,,,,,,,,,,,,,,,,,,,,,,,,,,,,,,,,,,,,,,,,,,,,,,,,,,,,,,,0.0,0.0,1.0,0.0,1024.0,0.021643,,,,,,,,,,,,,,,,,,,,,,,,,,,,,,,,,,,,,,,,,,,,,,,,,,,,,,,,,,,,,,,,,,,,,,
1725715961.368143,1725715961.370169,189.0,0.0,4230.769043,4252.563965,4187.05127,4333.974121,4249.615234,4263.974121,4308.589844,4246.282227,4250.641113,4218.205078,4428.974121,4504.102539,4310.0,4378.846191,3832.0,1.0,15.0,,,,0.0,4.0,4.0,4.0,4.0,4.0,4.0,4.0,4.0,4.0,4.0,4.0,4.0,4.0,4.0,100.0,,,,,,,,,,,,,,,,,,,,,,,,,,,,,,,,,,,,,,,,,,,,,,,,,,,,,,,,,,,,,,,,,,,,,,,,,,,,,,,,,,,,,,,,,,,,,,,,,,,,,,,,,,,,,,,,,,,,,,,,,,,,,,,,,,,
1725715961.372047,1725715961.374073,190.0,0.0,4231.282227,4254.871582,4188.333496,4335.641113,4249.487305,4264.230957,4306.922852,4248.205078,4250.0,4216.794922,4429.743652,4504.487305,4311.794922,4379.102539,2887.0,1.0,15.0,,,,0.0,4.0,4.0,4.0,4.0,4.0,4.0,4.0,4.0,4.0,4.0,4.0,4.0,4.0,4.0,100.0,,,,,,,,,,,,,,,,,,,,,,,,,,,,,,,,,,,,,,,,,,,,,,,,,,,,,,,,,,,,,,,,,,,,,,,,,,,,,,,,,,,,,,,,,,,,,,,,,,,,,,,,,,,,,,,,,,,,,,,,,,,,,,,,,,,
1725715961.375951,1725715961.377977,191.0,0.0,4229.871582,4256.282227,4191.666504,4337.307617,4252.05127,4264.487305,4305.897461,4250.0,4250.769043,4216.410156,4430.0,4506.153809,4313.333496,4383.077148,3111.0,1.0,15.0,,,,0.0,4.0,4.0,4.0,4.0,4.0,4.0,4.0,4.0,4.0,4.0,4.0,4.0,4.0,4.0,100.0,,,,,,,,,,,,,,,,,,,,,,,,,,,,,,,,,,,,,,,,,,,,,,,,,,,,,,,,,,,,,,,,,,,,,,,,,,,,,,,,,,,,,,,,,,,,,,,,,,,,,,,,,,,,,,,,,,,,,,,,,,,,,,,,,,,
1725715961.379856,1725715961.381781,192.0,0.0,4228.461426,4255.769043,4196.282227,4339.358887,4256.025879,4265.0,4306.025879,4251.153809,4253.717773,4218.974121,4429.871582,4508.205078,4313.077148,4388.974121,3428.0,1.0,15.0,,,,0.0,4.0,4.0,4.0,4.0,4.0,4.0,4.0,4.0,4.0,4.0,4.0,4.0,4.0,4.0,100.0,,,,,,,,,,,,,,,,,,,,,,,,,,,,,,,,,,,,,,,,,,,,,,,,,,,,,,,,,,,,,,,,,,,,,,,,,,,,,,,,,,,,,,,,,,,,,,,,,,,,,,,,,,,,,,,,,,,,,,,,,,,,,,,,,,,
1725715961.38376,1725715961.385685,193.0,0.0,4228.589844,4253.846191,4200.0,4341.282227,4258.717773,4265.769043,4306.538574,4251.410156,4258.205078,4224.358887,4429.358887,4509.615234,4311.538574,4393.333496,3832.0,1.0,15.0,,,,0.0,4.0,4.0,4.0,4.0,4.0,4.0,4.0,4.0,4.0,4.0,4.0,4.0,4.0,4.0,100.0,,,,,,,,,,,,,,,,,,,,,,,,,,,,,,,,,,,,,,,,,,,,,,,,,,,,,,,,,,,,,,,,,,,,,,,,,,,,,,,,,,,,,,,,,,,,,,,,,,,,,,,,,,,,,,,,,,,,,,,,,,,,,,,,,,,
1725715961.387664,1725715961.38959,194.0,0.0,4230.128418,4251.410156,4201.282227,4342.436035,4258.589844,4266.410156,4306.282227,4251.025879,4262.692383,4230.256348,4428.846191,4509.615234,4310.512695,4393.333496,2887.0,1.0,15.0,,,,0.0,4.0,4.0,4.0,4.0,4.0,4.0,4.0,4.0,4.0,4.0,4.0,4.0,4.0,4.0,100.0,,,,,,,,,,,,,,,,,,,,,,,,,,,,,,,,,,,,,,,,,,,,,,,,,,,,,,,,,,,,,,,,,,,,,,,,,,,,,,,,,,,,,,,,,,,,,,,,,,,,,,,,,,,,,,,,,,,,,,,,,,,,,,,,,,,
1725715961.391568,1725715961.393494,195.0,0.0,4231.666504,4250.0,4199.743652,4341.794922,4256.025879,4266.410156,4304.358887,4250.384766,4265.384766,4233.846191,4428.974121,4509.102539,4311.538574,4389.871582,3111.0,1.0,15.0,,,,0.0,4.0,4.0,4.0,4.0,4.0,4.0,4.0,4.0,4.0,4.0,4.0,4.0,4.0,4.0,100.0,,,,,,,,,,,,,,,,,,,,,,,,,,,,,,,,,,,,,,,,,,,,,,,,,,,,,,,,,,,,,,,,,,,,,,,,,,,,,,,,,,,,,,,,,,,,,,,,,,,,,,,,,,,,,,,,,,,,,,,,,,,,,,,,,,,
1725715961.395472,1725715961.397298,196.0,0.0,4231.794922,4250.0,4196.922852,4339.615234,4253.589844,4266.025879,4300.897461,4249.487305,4265.769043,4233.974121,4430.897461,4508.846191,4314.871582,4386.538574,3428.0,1.0,15.0,,,,0.0,4.0,4.0,4.0,4.0,4.0,4.0,4.0,4.0,4.0,4.0,4.0,4.0,4.0,4.0,100.0,,,,,,,,,,,,,,,,,,,,,,,,,,,,,,,,,,,,,,,,,,,,,,,,,,,,,,,,0.0,0.0,1.0,0.0,1024.0,0.021643,,,,,,,,,,,,,,,,,,,,,,,,,,,,,,,,,,,,,,,,,,,,,,,,,,,,,,,,,,,,,,,,,,,,,,
1725715961.399376,1725715961.401202,197.0,0.0,4231.025879,4250.897461,4194.743652,4336.922852,4253.077148,4265.769043,4297.179688,4248.589844,4264.615234,4232.436035,4434.743652,4509.358887,4319.487305,4386.410156,3832.0,1.0,15.0,,,,0.0,4.0,4.0,4.0,4.0,4.0,4.0,4.0,4.0,4.0,4.0,4.0,4.0,4.0,4.0,100.0,,,,,,,,,,,,,,,,,,,,,,,,,,,,,,,,,,,,,,,,,,,,,,,,,,,,,,,,,,,,,,,,,,,,,,,,,,,,,,,,,,,,,,,,,,,,,,,,,,,,,,,,,,,,,,,,,,,,,,,,,,,,,,,,,,,
1725715961.40328,1725715961.405206,198.0,0.0,4230.256348,4251.666504,4194.743652,4335.384766,4255.0,4266.410156,4294.230957,4247.94873,4263.717773,4232.563965,4439.358887,4510.128418,4323.717773,4390.0,2887.0,1.0,15.0,,,,0.0,4.0,4.0,4.0,4.0,4.0,4.0,4.0,4.0,4.0,4.0,4.0,4.0,4.0,4.0,100.0,,,,,,,,,,,,,,,,,,,,,,,,,,,,,,,,,,,,,,,,,,,,,,,,,,,,,,,,,,,,,,,,,,,,,,,,,,,,,,,,,,,,,,,,,,,,,,,,,,,,,,,,,,,,,,,,,,,,,,,,,,,,,,,,,,,
1725715961.407184,1725715961.40911,199.0,0.0,4230.256348,4251.666504,4196.794922,4335.128418,4257.692383,4268.077148,4292.179688,4248.333496,4264.358887,4236.153809,4442.94873,4510.0,4326.282227,4395.0,3111.0,1.0,15.0,,,,0.0,4.0,4.0,4.0,4.0,4.0,4.0,4.0,4.0,4.0,4.0,4.0,4.0,4.0,4.0,100.0,,,,,,,,,,,,,,,,,,,,,,,,,,,,,,,,,,,,,,,,,,,,,,,,,,,,,,,,,,,,,,,,,,,,,,,,,,,,,,,,,,,,,,,,,,,,,,,,,,,,,,,,,,,,,,,,,,,,,,,,,,,,,,,,,,,
1725715961.411088,1725715961.413014,200.0,0.0,4230.384766,4251.153809,4199.615234,4335.897461,4259.487305,4270.512695,4290.769043,4249.743652,4266.282227,4241.922852,4444.615234,4508.846191,4327.820313,4398.589844,3428.0,1.0,15.0,,,,0.0,4.0,4.0,4.0,4.0,4.0,4.0,4.0,4.0,4.0,4.0,4.0,4.0,4.0,4.0,100.0,,,,,,,,,,,,,,,,,,,,,,,,,,,,,,,,,,,,,,,,,,,,,,,,,,,,,,,,,,,,,,,,,,,,,,,,,,,,,,,,,,,,,,,,,,,,,,,,,,,,,,,,,,,,,,,,,,,,,,,,,,,,,,,,,,,
1725715961.414992,1725715961.416918,201.0,0.0,4229.871582,4251.025879,4201.410156,4336.666504,4260.0,4272.94873,4289.358887,4251.282227,4267.692383,4247.179688,4445.0,4507.94873,4329.487305,4399.743652,3832.0,1.0,15.0,,,,0.0,4.0,4.0,4.0,4.0,4.0,4.0,4.0,4.0,4.0,4.0,4.0,4.0,4.0,4.0,100.0,,,,,,,,,,,,,,,,,,,,,,,,,,,,,,,,,,,,,,,,,,,,,,,,,,,,,,,,,,,,,,,,,,,,,,,,,,,,,,,,,,,,,,,,,,,,,,,,,,,,,,,,,,,,,,,,,,,,,,,,,,,,,,,,,,,
1725715961.418897,1725715961.420822,202.0,0.0,4229.230957,4252.692383,4201.282227,4337.179688,4260.128418,4274.487305,4288.205078,4252.05127,4267.692383,4249.358887,4445.769043,4509.487305,4332.692383,4399.615234,2887.0,1.0,15.0,,,,0.0,4.0,4.0,4.0,4.0,4.0,4.0,4.0,4.0,4.0,4.0,4.0,4.0,4.0,4.0,100.0,,,,,,,,,,,,,,,,,,,,,,,,,,,,,,,,,,,,,,,,,,,,,,,,,,,,,,,,,,,,,,,,,,,,,,,,,,,,,,,,,,,,,,,,,,,,,,,,,,,,,,,,,,,,,,,,,,,,,,,,,,,,,,,,,,,
1725715961.422801,1725715961.424826,203.0,0.0,4230.0,4256.153809,4200.256348,4338.589844,4261.025879,4275.128418,4287.692383,4251.666504,4266.410156,4248.461426,4448.461426,4514.615234,4337.692383,4400.512695,3111.0,1.0,15.0,,,,0.0,4.0,4.0,4.0,4.0,4.0,4.0,4.0,4.0,4.0,4.0,4.0,4.0,4.0,4.0,100.0,,,,,,,,,,,,,,,,,,,,,,,,,,,,,,,,,,,,,,,,,,,,,,,,,,,,,,,,,,,,,,,,,,,,,,,,,,,,,,,,,,,,,,,,,,,,,,,,,,,,,,,,,,,,,,,,,,,,,,,,,,,,,,,,,,,
1725715961.426705,1725715961.428731,204.0,0.0,4233.205078,4260.769043,4199.871582,4341.794922,4262.820313,4275.384766,4288.077148,4251.025879,4265.641113,4246.538574,4453.333496,4522.307617,4343.846191,4403.846191,3428.0,1.0,15.0,,,,0.0,4.0,4.0,4.0,4.0,4.0,4.0,4.0,4.0,4.0,4.0,4.0,4.0,4.0,4.0,100.0,,,,,,,,,,,,,,,,,,,,,,,,,,,,,,,,,,,,,,,,,,,,,,,,,,,,,,,,0.0,0.0,1.0,0.0,1024.0,0.021643,,,,,,,,,,,,,,,,,,,,,,,,,,,,,,,,,,,,,,,,,,,,,,,,,,,,,,,,,,,,,,,,,,,,,,
1725715961.430609,1725715961.432635,205.0,0.0,4238.077148,4265.128418,4201.410156,4346.410156,4264.487305,4276.153809,4289.102539,4251.922852,4267.307617,4245.641113,4459.358887,4530.128418,4349.487305,4409.102539,3832.0,1.0,15.0,,,,0.0,4.0,4.0,4.0,4.0,4.0,4.0,4.0,4.0,4.0,4.0,4.0,4.0,4.0,4.0,100.0,,,,,,,,,,,,,,,,,,,,,,,,,,,,,,,,,,,,,,,,,,,,,,,,,,,,,,,,,,,,,,,,,,,,,,,,,,,,,,,,,,,,,,,,,,,,,,,,,,,,,,,,,,,,,,,,,,,,,,,,,,,,,,,,,,,
