Timestamp,OriginalTimestamp,EEG.Counter,EEG.Interpolated,EEG.AF3,EEG.F7,EEG.F3,EEG.FC5,EEG.T7,EEG.P7,EEG.O1,EEG.O2,EEG.P8,EEG.T8,EEG.FC6,EEG.F4,EEG.F8,EEG.AF4,EEG.RawCq,EEG.Battery,EEG.BatteryPercent,MarkerIndex,MarkerType,MarkerValueInt,EEG.MarkerHardware,CQ.AF3,CQ.F7,CQ.F3,CQ.FC5,CQ.T7,CQ.P7,CQ.O1,CQ.O2,CQ.P8,CQ.T8,CQ.FC6,CQ.F4,CQ.F8,CQ.AF4,CQ.Overall,EQ.SampleRateQuality,EQ.OVERALL,EQ.AF3,EQ.F7,EQ.F3,EQ.FC5,EQ.T7,EQ.P7,EQ.O1,EQ.O2,EQ.P8,EQ.T8,EQ.FC6,EQ.F4,EQ.F8,EQ.AF4,MC.Action,MC.ActionPower,MC.IsActive,PM.Attention.IsActive,PM.Attention.Scaled,PM.Attention.Raw,PM.Attention.Min,PM.Attention.Max,PM.Engagement.IsActive,PM.Engagement.Scaled,PM.Engagement.Raw,PM.Engagement.Min,PM.Engagement.Max,PM.Excitement.IsActive,PM.Excitement.Scaled,PM.Excitement.Raw,PM.Excitement.Min,PM.Excitement.Max,PM.LongTermExcitement,PM.Stress.IsActive,PM.Stress.Scaled,PM.Stress.Raw,PM.Stress.Min,PM.Stress.Max,PM.Relaxation.IsActive,PM.Relaxation.Scaled,PM.Relaxation.Raw,PM.Relaxation.Min,PM.Relaxation.Max,PM.Interest.IsActive,PM.Interest.Scaled,PM.Interest.Raw,PM.Interest.Min,PM.Interest.Max,PM.Focus.IsActive,PM.Focus.Scaled,PM.Focus.Raw,PM.Focus.Min,PM.Focus.Max,FE.BlinkWink,FE.HorizontalEyesDirection,FE.UpperFaceAction,FE.UpperFaceActionPower,FE.LowerFaceAction,FE.LowerFaceActionPower,POW.AF3.Theta,POW.AF3.Alpha,POW.AF3.BetaL,POW.AF3.BetaH,POW.AF3.Gamma,POW.F7.Theta,POW.F7.Alpha,POW.F7.BetaL,POW.F7.BetaH,POW.F7.Gamma,POW.F3.Theta,POW.F3.Alpha,POW.F3.BetaL,POW.F3.BetaH,POW.F3.Gamma,POW.FC5.Theta,POW.FC5.Alpha,POW.FC5.BetaL,POW.FC5.BetaH,POW.FC5.Gamma,POW.T7.Theta,POW.T7.Alpha,POW.T7.BetaL,POW.T7.BetaH,POW.T7.Gamma,POW.P7.Theta,POW.P7.Alpha,POW.P7.BetaL,POW.P7.BetaH,POW.P7.Gamma,POW.O1.Theta,POW.O1.Alpha,POW.O1.BetaL,POW.O1.BetaH,POW.O1.Gamma,POW.O2.Theta,POW.O2.Alpha,POW.O2.BetaL,POW.O2.BetaH,POW.O2.Gamma,POW.P8.Theta,POW.P8.Alpha,POW.P8.BetaL,POW.P8.BetaH,POW.P8.Gamma,POW.T8.Theta,POW.T8.Alpha,POW.T8.BetaL,POW.T8.BetaH,POW.T8.Gamma,POW.FC6.Theta,POW.FC6.Alpha,POW.FC6.BetaL,POW.FC6.BetaH,POW.FC6.Gamma,POW.F4.Theta,POW.F4.Alpha,POW.F4.BetaL,POW.F4.BetaH,POW.F4.Gamma,POW.F8.Theta,POW.F8.Alpha,POW.F8.BetaL,POW.F8.BetaH,POW.F8.Gamma,POW.AF4.Theta,POW.AF4.Alpha,POW.AF4.BetaL,POW.AF4.BetaH,POW.AF4.Gamma
1725618246.621066,1725618246.622284,160.0,0.0,4248.846191,4234.230957,4283.974121,4279.871582,4213.974121,4217.179688,4234.230957,4207.05127,4202.436035,4214.487305,4525.512695,4512.05127,4388.717773,4445.0,3433.0,2.0,35.0,13.0,1.0,1.0,0.0,4.0,4.0,4.0,4.0,4.0,4.0,4.0,4.0,4.0,4.0,4.0,4.0,4.0,4.0,100.0,,,,,,,,,,,,,,,,,,,,,,,,,,,,,,,,,,,,,,,,,,,,,,,,,,,,,,,,,,,,,,,,,,,,,,,,,,,,,,,,,,,,,,,,,,,,,,,,,,,,,,,,,,,,,,,,,,,,,,,,,,,,,,,,,,,
1725618246.62497,1725618246.626088,161.0,0.0,4245.641113,4231.922852,4279.743652,4277.436035,4209.743652,4216.922852,4233.461426,4207.307617,4200.897461,4212.94873,4522.179688,4508.205078,4388.846191,4441.153809,3901.0,2.0,35.0,,,,0.0,4.0,4.0,4.0,4.0,4.0,4.0,4.0,4.0,4.0,4.0,4.0,4.0,4.0,4.0,100.0,,,,,,,,,,,,,,,,,,,,,,,,,,,,,,,,,,,,,,,,,,,,,,,,,,,,,,,,,,,,,,,,,,,,,,,,,,,,,,,,,,,,,,,,,,,,,,,,,,,,,,,,,,,,,,,,,,,,,,,,,,,,,,,,,,,
1725618246.628874,1725618246.629992,162.0,0.0,4243.717773,4229.358887,4277.563965,4275.512695,4207.563965,4216.666504,4233.077148,4211.410156,4200.769043,4212.436035,4519.615234,4509.230957,4390.0,4440.512695,2897.0,2.0,35.0,,,,0.0,4.0,4.0,4.0,4.0,4.0,4.0,4.0,4.0,4.0,4.0,4.0,4.0,4.0,4.0,100.0,,,,,,,,,,,,,,,,,1.0,0.0,0.0,,,,,,,,,,,,,,,,,,,,,,,,,,,,,,,,,,,,,0.0,0.0,1.0,0.0,1.0,0.0,2.03534,0.990821,0.675516,0.199105,0.064888,1.398437,1.076188,0.499258,0.30732,0.105797,1.385971,0.876687,0.779932,0.240542,0.053685,1.015668,1.219704,0.731953,0.199604,0.056568,0.714614,0.334405,0.191601,0.083117,0.04215,0.192582,0.257506,0.125064,0.058682,0.032454,0.507401,0.421011,0.341462,0.087937,0.044082,0.368537,1.834132,0.67188,0.471889,0.177087,1.090516,0.702436,0.898665,0.465025,0.098086,2.498733,1.114732,0.711779,0.314971,0.066072,1.792535,2.008278,0.889337,0.541923,0.149854,2.456168,1.307508,0.789584,0.785118,0.140041,3.384063,1.955447,1.026669,0.415853,0.081867,2.050278,1.500759,0.964686,0.4096,0.139735
1725618246.632778,1725618246.633896,163.0,0.0,4243.717773,4228.205078,4277.563965,4275.0,4208.974121,4216.666504,4233.205078,4215.384766,4202.05127,4213.589844,4519.743652,4512.563965,4392.307617,4441.410156,3072.0,2.0,35.0,,,,0.0,4.0,4.0,4.0,4.0,4.0,4.0,4.0,4.0,4.0,4.0,4.0,4.0,4.0,4.0,100.0,,,,,,,,,,,,,,,,,,,,,,,,,,,,,,,,,,,,,,,,,,,,,,,,,,,,,,,,,,,,,,,,,,,,,,,,,,,,,,,,,,,,,,,,,,,,,,,,,,,,,,,,,,,,,,,,,,,,,,,,,,,,,,,,,,,
1725618246.636682,1725618246.637801,164.0,0.0,4244.230957,4229.615234,4278.974121,4276.025879,4212.179688,4216.922852,4233.589844,4214.871582,4203.717773,4215.897461,4522.05127,4514.615234,4395.512695,4442.05127,3433.0,2.0,35.0,,,,0.0,4.0,4.0,4.0,4.0,4.0,4.0,4.0,4.0,4.0,4.0,4.0,4.0,4.0,4.0,100.0,,,,,,,,,,,,,,,,,,,,,,,,,,,,,,,,,,,,,,,,,,,,,,,,,,,,,,,,,,,,,,,,,,,,,,,,,,,,,,,,,,,,,,,,,,,,,,,,,,,,,,,,,,,,,,,,,,,,,,,,,,,,,,,,,,,
1725618246.640586,1725618246.641605,165.0,0.0,4243.974121,4232.436035,4280.0,4277.563965,4213.589844,4217.05127,4233.846191,4209.358887,4204.230957,4218.333496,4524.487305,4514.230957,4398.077148,4442.05127,3901.0,2.0,35.0,,,,0.0,4.0,4.0,4.0,4.0,4.0,4.0,4.0,4.0,4.0,4.0,4.0,4.0,4.0,4.0,100.0,,,,,,,,,,,,,,,,,,,,,,,,,,,,,,,,,,,,,,,,,,,,,,,,,,,,,,,,,,,,,,,,,,,,,,,,,,,,,,,,,,,,,,,,,,,,,,,,,,,,,,,,,,,,,,,,,,,,,,,,,,,,,,,,,,,
1725618246.64449,1725618246.645509,166.0,0.0,4242.307617,4233.717773,4279.487305,4277.563965,4211.153809,4216.666504,4233.717773,4201.922852,4203.077148,4219.743652,4525.512695,4512.05127,4397.94873,4441.794922,2897.0,2.0,35.0,,,,0.0,4.0,4.0,4.0,4.0,4.0,4.0,4.0,4.0,4.0,4.0,4.0,4.0,4.0,4.0,100.0,,,,,,,,,,,,,,,,,,,,,,,,,,,,,,,,,,,,,,,,,,,,,,,,,,,,,,,,,,,,,,,,,,,,,,,,,,,,,,,,,,,,,,,,,,,,,,,,,,,,,,,,,,,,,,,,,,,,,,,,,,,,,,,,,,,
1725618246.648394,1725618246.649413,167.0,0.0,4239.358887,4231.153809,4277.05127,4274.871582,4205.512695,4215.641113,4232.820313,4197.05127,4200.512695,4218.717773,4524.487305,4509.487305,4394.615234,4441.153809,3072.0,2.0,35.0,,,,0.0,4.0,4.0,4.0,4.0,4.0,4.0,4.0,4.0,4.0,4.0,4.0,4.0,4.0,4.0,100.0,,,,,,,,,,,,,,,,,,,,,,,,,,,,,,,,,,,,,,,,,,,,,,,,,,,,,,,,,,,,,,,,,,,,,,,,,,,,,,,,,,,,,,,,,,,,,,,,,,,,,,,,,,,,,,,,,,,,,,,,,,,,,,,,,,,
1725618246.652298,1725618246.653317,168.0,0.0,4236.025879,4225.384766,4273.846191,4270.384766,4200.128418,4214.358887,4231.538574,4197.05127,4198.205078,4214.743652,4522.179688,4507.436035,4388.974121,4439.230957,3433.0,2.0,35.0,,,,0.0,4.0,4.0,4.0,4.0,4.0,4.0,4.0,4.0,4.0,4.0,4.0,4.0,4.0,4.0,100.0,,,,,,,,,,,,,,,,,,,,,,,,,,,,,,,,,,,,,,,,,,,,,,,,,,,,,,,,,,,,,,,,,,,,,,,,,,,,,,,,,,,,,,,,,,,,,,,,,,,,,,,,,,,,,,,,,,,,,,,,,,,,,,,,,,,
1725618246.656202,1725618246.657121,169.0,0.0,4233.077148,4219.358887,4271.410156,4266.538574,4197.692383,4213.205078,4230.256348,4200.897461,4197.179688,4208.717773,4518.846191,4506.282227,4383.846191,4435.897461,3901.0,2.0,35.0,,,,0.0,4.0,4.0,4.0,4.0,4.0,4.0,4.0,4.0,4.0,4.0,4.0,4.0,4.0,4.0,100.0,,,,,,,,,,,,,,,,,,,,,,,,,,,,,,,,,,,,,,,,,,,,,,,,,,,,,,,,,,,,,,,,,,,,,,,,,,,,,,,,,,,,,,,,,,,,,,,,,,,,,,,,,,,,,,,,,,,,,,,,,,,,,,,,,,,
1725618246.660107,1725618246.661025,170.0,0.0,4231.794922,4217.179688,4270.897461,4265.641113,4198.717773,4212.436035,4229.615234,4204.358887,4197.563965,4202.94873,4515.128418,4506.153809,4381.282227,4431.922852,2897.0,2.0,35.0,,,,0.0,4.0,4.0,4.0,4.0,4.0,4.0,4.0,4.0,4.0,4.0,4.0,4.0,4.0,4.0,100.0,,,,,,,,,,,,,,,,,,,,,,,,,,,,,,,,,,,,,,,,,,,,,,,,,,,,,,,,0.0,0.0,1.0,0.0,1.0,0.0,,,,,,,,,,,,,,,,,,,,,,,,,,,,,,,,,,,,,,,,,,,,,,,,,,,,,,,,,,,,,,,,,,,,,,
1725618246.664011,1725618246.664929,171.0,0.0,4232.94873,4220.384766,4272.307617,4268.205078,4201.153809,4212.436035,4229.871582,4204.102539,4198.205078,4199.871582,4511.922852,4506.538574,4382.307617,4429.230957,3072.0,2.0,35.0,,,,0.0,4.0,4.0,4.0,4.0,4.0,4.0,4.0,4.0,4.0,4.0,4.0,4.0,4.0,4.0,100.0,,,,,,,,,,,,,,,,,,,,,,,,,,,,,,,,,,,,,,,,,,,,,,,,,,,,,,,,,,,,,,,,,,,,,,,,,,,,,,,,,,,,,,,,,,,,,,,,,,,,,,,,,,,,,,,,,,,,,,,,,,,,,,,,,,,
1725618246.667915,1725618246.668734,172.0,0.0,4236.794922,4226.794922,4275.128418,4272.563965,4202.820313,4213.077148,4230.769043,4200.128418,4198.717773,4201.025879,4511.025879,4506.666504,4385.512695,4429.871582,3433.0,2.0,35.0,,,,0.0,4.0,4.0,4.0,4.0,4.0,4.0,4.0,4.0,4.0,4.0,4.0,4.0,4.0,4.0,100.0,,,,,,,,,,,,,,,,,,,,,,,,,,,,,,,,,,,,,,,,,,,,,,,,,,,,,,,,,,,,,,,,,,,,,,,,,,,,,,,,,,,,,,,,,,,,,,,,,,,,,,,,,,,,,,,,,,,,,,,,,,,,,,,,,,,
1725618246.671819,1725618246.672638,173.0,0.0,4242.05127,4232.307617,4277.94873,4276.794922,4203.589844,4214.102539,4231.538574,4196.538574,4198.846191,4205.769043,4513.333496,4506.282227,4389.230957,4433.846191,3901.0,2.0,35.0,,,,0.0,4.0,4.0,4.0,4.0,4.0,4.0,4.0,4.0,4.0,4.0,4.0,4.0,4.0,4.0,100.0,,,,,,,,,,,,,,,,,,,,,,,,,,,,,,,,,,,,,,,,,,,,,,,,,,,,,,,,,,,,,,,,,,,,,,,,,,,,,,,,,,,,,,,,,,,,,,,,,,,,,,,,,,,,,,,,,,,,,,,,,,,,,,,,,,,
1725618246.675723,1725618246.676542,174.0,0.0,4246.922852,4233.974121,4279.743652,4279.230957,4204.615234,4215.128418,4232.05127,4197.692383,4199.102539,4211.538574,4518.333496,4506.538574,4392.436035,4439.230957,2897.0,2.0,35.0,,,,0.0,4.0,4.0,4.0,4.0,4.0,4.0,4.0,4.0,4.0,4.0,4.0,4.0,4.0,4.0,100.0,,,,,,,,,,,,,,,,,,,,,,,,,,,,,,,,,,,,,,,,,,,,,,,,,,,,,,,,,,,,,,,,,,,,,,,,,,,,,,,,,,,,,,,,,,,,,,,,,,,,,,,,,,,,,,,,,,,,,,,,,,,,,,,,,,,
1725618246.679627,1725618246.680546,175.0,0.0,4249.743652,4232.05127,4280.256348,4279.871582,4207.692383,4215.769043,4232.436035,4204.230957,4199.871582,4215.769043,4523.846191,4508.461426,4395.0,4443.333496,3072.0,2.0,35.0,,,,0.0,4.0,4.0,4.0,4.0,4.0,4.0,4.0,4.0,4.0,4.0,4.0,4.0,4.0,4.0,100.0,,,,,,,,,,,,,,,,,,,,,,,,,,,,,,,,,,,,,,,,,,,,,,,,,,,,,,,,,,,,,,,,,,,,,,,,,,,,,,,,,,,,,,,,,,,,,,,,,,,,,,,,,,,,,,,,,,,,,,,,,,,,,,,,,,,
1725618246.683531,1725618246.68445,176.0,0.0,4250.384766,4229.358887,4280.512695,4280.0,4212.820313,4216.282227,4232.94873,4212.436035,4201.282227,4216.922852,4527.05127,4512.692383,4397.179688,4445.0,3433.0,2.0,35.0,,,,0.0,4.0,4.0,4.0,4.0,4.0,4.0,4.0,4.0,4.0,4.0,4.0,4.0,4.0,4.0,100.0,,,,,,,,,,,,,,,,,,,,,,,,,,,,,,,,,,,,,,,,,,,,,,,,,,,,,,,,,,,,,,,,,,,,,,,,,,,,,,,,,,,,,,,,,,,,,,,,,,,,,,,,,,,,,,,,,,,,,,,,,,,,,,,,,,,
1725618246.687435,1725618246.688354,177.0,0.0,4249.871582,4228.974121,4281.153809,4280.512695,4217.436035,4216.666504,4233.717773,4217.307617,4202.820313,4215.641113,4526.794922,4517.820313,4398.974121,4444.871582,3901.0,2.0,35.0,,,,0.0,4.0,4.0,4.0,4.0,4.0,4.0,4.0,4.0,4.0,4.0,4.0,4.0,4.0,4.0,100.0,,,,,,,,,,,,,,,,,,,,,,,,,,,,,,,,,,,,,,,,,,,,,,,,,,,,,,,,,,,,,,,,,,,,,,,,,,,,,,,,,,,,,,,,,,,,,,,,,,,,,,,,,,,,,,,,,,,,,,,,,,,,,,,,,,,
1725618246.691339,1725618246.692258,178.0,0.0,4249.615234,4231.538574,4282.436035,4281.794922,4219.102539,4217.05127,4234.230957,4216.153809,4203.589844,4213.461426,4524.102539,4521.410156,4399.743652,4444.487305,2897.0,2.0,35.0,,,,0.0,4.0,4.0,4.0,4.0,4.0,4.0,4.0,4.0,4.0,4.0,4.0,4.0,4.0,4.0,100.0,,,,,,,,,,,,,,,,,,,,,,,,,,,,,,,,,,,,,,,,,,,,,,,,,,,,,,,,0.0,0.0,1.0,0.0,1.0,0.0,,,,,,,,,,,,,,,,,,,,,,,,,,,,,,,,,,,,,,,,,,,,,,,,,,,,,,,,,,,,,,,,,,,,,,
1725618246.695243,1725618246.696262,179.0,0.0,4250.256348,4235.512695,4283.589844,4283.205078,4217.307617,4217.307617,4234.615234,4210.0,4203.205078,4211.922852,4521.794922,4521.410156,4398.589844,4444.871582,3072.0,2.0,35.0,,,,0.0,4.0,4.0,4.0,4.0,4.0,4.0,4.0,4.0,4.0,4.0,4.0,4.0,4.0,4.0,100.0,,,,,,,,,,,,,,,,,,,,,,,,,,,,,,,,,,,,,,,,,,,,,,,,,,,,,,,,,,,,,,,,,,,,,,,,,,,,,,,,,,,,,,,,,,,,,,,,,,,,,,,,,,,,,,,,,,,,,,,,,,,,,,,,,,,
1725618246.699148,1725618246.700166,180.0,0.0,4251.282227,4237.94873,4283.974121,4283.589844,4214.358887,4217.563965,4234.615234,4202.436035,4202.179688,4211.666504,4521.794922,4517.692383,4395.641113,4445.641113,3433.0,2.0,35.0,,,,0.0,4.0,4.0,4.0,4.0,4.0,4.0,4.0,4.0,4.0,4.0,4.0,4.0,4.0,4.0,100.0,,,,,,,,,,,,,,,,,,,,,,,,,,,,,,,,,,,,,,,,,,,,,,,,,,,,,,,,,,,,,,,,,,,,,,,,,,,,,,,,,,,,,,,,,,,,,,,,,,,,,,,,,,,,,,,,,,,,,,,,,,,,,,,,,,,
1725618246.703052,1725618246.70407,181.0,0.0,4251.794922,4237.692383,4283.589844,4282.820313,4213.077148,4217.820313,4234.358887,4197.692383,4201.410156,4212.05127,4523.717773,4512.563965,4392.05127,4445.641113,3901.0,2.0,35.0,,,,0.0,4.0,4.0,4.0,4.0,4.0,4.0,4.0,4.0,4.0,4.0,4.0,4.0,4.0,4.0,100.0,,,,,,,,,,,,,,,,,,,,,,,,,,,,,,,,,,,,,,,,,,,,,,,,,,,,,,,,,,,,,,,,,,,,,,,,,,,,,,,,,,,,,,,,,,,,,,,,,,,,,,,,,,,,,,,,,,,,,,,,,,,,,,,,,,,
1725618246.706956,1725618246.707974,182.0,0.0,4251.153809,4236.025879,4283.333496,4281.666504,4214.487305,4218.333496,4234.102539,4197.820313,4202.05127,4212.307617,4525.384766,4509.743652,4389.230957,4445.256348,2897.0,2.0,35.0,,,,0.0,4.0,4.0,4.0,4.0,4.0,4.0,4.0,4.0,4.0,4.0,4.0,4.0,4.0,4.0,100.0,,,,,,,,,,,,,,,,,,,,,,,,,,,,,,,,,,,,,,,,,,,,,,,,,,,,,,,,,,,,,,,,,,,,,,,,,,,,,,,,,,,,,,,,,,,,,,,,,,,,,,,,,,,,,,,,,,,,,,,,,,,,,,,,,,,
1725618246.71086,1725618246.711978,183.0,0.0,4249.743652,4234.871582,4284.230957,4281.282227,4216.666504,4219.230957,4233.974121,4202.05127,4204.615234,4212.820313,4525.0,4511.153809,4388.461426,4444.871582,3072.0,2.0,35.0,,,,0.0,4.0,4.0,4.0,4.0,4.0,4.0,4.0,4.0,4.0,4.0,4.0,4.0,4.0,4.0,100.0,,,,,,,,,,,,,,,,,,,,,,,,,,,,,,,,,,,,,,,,,,,,,,,,,,,,,,,,,,,,,,,,,,,,,,,,,,,,,,,,,,,,,,,,,,,,,,,,,,,,,,,,,,,,,,,,,,,,,,,,,,,,,,,,,,,
1725618246.714764,1725618246.715883,184.0,0.0,4248.717773,4235.384766,4286.410156,4281.282227,4217.307617,4219.743652,4233.717773,4208.077148,4208.974121,4214.102539,4523.205078,4516.025879,4388.974121,4445.256348,3433.0,2.0,35.0,,,,0.0,4.0,4.0,4.0,4.0,4.0,4.0,4.0,4.0,4.0,4.0,4.0,4.0,4.0,4.0,100.0,,,,,,,,,,,,,,,,,,,,,,,,,,,,,,,,,,,,,,,,,,,,,,,,,,,,,,,,,,,,,,,,,,,,,,,,,,,,,,,,,,,,,,,,,,,,,,,,,,,,,,,,,,,,,,,,,,,,,,,,,,,,,,,,,,,
1725618246.718668,1725618246.719787,185.0,0.0,4249.102539,4236.538574,4288.717773,4281.282227,4214.871582,4219.743652,4233.077148,4214.102539,4213.974121,4216.538574,4522.436035,4521.410156,4389.615234,4446.282227,3901.0,2.0,35.0,,,,0.0,4.0,4.0,4.0,4.0,4.0,4.0,4.0,4.0,4.0,4.0,4.0,4.0,4.0,4.0,100.0,,,,,,,,,,,,,,,,,,,,,,,,,,,,,,,,,,,,,,,,,,,,,,,,,,,,,,,,,,,,,,,,,,,,,,,,,,,,,,,,,,,,,,,,,,,,,,,,,,,,,,,,,,,,,,,,,,,,,,,,,,,,,,,,,,,
1725618246.722572,1725618246.723691,186.0,0.0,4250.512695,4236.666504,4289.871582,4281.282227,4210.128418,4219.358887,4232.307617,4220.128418,4218.077148,4219.487305,4525.128418,4525.256348,4390.0,4447.436035,2897.0,2.0,35.0,,,,0.0,4.0,4.0,4.0,4.0,4.0,4.0,4.0,4.0,4.0,4.0,4.0,4.0,4.0,4.0,100.0,,,,,,,,,,,,,,,,,,,,,,,,,,,,,,,,,,,,,,,,,,,,,,,,,,,,,,,,0.0,0.0,1.0,0.0,1.0,0.0,,,,,,,,,,,,,,,,,,,,,,,,,,,,,,,,,,,,,,,,,,,,,,,,,,,,,,,,,,,,,,,,,,,,,,
1725618246.726476,1725618246.727595,187.0,0.0,4251.538574,4235.512695,4290.0,4281.153809,4205.512695,4219.230957,4231.666504,4226.666504,4220.256348,4221.025879,4531.282227,4527.820313,4390.128418,4448.846191,3072.0,2.0,35.0,,,,0.0,4.0,4.0,4.0,4.0,4.0,4.0,4.0,4.0,4.0,4.0,4.0,4.0,4.0,4.0,100.0,,,,,,,,,,,,,,,,,,,,,,,,,,,,,,,,,,,,,,,,,,,,,,,,,,,,,,,,,,,,,,,,,,,,,,,,,,,,,,,,,,,,,,,,,,,,,,,,,,,,,,,,,,,,,,,,,,,,,,,,,,,,,,,,,,,
1725618246.73038,1725618246.731399,188.0,0.0,4251.410156,4233.974121,4290.0,4281.282227,4202.94873,4219.615234,4231.666504,4232.692383,4220.641113,4220.641113,4537.94873,4530.641113,4390.384766,4450.384766,3433.0,2.0,35.0,,,,0.0,4.0,4.0,4.0,4.0,4.0,4.0,4.0,4.0,4.0,4.0,4.0,4.0,4.0,4.0,100.0,,,,,,,,,,,,,,,,,,,,,,,,,,,,,,,,,,,,,,,,,,,,,,,,,,,,,,,,,,,,,,,,,,,,,,,,,,,,,,,,,,,,,,,,,,,,,,,,,,,,,,,,,,,,,,,,,,,,,,,,,,,,,,,,,,,
1725618246.734285,1725618246.735303,189.0,0.0,4250.897461,4232.94873,4290.512695,4281.538574,4202.692383,4220.512695,4232.05127,4235.256348,4219.743652,4219.487305,4541.538574,4533.974121,4390.512695,4452.692383,3901.0,2.0,35.0,,,,0.0,4.0,4.0,4.0,4.0,4.0,4.0,4.0,4.0,4.0,4.0,4.0,4.0,4.0,4.0,100.0,,,,,,,,,,,,,,,,,,,,,,,,,,,,,,,,,,,,,,,,,,,,,,,,,,,,,,,,,,,,,,,,,,,,,,,,,,,,,,,,,,,,,,,,,,,,,,,,,,,,,,,,,,,,,,,,,,,,,,,,,,,,,,,,,,,
1725618246.738189,1725618246.739207,190.0,0.0,4251.538574,4232.94873,4291.794922,4282.05127,4203.974121,4221.025879,4232.436035,4232.179688,4218.333496,4219.871582,4540.897461,4536.794922,4390.256348,4455.256348,2897.0,2.0,35.0,,,,0.0,4.0,4.0,4.0,4.0,4.0,4.0,4.0,4.0,4.0,4.0,4.0,4.0,4.0,4.0,100.0,,,,,,,,,,,,,,,,,,,,,,,,,,,,,,,,,,,,,,,,,,,,,,,,,,,,,,,,,,,,,,,,,,,,,,,,,,,,,,,,,,,,,,,,,,,,,,,,,,,,,,,,,,,,,,,,,,,,,,,,,,,,,,,,,,,
1725618246.742093,1725618246.743111,191.0,0.0,4254.615234,4234.102539,4293.589844,4283.077148,4205.0,4221.025879,4232.692383,4224.487305,4217.307617,4223.205078,4537.436035,4537.820313,4389.743652,4457.563965,3072.0,2.0,35.0,,,,0.0,4.0,4.0,4.0,4.0,4.0,4.0,4.0,4.0,4.0,4.0,4.0,4.0,4.0,4.0,100.0,,,,,,,,,,,,,,,,,,,,,,,,,,,,,,,,,,,,,,,,,,,,,,,,,,,,,,,,,,,,,,,,,,,,,,,,,,,,,,,,,,,,,,,,,,,,,,,,,,,,,,,,,,,,,,,,,,,,,,,,,,,,,,,,,,,
1725618246.745997,1725618246.746916,192.0,0.0,4259.615234,4235.897461,4296.025879,4284.743652,4205.128418,4220.256348,4233.333496,4216.282227,4217.307617,4228.589844,4534.871582,4537.05127,4389.743652,4459.487305,3433.0,2.0,35.0,,,,0.0,4.0,4.0,4.0,4.0,4.0,4.0,4.0,4.0,4.0,4.0,4.0,4.0,4.0,4.0,100.0,,,,,,,,,,,,,,,,,,,,,,,,,,,,,,,,,,,,,,,,,,,,,,,,,,,,,,,,,,,,,,,,,,,,,,,,,,,,,,,,,,,,,,,,,,,,,,,,,,,,,,,,,,,,,,,,,,,,,,,,,,,,,,,,,,,
1725618246.749901,1725618246.75082,193.0,0.0,4264.487305,4237.307617,4298.333496,4286.410156,4204.230957,4218.974121,4234.102539,4211.282227,4218.461426,4232.94873,4535.512695,4536.410156,4391.282227,4461.025879,3901.0,2.0,35.0,,,,0.0,4.0,4.0,4.0,4.0,4.0,4.0,4.0,4.0,4.0,4.0,4.0,4.0,4.0,4.0,100.0,,,,,,,,,,,,,,,,,,,,,,,,,,,,,,,,,,,,,,,,,,,,,,,,,,,,,,,,,,,,,,,,,,,,,,,,,,,,,,,,,,,,,,,,,,,,,,,,,,,,,,,,,,,,,,,,,,,,,,,,,,,,,,,,,,,
1725618246.753805,1725618246.754724,194.0,0.0,4266.410156,4237.436035,4299.615234,4286.794922,4203.461426,4217.436035,4234.487305,4210.641113,4219.358887,4233.461426,4538.846191,4537.05127,4393.846191,4462.307617,2897.0,2.0,35.0,,,,0.0,4.0,4.0,4.0,4.0,4.0,4.0,4.0,4.0,4.0,4.0,4.0,4.0,4.0,4.0,100.0,1.0,66.666664,4.0,4.0,4.0,4.0,4.0,0.0,4.0,4.0,4.0,4.0,4.0,4.0,4.0,4.0,1.0,0.0,0.0,,,,,,,,,,,,,,,,,,,,,,,,,,,,,,,,,,,,,0.0,0.0,1.0,0.0,1.0,0.0,2.320355,1.246399,0.704541,0.254516,0.065884,1.431516,1.289603,0.498166,0.34874,0.11345,1.544101,1.080398,0.771755,0.256313,0.058713,1.103364,1.463642,0.838933,0.209376,0.057744,0.804567,0.408051,0.255356,0.094511,0.044578,0.192585,0.264015,0.121963,0.056577,0.031678,0.595863,0.410921,0.383818,0.092517,0.038895,0.352245,1.653631,0.483563,0.493392,0.171952,1.204675,0.799282,0.894059,0.492437,0.108812,2.766389,1.39708,0.79508,0.332019,0.071362,1.969539,2.327292,0.980051,0.554923,0.138924,2.402602,1.604279,0.724693,0.779199,0.144387,3.852145,2.40619,1.235375,0.424106,0.080818,2.239814,1.805839,1.045388,0.406275,0.135427
1725618246.757709,1725618246.758528,195.0,0.0,4264.615234,4235.769043,4299.230957,4285.256348,4203.461426,4216.410156,4232.820313,4211.922852,4218.461426,4229.102539,4542.05127,4538.461426,4395.512695,4462.820313,3072.0,2.0,35.0,,,,0.0,4.0,4.0,4.0,4.0,4.0,4.0,4.0,4.0,4.0,4.0,4.0,4.0,4.0,4.0,100.0,,,,,,,,,,,,,,,,,,,,,,,,,,,,,,,,,,,,,,,,,,,,,,,,,,,,,,,,,,,,,,,,,,,,,,,,,,,,,,,,,,,,,,,,,,,,,,,,,,,,,,,,,,,,,,,,,,,,,,,,,,,,,,,,,,,
1725618246.761613,1725618246.762432,196.0,0.0,4260.0,4232.94873,4296.794922,4281.922852,4203.717773,4216.282227,4228.589844,4211.794922,4214.487305,4221.025879,4540.897461,4537.563965,4394.102539,4461.794922,3433.0,2.0,35.0,,,,0.0,4.0,4.0,4.0,4.0,4.0,4.0,4.0,4.0,4.0,4.0,4.0,4.0,4.0,4.0,100.0,,,,,,,,,,,,,,,,,,,,,,,,,,,,,,,,,,,,,,,,,,,,,,,,,,,,,,,,,,,,,,,,,,,,,,,,,,,,,,,,,,,,,,,,,,,,,,,,,,,,,,,,,,,,,,,,,,,,,,,,,,,,,,,,,,,
1725618246.765517,1725618246.766336,197.0,0.0,4254.743652,4229.743652,4292.820313,4278.077148,4202.94873,4216.922852,4223.333496,4208.077148,4207.563965,4211.794922,4532.94873,4531.922852,4388.077148,4458.077148,3901.0,2.0,35.0,,,,0.0,4.0,4.0,4.0,4.0,4.0,4.0,4.0,4.0,4.0,4.0,4.0,4.0,4.0,4.0,100.0,,,,,,,,,,,,,,,,,,,,,,,,,,,,,,,,,,,,,,,,,,,,,,,,,,,,,,,,,,,,,,,,,,,,,,,,,,,,,,,,,,,,,,,,,,,,,,,,,,,,,,,,,,,,,,,,,,,,,,,,,,,,,,,,,,,
1725618246.769421,1725618246.77024,198.0,0.0,4249.871582,4225.512695,4286.794922,4273.846191,4199.871582,4217.692383,4219.230957,4201.025879,4198.974121,4202.563965,4519.102539,4520.769043,4377.436035,4450.641113,2897.0,2.0,35.0,,,,0.0,4.0,4.0,4.0,4.0,4.0,4.0,4.0,4.0,4.0,4.0,4.0,4.0,4.0,4.0,100.0,,,,,,,,,,,,,,,,,,,,,,,,,,,,,,,,,,,,,,,,,,,,,,,,,,,,,,,,,,,,,,,,,,,,,,,,,,,,,,,,,,,,,,,,,,,,,,,,,,,,,,,,,,,,,,,,,,,,,,,,,,,,,,,,,,,
1725618246.773326,1725618246.774045,199.0,0.0,4244.743652,4219.230957,4278.717773,4267.94873,4194.615234,4217.94873,4217.179688,4193.333496,4190.769043,4193.333496,4502.94873,4506.153809,4364.230957,4439.615234,3072.0,2.0,35.0,,,,0.0,4.0,4.0,4.0,4.0,4.0,4.0,4.0,4.0,4.0,4.0,4.0,4.0,4.0,4.0,100.0,,,,,,,,,,,,,,,,,,,,,,,,,,,,,,,,,,,,,,,,,,,,,,,,,,,,,,,,,,,,,,,,,,,,,,,,,,,,,,,,,,,,,,,,,,,,,,,,,,,,,,,,,,,,,,,,,,,,,,,,,,,,,,,,,,,
1725618246.77723,1725618246.777949,200.0,0.0,4237.436035,4209.871582,4268.461426,4258.846191,4188.717773,4217.307617,4216.025879,4188.589844,4184.230957,4183.717773,4488.589844,4490.384766,4350.512695,4426.282227,3433.0,2.0,35.0,,,,0.0,4.0,4.0,4.0,4.0,4.0,4.0,4.0,4.0,4.0,4.0,4.0,4.0,4.0,4.0,100.0,,,,,,,,,,,,,,,,,,,,,,,,,,,,,,,,,,,,,,,,,,,,,,,,,,,,,,,,,,,,,,,,,,,,,,,,,,,,,,,,,,,,,,,,,,,,,,,,,,,,,,,,,,,,,,,,,,,,,,,,,,,,,,,,,,,
1725618246.781134,1725618246.781853,201.0,0.0,4227.307617,4198.461426,4257.307617,4246.410156,4183.589844,4215.512695,4213.205078,4188.846191,4180.0,4173.717773,4478.333496,4476.282227,4337.820313,4413.077148,3901.0,2.0,35.0,,,,0.0,4.0,4.0,4.0,4.0,4.0,4.0,4.0,4.0,4.0,4.0,4.0,4.0,4.0,4.0,100.0,,,,,,,,,,,,,,,,,,,,,,,,,,,,,,,,,,,,,,,,,,,,,,,,,,,,,,,,,,,,,,,,,,,,,,,,,,,,,,,,,,,,,,,,,,,,,,,,,,,,,,,,,,,,,,,,,,,,,,,,,,,,,,,,,,,
1725618246.785038,1725618246.785857,202.0,0.0,4216.410156,4188.333496,4247.563965,4233.589844,4180.128418,4212.94873,4207.94873,4194.102539,4177.820313,4165.512695,4473.205078,4466.282227,4328.333496,4402.692383,2897.0,2.0,35.0,,,,0.0,4.0,4.0,4.0,4.0,4.0,4.0,4.0,4.0,4.0,4.0,4.0,4.0,4.0,4.0,100.0,,,,,,,,,,,,,,,,,,,,,,,,,,,,,,,,,,,,,,,,,,,,,,,,,,,,,,,,0.0,0.0,1.0,0.0,1.0,0.0,,,,,,,,,,,,,,,,,,,,,,,,,,,,,,,,,,,,,,,,,,,,,,,,,,,,,,,,,,,,,,,,,,,,,,
1725618246.788942,1725618246.789761,203.0,0.0,4208.717773,4183.333496,4242.307617,4225.384766,4178.717773,4211.282227,4202.563965,4202.179688,4177.820313,4162.307617,4473.589844,4463.205078,4324.743652,4397.94873,3072.0,2.0,35.0,,,,0.0,4.0,4.0,4.0,4.0,4.0,4.0,4.0,4.0,4.0,4.0,4.0,4.0,4.0,4.0,100.0,,,,,,,,,,,,,,,,,,,,,,,,,,,,,,,,,,,,,,,,,,,,,,,,,,,,,,,,,,,,,,,,,,,,,,,,,,,,,,,,,,,,,,,,,,,,,,,,,,,,,,,,,,,,,,,,,,,,,,,,,,,,,,,,,,,
1725618246.792846,1725618246.793665,204.0,0.0,4208.589844,4186.153809,4243.974121,4226.282227,4180.0,4212.05127,4200.769043,4210.641113,4181.282227,4166.538574,4480.128418,4469.102539,4329.230957,4401.025879,3433.0,2.0,35.0,,,,0.0,4.0,4.0,4.0,4.0,4.0,4.0,4.0,4.0,4.0,4.0,4.0,4.0,4.0,4.0,100.0,,,,,,,,,,,,,,,,,,,,,,,,,,,,,,,,,,,,,,,,,,,,,,,,,,,,,,,,,,,,,,,,,,,,,,,,,,,,,,,,,,,,,,,,,,,,,,,,,,,,,,,,,,,,,,,,,,,,,,,,,,,,,,,,,,,
1725618246.79675,1725618246.797569,205.0,0.0,4216.794922,4196.538574,4252.692383,4236.922852,4183.974121,4216.153809,4205.0,4217.563965,4188.846191,4177.692383,4492.563965,4483.333496,4341.153809,4412.05127,3901.0,2.0,35.0,,,,0.0,4.0,4.0,4.0,4.0,4.0,4.0,4.0,4.0,4.0,4.0,4.0,4.0,4.0,4.0,100.0,,,,,,,,,,,,,,,,,,,,,,,,,,,,,,,,,,,,,,,,,,,,,,,,,,,,,,,,,,,,,,,,,,,,,,,,,,,,,,,,,,,,,,,,,,,,,,,,,,,,,,,,,,,,,,,,,,,,,,,,,,,,,,,,,,,
1725618246.800654,1725618246.801573,206.0,0.0,4230.769043,4211.025879,4265.769043,4253.333496,4189.871582,4222.307617,4214.230957,4221.538574,4199.615234,4191.922852,4508.461426,4501.538574,4357.307617,4428.333496,2897.0,2.0,35.0,,,,0.0,4.0,4.0,4.0,4.0,4.0,4.0,4.0,4.0,4.0,4.0,4.0,4.0,4.0,4.0,100.0,,,,,,,,,,,,,,,,,,,,,,,,,,,,,,,,,,,,,,,,,,,,,,,,,,,,,,,,,,,,,,,,,,,,,,,,,,,,,,,,,,,,,,,,,,,,,,,,,,,,,,,,,,,,,,,,,,,,,,,,,,,,,,,,,,,
1725618246.804558,1725618246.805477,207.0,0.0,4245.384766,4224.487305,4278.846191,4268.974121,4196.025879,4227.94873,4224.743652,4222.179688,4210.769043,4204.615234,4523.846191,4517.94873,4373.077148,4445.128418,3072.0,2.0,35.0,,,,0.0,4.0,4.0,4.0,4.0,4.0,4.0,4.0,4.0,4.0,4.0,4.0,4.0,4.0,4.0,100.0,,,,,,,,,,,,,,,,,,,,,,,,,,,,,,,,,,,,,,,,,,,,,,,,,,,,,,,,,,,,,,,,,,,,,,,,,,,,,,,,,,,,,,,,,,,,,,,,,,,,,,,,,,,,,,,,,,,,,,,,,,,,,,,,,,,
1725618246.808463,1725618246.809381,208.0,0.0,4256.666504,4233.077148,4287.94873,4278.846191,4201.025879,4230.128418,4232.05127,4220.897461,4218.717773,4212.820313,4535.512695,4528.077148,4384.743652,4457.179688,3433.0,2.0,35.0,,,,0.0,4.0,4.0,4.0,4.0,4.0,4.0,4.0,4.0,4.0,4.0,4.0,4.0,4.0,4.0,100.0,,,,,,,,,,,,,,,,,,,,,,,,,,,,,,,,,,,,,,,,,,,,,,,,,,,,,,,,,,,,,,,,,,,,,,,,,,,,,,,,,,,,,,,,,,,,,,,,,,,,,,,,,,,,,,,,,,,,,,,,,,,,,,,,,,,
1725618246.812367,1725618246.813285,209.0,0.0,4262.179688,4236.025879,4292.05127,4281.794922,4204.102539,4227.820313,4234.358887,4219.615234,4221.538574,4216.282227,4541.538574,4531.025879,4391.282227,4462.563965,3901.0,2.0,35.0,,,,0.0,4.0,4.0,4.0,4.0,4.0,4.0,4.0,4.0,4.0,4.0,4.0,4.0,4.0,4.0,100.0,,,,,,,,,,,,,,,,,,,,,,,,,,,,,,,,,,,,,,,,,,,,,,,,,,,,,,,,,,,,,,,,,,,,,,,,,,,,,,,,,,,,,,,,,,,,,,,,,,,,,,,,,,,,,,,,,,,,,,,,,,,,,,,,,,,
1725618246.816271,1725618246.817289,210.0,0.0,4263.205078,4235.384766,4292.307617,4280.769043,4205.384766,4222.563965,4233.077148,4219.230957,4219.487305,4216.666504,4542.436035,4529.230957,4393.974121,4462.436035,2897.0,2.0,35.0,,,,0.0,4.0,4.0,4.0,4.0,4.0,4.0,4.0,4.0,4.0,4.0,4.0,4.0,4.0,4.0,100.0,,,,,,,,,,,,,,,,,,,,,,,,,,,,,,,,,,,,,,,,,,,,,,,,,,,,,,,,0.0,0.0,1.0,0.0,1.0,0.0,,,,,,,,,,,,,,,,,,,,,,,,,,,,,,,,,,,,,,,,,,,,,,,,,,,,,,,,,,,,,,,,,,,,,,
1725618246.820175,1725618246.821194,211.0,0.0,4262.563965,4234.102539,4291.538574,4279.230957,4205.384766,4217.307617,4231.282227,4219.358887,4215.384766,4216.410156,4540.128418,4526.153809,4394.358887,4460.512695,3072.0,2.0,35.0,,,,0.0,4.0,4.0,4.0,4.0,4.0,4.0,4.0,4.0,4.0,4.0,4.0,4.0,4.0,4.0,100.0,,,,,,,,,,,,,,,,,,,,,,,,,,,,,,,,,,,,,,,,,,,,,,,,,,,,,,,,,,,,,,,,,,,,,,,,,,,,,,,,,,,,,,,,,,,,,,,,,,,,,,,,,,,,,,,,,,,,,,,,,,,,,,,,,,,
1725618246.824079,1725618246.825098,212.0,0.0,4262.692383,4233.846191,4292.05127,4279.102539,4204.615234,4215.0,4231.025879,4219.102539,4212.307617,4216.410156,4537.307617,4524.615234,4393.589844,4459.615234,3433.0,2.0,35.0,,,,0.0,4.0,4.0,4.0,4.0,4.0,4.0,4.0,4.0,4.0,4.0,4.0,4.0,4.0,4.0,100.0,,,,,,,,,,,,,,,,,,,,,,,,,,,,,,,,,,,,,,,,,,,,,,,,,,,,,,,,,,,,,,,,,,,,,,,,,,,,,,,,,,,,,,,,,,,,,,,,,,,,,,,,,,,,,,,,,,,,,,,,,,,,,,,,,,,
1725618246.827983,1725618246.829002,213.0,0.0,4263.974121,4234.487305,4293.974121,4280.641113,4203.461426,4215.769043,4232.179688,4218.589844,4211.794922,4217.05127,4536.538574,4525.0,4392.307617,4460.512695,3901.0,2.0,35.0,,,,0.0,4.0,4.0,4.0,4.0,4.0,4.0,4.0,4.0,4.0,4.0,4.0,4.0,4.0,4.0,100.0,,,,,,,,,,,,,,,,,,,,,,,,,,,,,,,,,,,,,,,,,,,,,,,,,,,,,,,,,,,,,,,,,,,,,,,,,,,,,,,,,,,,,,,,,,,,,,,,,,,,,,,,,,,,,,,,,,,,,,,,,,,,,,,,,,,
1725618246.831887,1725618246.832906,214.0,0.0,4264.871582,4235.128418,4295.128418,4282.436035,4202.563965,4218.205078,4232.94873,4218.077148,4213.589844,4217.436035,4538.077148,4526.410156,4391.282227,4462.179688,2897.0,2.0,35.0,,,,0.0,4.0,4.0,4.0,4.0,4.0,4.0,4.0,4.0,4.0,4.0,4.0,4.0,4.0,4.0,100.0,,,,,,,,,,,,,,,,,,,,,,,,,,,,,,,,,,,,,,,,,,,,,,,,,,,,,,,,,,,,,,,,,,,,,,,,,,,,,,,,,,,,,,,,,,,,,,,,,,,,,,,,,,,,,,,,,,,,,,,,,,,,,,,,,,,
1725618246.835791,1725618246.83671,215.0,0.0,4263.333496,4235.128418,4294.102539,4283.205078,4202.05127,4219.871582,4232.436035,4216.794922,4215.512695,4217.436035,4540.0,4527.307617,4390.769043,4463.077148,3072.0,2.0,35.0,,,,0.0,4.0,4.0,4.0,4.0,4.0,4.0,4.0,4.0,4.0,4.0,4.0,4.0,4.0,4.0,100.0,,,,,,,,,,,,,,,,,,,,,,,,,,,,,,,,,,,,,,,,,,,,,,,,,,,,,,,,,,,,,,,,,,,,,,,,,,,,,,,,,,,,,,,,,,,,,,,,,,,,,,,,,,,,,,,,,,,,,,,,,,,,,,,,,,,
1725618246.839695,1725618246.840614,216.0,0.0,4259.487305,4234.615234,4290.769043,4282.94873,4202.05127,4219.615234,4231.153809,4213.846191,4215.641113,4217.05127,4539.615234,4525.897461,4390.769043,4462.307617,3433.0,2.0,35.0,,,,0.0,4.0,4.0,4.0,4.0,4.0,4.0,4.0,4.0,4.0,4.0,4.0,4.0,4.0,4.0,100.0,,,,,,,,,,,,,,,,,,,,,,,,,,,,,,,,,,,,,,,,,,,,,,,,,,,,,,,,,,,,,,,,,,,,,,,,,,,,,,,,,,,,,,,,,,,,,,,,,,,,,,,,,,,,,,,,,,,,,,,,,,,,,,,,,,,
1725618246.843599,1725618246.844518,217.0,0.0,4255.0,4234.358887,4286.410156,4281.794922,4202.820313,4217.94873,4230.512695,4209.615234,4213.717773,4216.666504,4536.153809,4522.05127,4390.769043,4460.0,3901.0,2.0,35.0,,,,0.0,4.0,4.0,4.0,4.0,4.0,4.0,4.0,4.0,4.0,4.0,4.0,4.0,4.0,4.0,100.0,,,,,,,,,,,,,,,,,,,,,,,,,,,,,,,,,,,,,,,,,,,,,,,,,,,,,,,,,,,,,,,,,,,,,,,,,,,,,,,,,,,,,,,,,,,,,,,,,,,,,,,,,,,,,,,,,,,,,,,,,,,,,,,,,,,
1725618246.847504,1725618246.848422,218.0,0.0,4252.179688,4234.102539,4282.436035,4280.512695,4204.358887,4216.282227,4231.025879,4206.153809,4211.153809,4217.05127,4531.666504,4517.563965,4390.0,4457.179688,2897.0,2.0,35.0,,,,0.0,4.0,4.0,4.0,4.0,4.0,4.0,4.0,4.0,4.0,4.0,4.0,4.0,4.0,4.0,100.0,,,,,,,,,,,,,,,,,,,,,,,,,,,,,,,,,,,,,,,,,,,,,,,,,,,,,,,,0.0,0.0,1.0,0.0,1.0,0.0,,,,,,,,,,,,,,,,,,,,,,,,,,,,,,,,,,,,,,,,,,,,,,,,,,,,,,,,,,,,,,,,,,,,,,
1725618246.851408,1725618246.852227,219.0,0.0,4252.307617,4233.974121,4279.743652,4278.974121,4205.256348,4215.384766,4231.794922,4205.641113,4209.615234,4217.94873,4528.717773,4514.743652,4388.333496,4455.384766,3072.0,2.0,35.0,,,,0.0,4.0,4.0,4.0,4.0,4.0,4.0,4.0,4.0,4.0,4.0,4.0,4.0,4.0,4.0,100.0,,,,,,,,,,,,,,,,,,,,,,,,,,,,,,,,,,,,,,,,,,,,,,,,,,,,,,,,,,,,,,,,,,,,,,,,,,,,,,,,,,,,,,,,,,,,,,,,,,,,,,,,,,,,,,,,,,,,,,,,,,,,,,,,,,,
1725618246.855312,1725618246.856131,220.0,0.0,4254.487305,4233.461426,4278.717773,4277.563965,4203.846191,4215.128418,4231.794922,4208.333496,4210.128418,4218.846191,4528.974121,4515.128418,4386.922852,4455.641113,3433.0,2.0,35.0,,,,0.0,4.0,4.0,4.0,4.0,4.0,4.0,4.0,4.0,4.0,4.0,4.0,4.0,4.0,4.0,100.0,,,,,,,,,,,,,,,,,,,,,,,,,,,,,,,,,,,,,,,,,,,,,,,,,,,,,,,,,,,,,,,,,,,,,,,,,,,,,,,,,,,,,,,,,,,,,,,,,,,,,,,,,,,,,,,,,,,,,,,,,,,,,,,,,,,
1725618246.859216,1725618246.860035,221.0,0.0,4256.794922,4232.94873,4279.358887,4276.410156,4200.897461,4215.512695,4231.282227,4212.94873,4212.692383,4219.615234,4531.282227,4517.94873,4387.05127,4457.436035,3901.0,2.0,35.0,,,,0.0,4.0,4.0,4.0,4.0,4.0,4.0,4.0,4.0,4.0,4.0,4.0,4.0,4.0,4.0,100.0,,,,,,,,,,,,,,,,,,,,,,,,,,,,,,,,,,,,,,,,,,,,,,,,,,,,,,,,,,,,,,,,,,,,,,,,,,,,,,,,,,,,,,,,,,,,,,,,,,,,,,,,,,,,,,,,,,,,,,,,,,,,,,,,,,,
1725618246.86312,1725618246.863839,222.0,0.0,4257.307617,4232.692383,4281.282227,4276.282227,4199.230957,4216.538574,4230.897461,4217.307617,4215.769043,4219.871582,4533.589844,4521.410156,4389.230957,4459.102539,2897.0,2.0,35.0,,,,0.0,4.0,4.0,4.0,4.0,4.0,4.0,4.0,4.0,4.0,4.0,4.0,4.0,4.0,4.0,100.0,,,,,,,,,,,,,,,,,,,,,,,,,,,,,,,,,,,,,,,,,,,,,,,,,,,,,,,,,,,,,,,,,,,,,,,,,,,,,,,,,,,,,,,,,,,,,,,,,,,,,,,,,,,,,,,,,,,,,,,,,,,,,,,,,,,
1725618246.867024,1725618246.867743,223.0,0.0,4255.641113,4232.563965,4282.820313,4276.922852,4201.538574,4218.333496,4231.282227,4219.743652,4217.94873,4219.615234,4534.230957,4522.692383,4391.794922,4459.230957,3072.0,2.0,35.0,,,,0.0,4.0,4.0,4.0,4.0,4.0,4.0,4.0,4.0,4.0,4.0,4.0,4.0,4.0,4.0,100.0,,,,,,,,,,,,,,,,,,,,,,,,,,,,,,,,,,,,,,,,,,,,,,,,,,,,,,,,,,,,,,,,,,,,,,,,,,,,,,,,,,,,,,,,,,,,,,,,,,,,,,,,,,,,,,,,,,,,,,,,,,,,,,,,,,,
1725618246.870928,1725618246.871647,224.0,0.0,4252.436035,4232.436035,4281.922852,4277.563965,4206.538574,4219.743652,4231.666504,4219.230957,4218.205078,4218.333496,4531.666504,4519.487305,4391.410156,4456.410156,3433.0,2.0,35.0,,,,0.0,4.0,4.0,4.0,4.0,4.0,4.0,4.0,4.0,4.0,4.0,4.0,4.0,4.0,4.0,100.0,,,,,,,,,,,,,,,,,,,,,,,,,,,,,,,,,,,,,,,,,,,,,,,,,,,,,,,,,,,,,,,,,,,,,,,,,,,,,,,,,,,,,,,,,,,,,,,,,,,,,,,,,,,,,,,,,,,,,,,,,,,,,,,,,,,
1725618246.874832,1725618246.875551,225.0,0.0,4249.102539,4232.05127,4277.05127,4276.794922,4210.897461,4218.974121,4231.666504,4215.769043,4216.282227,4216.025879,4526.410156,4511.410156,4386.410156,4450.641113,3901.0,2.0,35.0,,,,0.0,4.0,4.0,4.0,4.0,4.0,4.0,4.0,4.0,4.0,4.0,4.0,4.0,4.0,4.0,100.0,,,,,,,,,,,,,,,,,,,,,,,,,,,,,,,,,,,,,,,,,,,,,,,,,,,,,,,,,,,,,,,,,,,,,,,,,,,,,,,,,,,,,,,,,,,,,,,,,,,,,,,,,,,,,,,,,,,,,,,,,,,,,,,,,,,
1725618246.878736,1725618246.879355,226.0,0.0,4247.436035,4231.538574,4269.358887,4274.743652,4211.922852,4216.794922,4231.538574,4211.538574,4214.102539,4214.230957,4521.282227,4502.307617,4379.615234,4444.102539,2897.0,2.0,35.0,,,,0.0,4.0,4.0,4.0,4.0,4.0,4.0,4.0,4.0,4.0,4.0,4.0,4.0,4.0,4.0,100.0,,,,,,,,,,,,,,,,,1.0,0.0,0.0,,,,,,,,,,,,,,,,,,,,,,,,,,,,,,,,,,,,,0.0,0.0,1.0,0.0,1.0,0.0,2.645341,1.468898,0.763716,0.313019,0.071243,1.487738,1.457055,0.505527,0.364536,0.119756,1.77495,1.242831,0.769573,0.274068,0.066086,1.183234,1.605339,0.904581,0.221339,0.060583,0.836165,0.476281,0.312639,0.105359,0.046945,0.195651,0.267502,0.128392,0.059262,0.033399,0.638616,0.397291,0.394764,0.095839,0.034744,0.365342,1.492534,0.400853,0.498813,0.167743,1.397922,0.873276,0.916925,0.506856,0.116578,3.234619,1.597141,0.884529,0.35481,0.078515,2.36927,2.545236,1.100029,0.545688,0.132645,2.512482,1.826422,0.704209,0.746665,0.152619,4.434047,2.726403,1.410922,0.430432,0.085886,2.506376,1.995246,1.10763,0.399474,0.131966
1725618246.88264,1725618246.88326,227.0,0.0,4247.563965,4231.538574,4262.820313,4273.589844,4210.128418,4216.538574,4231.922852,4210.512695,4213.461426,4214.743652,4519.871582,4498.333496,4376.538574,4440.256348,3072.0,2.0,35.0,,,,0.0,4.0,4.0,4.0,4.0,4.0,4.0,4.0,4.0,4.0,4.0,4.0,4.0,4.0,4.0,100.0,,,,,,,,,,,,,,,,,,,,,,,,,,,,,,,,,,,,,,,,,,,,,,,,,,,,,,,,,,,,,,,,,,,,,,,,,,,,,,,,,,,,,,,,,,,,,,,,,,,,,,,,,,,,,,,,,,,,,,,,,,,,,,,,,,,
1725618246.886545,1725618246.887164,228.0,0.0,4248.589844,4231.922852,4261.410156,4274.871582,4208.333496,4220.384766,4233.077148,4215.897461,4215.512695,4218.077148,4522.692383,4502.820313,4379.230957,4440.512695,3433.0,2.0,35.0,,,,0.0,4.0,4.0,4.0,4.0,4.0,4.0,4.0,4.0,4.0,4.0,4.0,4.0,4.0,4.0,100.0,,,,,,,,,,,,,,,,,,,,,,,,,,,,,,,,,,,,,,,,,,,,,,,,,,,,,,,,,,,,,,,,,,,,,,,,,,,,,,,,,,,,,,,,,,,,,,,,,,,,,,,,,,,,,,,,,,,,,,,,,,,,,,,,,,,
1725618246.890449,1725618246.891168,229.0,0.0,4248.333496,4232.179688,4265.641113,4277.820313,4208.974121,4226.794922,4233.717773,4226.153809,4219.358887,4221.794922,4526.410156,4512.436035,4383.717773,4443.077148,3901.0,2.0,35.0,,,,0.0,4.0,4.0,4.0,4.0,4.0,4.0,4.0,4.0,4.0,4.0,4.0,4.0,4.0,4.0,100.0,,,,,,,,,,,,,,,,,,,,,,,,,,,,,,,,,,,,,,,,,,,,,,,,,,,,,,,,,,,,,,,,,,,,,,,,,,,,,,,,,,,,,,,,,,,,,,,,,,,,,,,,,,,,,,,,,,,,,,,,,,,,,,,,,,,
1725618246.894353,1725618246.895072,230.0,0.0,4246.410156,4231.410156,4272.05127,4280.128418,4211.410156,4232.05127,4232.820313,4235.256348,4222.05127,4222.820313,4526.794922,4520.128418,4384.487305,4444.487305,2897.0,2.0,35.0,,,,0.0,4.0,4.0,4.0,4.0,4.0,4.0,4.0,4.0,4.0,4.0,4.0,4.0,4.0,4.0,100.0,,,,,,,,,,,,,,,,,,,,,,,,,,,,,,,,,,,,,,,,,,,,,,,,,,,,,,,,,,,,,,,,,,,,,,,,,,,,,,,,,,,,,,,,,,,,,,,,,,,,,,,,,,,,,,,,,,,,,,,,,,,,,,,,,,,
1725618246.898257,1725618246.898976,231.0,0.0,4244.871582,4230.512695,4276.922852,4281.025879,4213.846191,4233.205078,4231.282227,4237.692383,4221.922852,4220.256348,4523.205078,4520.769043,4379.871582,4443.205078,3072.0,2.0,35.0,,,,0.0,4.0,4.0,4.0,4.0,4.0,4.0,4.0,4.0,4.0,4.0,4.0,4.0,4.0,4.0,100.0,,,,,,,,,,,,,,,,,,,,,,,,,,,,,,,,,,,,,,,,,,,,,,,,,,,,,,,,,,,,,,,,,,,,,,,,,,,,,,,,,,,,,,,,,,,,,,,,,,,,,,,,,,,,,,,,,,,,,,,,,,,,,,,,,,,
1725618246.902161,1725618246.90298,232.0,0.0,4246.410156,4231.410156,4279.230957,4282.179688,4215.384766,4230.897461,4231.922852,4232.820313,4219.743652,4217.820313,4520.0,4515.897461,4374.743652,4441.538574,3433.0,2.0,35.0,,,,0.0,4.0,4.0,4.0,4.0,4.0,4.0,4.0,4.0,4.0,4.0,4.0,4.0,4.0,4.0,100.0,,,,,,,,,,,,,,,,,,,,,,,,,,,,,,,,,,,,,,,,,,,,,,,,,,,,,,,,,,,,,,,,,,,,,,,,,,,,,,,,,,,,,,,,,,,,,,,,,,,,,,,,,,,,,,,,,,,,,,,,,,,,,,,,,,,
1725618246.906065,1725618246.906884,233.0,0.0,4251.538574,4235.769043,4280.769043,4285.512695,4216.153809,4228.077148,4236.282227,4224.615234,4218.205078,4219.743652,4522.179688,4511.794922,4376.153809,4443.333496,3901.0,2.0,35.0,,,,0.0,4.0,4.0,4.0,4.0,4.0,4.0,4.0,4.0,4.0,4.0,4.0,4.0,4.0,4.0,100.0,,,,,,,,,,,,,,,,,,,,,,,,,,,,,,,,,,,,,,,,,,,,,,,,,,,,,,,,,,,,,,,,,,,,,,,,,,,,,,,,,,,,,,,,,,,,,,,,,,,,,,,,,,,,,,,,,,,,,,,,,,,,,,,,,,,
1725618246.909969,1725618246.910788,234.0,0.0,4258.974121,4242.563965,4283.846191,4290.384766,4217.179688,4227.179688,4243.077148,4218.077148,4218.461426,4226.922852,4530.128418,4513.333496,4386.410156,4450.0,2897.0,2.0,35.0,,,,0.0,4.0,4.0,4.0,4.0,4.0,4.0,4.0,4.0,4.0,4.0,4.0,4.0,4.0,4.0,100.0,,,,,,,,,,,,,,,,,,,,,,,,,,,,,,,,,,,,,,,,,,,,,,,,,,,,,,,,0.0,0.0,1.0,0.0,1.0,0.0,,,,,,,,,,,,,,,,,,,,,,,,,,,,,,,,,,,,,,,,,,,,,,,,,,,,,,,,,,,,,,,,,,,,,,
1725618246.913873,1725618246.914692,235.0,0.0,4265.256348,4248.589844,4288.846191,4294.102539,4218.205078,4227.820313,4248.333496,4216.282227,4219.487305,4235.128418,4539.871582,4520.128418,4400.897461,4458.589844,3072.0,2.0,35.0,,,,0.0,4.0,4.0,4.0,4.0,4.0,4.0,4.0,4.0,4.0,4.0,4.0,4.0,4.0,4.0,100.0,,,,,,,,,,,,,,,,,,,,,,,,,,,,,,,,,,,,,,,,,,,,,,,,,,,,,,,,,,,,,,,,,,,,,,,,,,,,,,,,,,,,,,,,,,,,,,,,,,,,,,,,,,,,,,,,,,,,,,,,,,,,,,,,,,,
1725618246.917777,1725618246.918596,236.0,0.0,4268.205078,4251.153809,4293.717773,4294.358887,4217.94873,4227.692383,4248.589844,4218.205078,4219.358887,4238.205078,4545.769043,4527.436035,4410.769043,4464.487305,3433.0,2.0,35.0,,,,0.0,4.0,4.0,4.0,4.0,4.0,4.0,4.0,4.0,4.0,4.0,4.0,4.0,4.0,4.0,100.0,,,,,,,,,,,,,,,,,,,,,,,,,,,,,,,,,,,,,,,,,,,,,,,,,,,,,,,,,,,,,,,,,,,,,,,,,,,,,,,,,,,,,,,,,,,,,,,,,,,,,,,,,,,,,,,,,,,,,,,,,,,,,,,,,,,
1725618246.921682,1725618246.9226,237.0,0.0,4267.179688,4249.615234,4296.153809,4291.025879,4215.256348,4224.615234,4243.333496,4220.256348,4217.94873,4234.487305,4545.128418,4530.512695,4411.025879,4464.615234,3901.0,2.0,35.0,,,,0.0,4.0,4.0,4.0,4.0,4.0,4.0,4.0,4.0,4.0,4.0,4.0,4.0,4.0,4.0,100.0,,,,,,,,,,,,,,,,,,,,,,,,,,,,,,,,,,,,,,,,,,,,,,,,,,,,,,,,,,,,,,,,,,,,,,,,,,,,,,,,,,,,,,,,,,,,,,,,,,,,,,,,,,,,,,,,,,,,,,,,,,,,,,,,,,,
1725618246.925586,1725618246.926504,238.0,0.0,4263.846191,4246.153809,4295.128418,4286.538574,4210.512695,4218.974121,4235.512695,4219.102539,4216.282227,4227.692383,4539.487305,4528.077148,4403.333496,4460.256348,2897.0,2.0,35.0,,,,0.0,4.0,4.0,4.0,4.0,4.0,4.0,4.0,4.0,4.0,4.0,4.0,4.0,4.0,4.0,100.0,,,,,,,,,,,,,,,,,,,,,,,,,,,,,,,,,,,,,,,,,,,,,,,,,,,,,,,,,,,,,,,,,,,,,,,,,,,,,,,,,,,,,,,,,,,,,,,,,,,,,,,,,,,,,,,,,,,,,,,,,,,,,,,,,,,
1725618246.92949,1725618246.930409,239.0,0.0,4261.153809,4243.717773,4292.563965,4283.717773,4205.0,4213.846191,4229.871582,4214.871582,4215.512695,4223.461426,4533.461426,4523.077148,4394.615234,4455.641113,3072.0,2.0,35.0,,,,0.0,4.0,4.0,4.0,4.0,4.0,4.0,4.0,4.0,4.0,4.0,4.0,4.0,4.0,4.0,100.0,,,,,,,,,,,,,,,,,,,,,,,,,,,,,,,,,,,,,,,,,,,,,,,,,,,,,,,,,,,,,,,,,,,,,,,,,,,,,,,,,,,,,,,,,,,,,,,,,,,,,,,,,,,,,,,,,,,,,,,,,,,,,,,,,,,
1725618246.933394,1725618246.934313,240.0,0.0,4261.025879,4243.974121,4291.282227,4283.846191,4201.153809,4212.179688,4229.230957,4210.897461,4215.128418,4224.487305,4531.538574,4520.0,4391.794922,4454.615234,3433.0,2.0,35.0,,,,0.0,4.0,4.0,4.0,4.0,4.0,4.0,4.0,4.0,4.0,4.0,4.0,4.0,4.0,4.0,100.0,,,,,,,,,,,,,,,,,,,,,,,,,,,,,,,,,,,,,,,,,,,,,,,,,,,,,,,,,,,,,,,,,,,,,,,,,,,,,,,,,,,,,,,,,,,,,,,,,,,,,,,,,,,,,,,,,,,,,,,,,,,,,,,,,,,
1725618246.937298,1725618246.938317,241.0,0.0,4263.077148,4246.282227,4292.820313,4285.256348,4200.256348,4214.358887,4232.692383,4211.025879,4213.461426,4228.717773,4534.487305,4521.410156,4395.897461,4457.692383,3901.0,2.0,35.0,,,,0.0,4.0,4.0,4.0,4.0,4.0,4.0,4.0,4.0,4.0,4.0,4.0,4.0,4.0,4.0,100.0,,,,,,,,,,,,,,,,,,,,,,,,,,,,,,,,,,,,,,,,,,,,,,,,,,,,,,,,,,,,,,,,,,,,,,,,,,,,,,,,,,,,,,,,,,,,,,,,,,,,,,,,,,,,,,,,,,,,,,,,,,,,,,,,,,,
1725618246.941202,1725618246.942221,242.0,0.0,4265.256348,4248.205078,4295.897461,4285.512695,4201.922852,4217.820313,4236.538574,4215.128418,4209.615234,4231.282227,4539.487305,4526.025879,4402.820313,4461.922852,2897.0,2.0,35.0,,,,0.0,4.0,4.0,4.0,4.0,4.0,4.0,4.0,4.0,4.0,4.0,4.0,4.0,4.0,4.0,100.0,,,,,,,,,,,,,,,,,,,,,,,,,,,,,,,,,,,,,,,,,,,,,,,,,,,,,,,,0.0,0.0,1.0,0.0,1.0,0.0,,,,,,,,,,,,,,,,,,,,,,,,,,,,,,,,,,,,,,,,,,,,,,,,,,,,,,,,,,,,,,,,,,,,,,
1725618246.945106,1725618246.946125,243.0,0.0,4264.743652,4247.563965,4297.436035,4283.974121,4204.358887,4219.615234,4237.436035,4219.615234,4205.128418,4228.717773,4542.307617,4530.128418,4406.666504,4463.846191,3072.0,2.0,35.0,,,,0.0,4.0,4.0,4.0,4.0,4.0,4.0,4.0,4.0,4.0,4.0,4.0,4.0,4.0,4.0,100.0,,,,,,,,,,,,,,,,,,,,,,,,,,,,,,,,,,,,,,,,,,,,,,,,,,,,,,,,,,,,,,,,,,,,,,,,,,,,,,,,,,,,,,,,,,,,,,,,,,,,,,,,,,,,,,,,,,,,,,,,,,,,,,,,,,,
1725618246.94901,1725618246.950029,244.0,0.0,4261.794922,4244.871582,4296.282227,4282.179688,4206.153809,4218.974121,4235.0,4220.897461,4202.563965,4222.05127,4541.025879,4530.384766,4404.743652,4462.05127,3433.0,2.0,35.0,,,,0.0,4.0,4.0,4.0,4.0,4.0,4.0,4.0,4.0,4.0,4.0,4.0,4.0,4.0,4.0,100.0,,,,,,,,,,,,,,,,,,,,,,,,,,,,,,,,,,,,,,,,,,,,,,,,,,,,,,,,,,,,,,,,,,,,,,,,,,,,,,,,,,,,,,,,,,,,,,,,,,,,,,,,,,,,,,,,,,,,,,,,,,,,,,,,,,,
1725618246.952915,1725618246.953933,245.0,0.0,4259.358887,4242.692383,4293.846191,4282.436035,4208.077148,4217.307617,4231.538574,4218.717773,4204.230957,4215.769043,4537.563965,4527.563965,4399.487305,4458.717773,3901.0,2.0,35.0,,,,0.0,4.0,4.0,4.0,4.0,4.0,4.0,4.0,4.0,4.0,4.0,4.0,4.0,4.0,4.0,100.0,,,,,,,,,,,,,,,,,,,,,,,,,,,,,,,,,,,,,,,,,,,,,,,,,,,,,,,,,,,,,,,,,,,,,,,,,,,,,,,,,,,,,,,,,,,,,,,,,,,,,,,,,,,,,,,,,,,,,,,,,,,,,,,,,,,
1725618246.956819,1725618246.957737,246.0,0.0,4260.0,4243.589844,4293.333496,4285.769043,4211.025879,4217.307617,4230.256348,4215.512695,4208.589844,4213.974121,4535.512695,4525.0,4395.512695,4457.05127,2897.0,2.0,35.0,,,,0.0,4.0,4.0,4.0,4.0,4.0,4.0,4.0,4.0,4.0,4.0,4.0,4.0,4.0,4.0,100.0,,,,,,,,,,,,,,,,,,,,,,,,,,,,,,,,,,,,,,,,,,,,,,,,,,,,,,,,,,,,,,,,,,,,,,,,,,,,,,,,,,,,,,,,,,,,,,,,,,,,,,,,,,,,,,,,,,,,,,,,,,,,,,,,,,,
1725618246.960723,1725618246.961641,247.0,0.0,4263.717773,4247.436035,4295.0,4289.871582,4214.615234,4219.230957,4232.436035,4213.717773,4211.538574,4216.794922,4536.666504,4525.128418,4395.128418,4458.461426,3072.0,2.0,35.0,,,,0.0,4.0,4.0,4.0,4.0,4.0,4.0,4.0,4.0,4.0,4.0,4.0,4.0,4.0,4.0,100.0,,,,,,,,,,,,,,,,,,,,,,,,,,,,,,,,,,,,,,,,,,,,,,,,,,,,,,,,,,,,,,,,,,,,,,,,,,,,,,,,,,,,,,,,,,,,,,,,,,,,,,,,,,,,,,,,,,,,,,,,,,,,,,,,,,,
1725618246.964627,1725618246.965545,248.0,0.0,4267.05127,4251.410156,4296.666504,4291.153809,4216.794922,4221.153809,4236.025879,4213.846191,4210.0,4220.512695,4539.871582,4526.410156,4396.922852,4461.410156,3433.0,2.0,35.0,,,,0.0,4.0,4.0,4.0,4.0,4.0,4.0,4.0,4.0,4.0,4.0,4.0,4.0,4.0,4.0,100.0,,,,,,,,,,,,,,,,,,,,,,,,,,,,,,,,,,,,,,,,,,,,,,,,,,,,,,,,,,,,,,,,,,,,,,,,,,,,,,,,,,,,,,,,,,,,,,,,,,,,,,,,,,,,,,,,,,,,,,,,,,,,,,,,,,,
1725618246.968531,1725618246.96935,249.0,0.0,4266.666504,4251.666504,4295.256348,4287.692383,4216.410156,4221.025879,4238.333496,4214.230957,4204.615234,4221.666504,4542.307617,4526.153809,4397.820313,4462.820313,3901.0,2.0,35.0,,,,0.0,4.0,4.0,4.0,4.0,4.0,4.0,4.0,4.0,4.0,4.0,4.0,4.0,4.0,4.0,100.0,,,,,,,,,,,,,,,,,,,,,,,,,,,,,,,,,,,,,,,,,,,,,,,,,,,,,,,,,,,,,,,,,,,,,,,,,,,,,,,,,,,,,,,,,,,,,,,,,,,,,,,,,,,,,,,,,,,,,,,,,,,,,,,,,,,
1725618246.972435,1725618246.973254,250.0,0.0,4261.794922,4246.538574,4290.256348,4281.794922,4214.358887,4218.717773,4237.692383,4213.974121,4200.128418,4219.743652,4542.820313,4523.717773,4396.538574,4461.666504,2897.0,2.0,35.0,,,,0.0,4.0,4.0,4.0,4.0,4.0,4.0,4.0,4.0,4.0,4.0,4.0,4.0,4.0,4.0,100.0,,,,,,,,,,,,,,,,,,,,,,,,,,,,,,,,,,,,,,,,,,,,,,,,,,,,,,,,0.0,0.0,1.0,0.0,1.0,0.0,,,,,,,,,,,,,,,,,,,,,,,,,,,,,,,,,,,,,,,,,,,,,,,,,,,,,,,,,,,,,,,,,,,,,,
1725618246.976339,1725618246.977158,251.0,0.0,4255.128418,4238.333496,4284.358887,4277.563965,4212.94873,4216.538574,4235.512695,4213.846191,4201.025879,4217.307617,4541.922852,4521.410156,4395.256348,4459.102539,3072.0,2.0,35.0,,,,0.0,4.0,4.0,4.0,4.0,4.0,4.0,4.0,4.0,4.0,4.0,4.0,4.0,4.0,4.0,100.0,,,,,,,,,,,,,,,,,,,,,,,,,,,,,,,,,,,,,,,,,,,,,,,,,,,,,,,,,,,,,,,,,,,,,,,,,,,,,,,,,,,,,,,,,,,,,,,,,,,,,,,,,,,,,,,,,,,,,,,,,,,,,,,,,,,
1725618246.980243,1725618246.981062,252.0,0.0,4249.871582,4231.538574,4280.641113,4277.307617,4213.846191,4216.794922,4234.102539,4215.0,4207.436035,4216.794922,4541.282227,4521.794922,4395.769043,4457.307617,3433.0,2.0,35.0,,,,0.0,4.0,4.0,4.0,4.0,4.0,4.0,4.0,4.0,4.0,4.0,4.0,4.0,4.0,4.0,100.0,,,,,,,,,,,,,,,,,,,,,,,,,,,,,,,,,,,,,,,,,,,,,,,,,,,,,,,,,,,,,,,,,,,,,,,,,,,,,,,,,,,,,,,,,,,,,,,,,,,,,,,,,,,,,,,,,,,,,,,,,,,,,,,,,,,
1725618246.984147,1725618246.984866,253.0,0.0,4247.820313,4230.0,4280.384766,4279.358887,4216.410156,4219.487305,4234.615234,4216.922852,4214.743652,4218.205078,4541.025879,4524.230957,4397.563965,4456.410156,3901.0,2.0,35.0,,,,0.0,4.0,4.0,4.0,4.0,4.0,4.0,4.0,4.0,4.0,4.0,4.0,4.0,4.0,4.0,100.0,,,,,,,,,,,,,,,,,,,,,,,,,,,,,,,,,,,,,,,,,,,,,,,,,,,,,,,,,,,,,,,,,,,,,,,,,,,,,,,,,,,,,,,,,,,,,,,,,,,,,,,,,,,,,,,,,,,,,,,,,,,,,,,,,,,
1725618246.988052,1725618246.98877,254.0,0.0,4247.94873,4234.230957,4281.666504,4280.512695,4218.589844,4223.077148,4236.794922,4217.692383,4216.794922,4219.230957,4540.641113,4525.641113,4398.077148,4455.128418,2897.0,2.0,35.0,,,,0.0,4.0,4.0,4.0,4.0,4.0,4.0,4.0,4.0,4.0,4.0,4.0,4.0,4.0,4.0,100.0,,,,,,,,,,,,,,,,,,,,,,,,,,,,,,,,,,,,,,,,,,,,,,,,,,,,,,,,,,,,,,,,,,,,,,,,,,,,,,,,,,,,,,,,,,,,,,,,,,,,,,,,,,,,,,,,,,,,,,,,,,,,,,,,,,,
1725618246.991956,1725618246.992674,255.0,0.0,4248.205078,4241.410156,4281.922852,4279.487305,4218.333496,4226.025879,4239.615234,4216.538574,4211.410156,4217.94873,4539.230957,4524.358887,4395.897461,4452.05127,35.0,2.0,35.0,,,,0.0,4.0,4.0,4.0,4.0,4.0,4.0,4.0,4.0,4.0,4.0,4.0,4.0,4.0,4.0,100.0,,,,,,,,,,,,,,,,,,,,,,,,,,,,,,,,,,,,,,,,,,,,,,,,,,,,,,,,,,,,,,,,,,,,,,,,,,,,,,,,,,,,,,,,,,,,,,,,,,,,,,,,,,,,,,,,,,,,,,,,,,,,,,,,,,,
1725618246.99586,1725618246.996678,0.0,0.0,4247.692383,4247.05127,4280.512695,4277.820313,4216.282227,4228.461426,4242.436035,4215.128418,4202.692383,4215.512695,4537.436035,4521.410156,4391.666504,4448.077148,2615.0,2.0,35.0,,,,0.0,4.0,4.0,4.0,4.0,4.0,4.0,4.0,4.0,4.0,4.0,4.0,4.0,4.0,4.0,100.0,,,,,,,,,,,,,,,,,,,,,,,,,,,,,,,,,,,,,,,,,,,,,,,,,,,,,,,,,,,,,,,,,,,,,,,,,,,,,,,,,,,,,,,,,,,,,,,,,,,,,,,,,,,,,,,,,,,,,,,,,,,,,,,,,,,
1725618246.999764,1725618247.000583,1.0,0.0,4246.538574,4248.077148,4279.230957,4277.563965,4214.871582,4230.769043,4245.128418,4215.897461,4197.307617,4214.230957,4536.922852,4518.974121,4387.820313,4445.128418,2570.0,2.0,35.0,,,,0.0,4.0,4.0,4.0,4.0,4.0,4.0,4.0,4.0,4.0,4.0,4.0,4.0,4.0,4.0,100.0,,,,,,,,,,,,,,,,,,,,,,,,,,,,,,,,,,,,,,,,,,,,,,,,,,,,,,,,,,,,,,,,,,,,,,,,,,,,,,,,,,,,,,,,,,,,,,,,,,,,,,,,,,,,,,,,,,,,,,,,,,,,,,,,,,,
1725618247.003668,1725618247.004487,2.0,0.0,4245.769043,4244.102539,4279.615234,4279.102539,4216.025879,4232.563965,4247.179688,4218.717773,4198.333496,4215.0,4538.461426,4517.94873,4386.025879,4444.358887,2453.0,2.0,35.0,,,,0.0,4.0,4.0,4.0,4.0,4.0,4.0,4.0,4.0,4.0,4.0,4.0,4.0,4.0,4.0,100.0,,,,,,,,,,,,,,,,,1.0,0.0,0.0,,,,,,,,,,,,,,,,,,,,,,,,,,,,,,,,,,,,,0.0,0.0,1.0,0.0,1.0,0.0,2.898735,1.554724,0.788411,0.360914,0.077753,1.504619,1.500499,0.480846,0.346602,0.121199,1.990744,1.306022,0.730169,0.284623,0.075083,1.226771,1.590548,0.890074,0.225056,0.06365,0.789766,0.51394,0.349348,0.112866,0.049633,0.197799,0.266303,0.138042,0.062494,0.036187,0.625966,0.388948,0.369067,0.096287,0.031465,0.39594,1.358634,0.408095,0.480631,0.166578,1.572258,0.902165,0.910076,0.481303,0.117534,3.637495,1.645485,0.906861,0.360284,0.085438,2.795646,2.60771,1.143607,0.503284,0.137741,2.697905,1.945607,0.682917,0.679567,0.162587,4.811862,2.771572,1.432976,0.41476,0.094593,2.715746,2.016593,1.080965,0.380474,0.127598
1725618247.007572,1725618247.008491,3.0,0.0,4245.512695,4237.94873,4281.282227,4280.512695,4218.846191,4233.077148,4248.205078,4221.153809,4203.077148,4216.025879,4540.512695,4517.436035,4386.282227,4445.256348,2464.0,2.0,35.0,,,,0.0,4.0,4.0,4.0,4.0,4.0,4.0,4.0,4.0,4.0,4.0,4.0,4.0,4.0,4.0,100.0,,,,,,,,,,,,,,,,,,,,,,,,,,,,,,,,,,,,,,,,,,,,,,,,,,,,,,,,,,,,,,,,,,,,,,,,,,,,,,,,,,,,,,,,,,,,,,,,,,,,,,,,,,,,,,,,,,,,,,,,,,,,,,,,,,,
1725618247.011476,1725618247.012395,4.0,0.0,4244.743652,4233.205078,4282.179688,4279.615234,4220.641113,4231.410156,4247.692383,4220.512695,4206.282227,4214.358887,4540.128418,4515.897461,4386.794922,4445.256348,2426.0,2.0,35.0,,,,0.0,4.0,4.0,4.0,4.0,4.0,4.0,4.0,4.0,4.0,4.0,4.0,4.0,4.0,4.0,100.0,,,,,,,,,,,,,,,,,,,,,,,,,,,,,,,,,,,,,,,,,,,,,,,,,,,,,,,,,,,,,,,,,,,,,,,,,,,,,,,,,,,,,,,,,,,,,,,,,,,,,,,,,,,,,,,,,,,,,,,,,,,,,,,,,,,
1725618247.01538,1725618247.016299,5.0,0.0,4241.922852,4231.666504,4279.743652,4275.384766,4218.589844,4227.436035,4244.743652,4215.384766,4204.871582,4210.0,4535.512695,4512.563965,4385.769043,4442.820313,2403.0,2.0,35.0,,,,0.0,4.0,4.0,4.0,4.0,4.0,4.0,4.0,4.0,4.0,4.0,4.0,4.0,4.0,4.0,100.0,,,,,,,,,,,,,,,,,,,,,,,,,,,,,,,,,,,,,,,,,,,,,,,,,,,,,,,,,,,,,,,,,,,,,,,,,,,,,,,,,,,,,,,,,,,,,,,,,,,,,,,,,,,,,,,,,,,,,,,,,,,,,,,,,,,
1725618247.019284,1725618247.020203,6.0,0.0,4236.794922,4232.436035,4273.589844,4268.974121,4213.077148,4222.436035,4239.871582,4207.05127,4200.512695,4205.384766,4527.820313,4507.692383,4382.692383,4438.461426,2187.0,2.0,35.0,,,,0.0,4.0,4.0,4.0,4.0,4.0,4.0,4.0,4.0,4.0,4.0,4.0,4.0,4.0,4.0,100.0,,,,,,,,,,,,,,,,,,,,,,,,,,,,,,,,,,,,,,,,,,,,,,,,,,,,,,,,,,,,,,,,,,,,,,,,,,,,,,,,,,,,,,,,,,,,,,,,,,,,,,,,,,,,,,,,,,,,,,,,,,,,,,,,,,,
1725618247.023188,1725618247.024107,7.0,0.0,4231.410156,4233.589844,4266.410156,4263.974121,4206.922852,4217.820313,4235.0,4198.717773,4196.538574,4203.333496,4521.282227,4502.820313,4379.230957,4434.487305,2498.0,2.0,35.0,,,,0.0,4.0,4.0,4.0,4.0,4.0,4.0,4.0,4.0,4.0,4.0,4.0,4.0,4.0,4.0,100.0,,,,,,,,,,,,,,,,,,,,,,,,,,,,,,,,,,,,,,,,,,,,,,,,,,,,,,,,,,,,,,,,,,,,,,,,,,,,,,,,,,,,,,,,,,,,,,,,,,,,,,,,,,,,,,,,,,,,,,,,,,,,,,,,,,,
1725618247.027093,1725618247.028111,8.0,0.0,4229.102539,4233.846191,4262.307617,4262.94873,4203.846191,4214.487305,4232.307617,4194.230957,4195.256348,4205.128418,4519.615234,4500.384766,4378.077148,4433.333496,2471.0,2.0,35.0,,,,0.0,4.0,4.0,4.0,4.0,4.0,4.0,4.0,4.0,4.0,4.0,4.0,4.0,4.0,4.0,100.0,,,,,,,,,,,,,,,,,,,,,,,,,,,,,,,,,,,,,,,,,,,,,,,,,,,,,,,,,,,,,,,,,,,,,,,,,,,,,,,,,,,,,,,,,,,,,,,,,,,,,,,,,,,,,,,,,,,,,,,,,,,,,,,,,,,
1725618247.030997,1725618247.032015,9.0,0.0,4231.410156,4233.846191,4263.974121,4266.538574,4205.512695,4213.077148,4233.333496,4196.025879,4197.05127,4209.358887,4523.589844,4501.794922,4380.256348,4435.897461,2558.0,2.0,35.0,,,,0.0,4.0,4.0,4.0,4.0,4.0,4.0,4.0,4.0,4.0,4.0,4.0,4.0,4.0,4.0,100.0,,,,,,,,,,,,,,,,,,,,,,,,,,,,,,,,,,,,,,,,,,,,,,,,,,,,,,,,,,,,,,,,,,,,,,,,,,,,,,,,,,,,,,,,,,,,,,,,,,,,,,,,,,,,,,,,,,,,,,,,,,,,,,,,,,,
1725618247.034901,1725618247.035919,10.0,0.0,4237.179688,4234.615234,4270.0,4272.563965,4210.384766,4213.846191,4237.179688,4202.820313,4200.641113,4213.589844,4530.256348,4507.05127,4385.0,4440.897461,2895.0,2.0,35.0,,,,0.0,4.0,4.0,4.0,4.0,4.0,4.0,4.0,4.0,4.0,4.0,4.0,4.0,4.0,4.0,100.0,,,,,,,,,,,,,,,,,,,,,,,,,,,,,,,,,,,,,,,,,,,,,,,,,,,,,,,,0.0,0.0,1.0,0.0,1.0,0.0,,,,,,,,,,,,,,,,,,,,,,,,,,,,,,,,,,,,,,,,,,,,,,,,,,,,,,,,,,,,,,,,,,,,,,
1725618247.038805,1725618247.039823,11.0,0.0,4243.589844,4237.05127,4276.666504,4277.94873,4215.128418,4215.769043,4241.538574,4210.512695,4203.974121,4215.512695,4536.282227,4513.974121,4390.384766,4446.153809,3074.0,2.0,35.0,,,,0.0,4.0,4.0,4.0,4.0,4.0,4.0,4.0,4.0,4.0,4.0,4.0,4.0,4.0,4.0,100.0,,,,,,,,,,,,,,,,,,,,,,,,,,,,,,,,,,,,,,,,,,,,,,,,,,,,,,,,,,,,,,,,,,,,,,,,,,,,,,,,,,,,,,,,,,,,,,,,,,,,,,,,,,,,,,,,,,,,,,,,,,,,,,,,,,,
1725618247.042709,1725618247.043628,12.0,0.0,4248.205078,4240.512695,4280.897461,4280.512695,4217.05127,4217.436035,4244.230957,4214.743652,4205.897461,4215.128418,4539.487305,4520.256348,4395.256348,4450.769043,3416.0,2.0,35.0,,,,0.0,4.0,4.0,4.0,4.0,4.0,4.0,4.0,4.0,4.0,4.0,4.0,4.0,4.0,4.0,100.0,,,,,,,,,,,,,,,,,,,,,,,,,,,,,,,,,,,,,,,,,,,,,,,,,,,,,,,,,,,,,,,,,,,,,,,,,,,,,,,,,,,,,,,,,,,,,,,,,,,,,,,,,,,,,,,,,,,,,,,,,,,,,,,,,,,
1725618247.046613,1725618247.047532,13.0,0.0,4251.025879,4244.102539,4282.563965,4281.025879,4216.025879,4217.436035,4244.743652,4213.589844,4207.179688,4214.230957,4540.512695,4523.974121,4399.743652,4454.743652,3902.0,2.0,35.0,,,,0.0,4.0,4.0,4.0,4.0,4.0,4.0,4.0,4.0,4.0,4.0,4.0,4.0,4.0,4.0,100.0,,,,,,,,,,,,,,,,,,,,,,,,,,,,,,,,,,,,,,,,,,,,,,,,,,,,,,,,,,,,,,,,,,,,,,,,,,,,,,,,,,,,,,,,,,,,,,,,,,,,,,,,,,,,,,,,,,,,,,,,,,,,,,,,,,,
1725618247.050517,1725618247.051436,14.0,0.0,4253.333496,4247.05127,4283.846191,4282.05127,4213.974121,4216.025879,4244.230957,4208.974121,4209.487305,4214.743652,4541.922852,4525.128418,4404.358887,4458.589844,2895.0,2.0,35.0,,,,0.0,4.0,4.0,4.0,4.0,4.0,4.0,4.0,4.0,4.0,4.0,4.0,4.0,4.0,4.0,100.0,,,,,,,,,,,,,,,,,,,,,,,,,,,,,,,,,,,,,,,,,,,,,,,,,,,,,,,,,,,,,,,,,,,,,,,,,,,,,,,,,,,,,,,,,,,,,,,,,,,,,,,,,,,,,,,,,,,,,,,,,,,,,,,,,,,
1725618247.054421,1725618247.05534,15.0,0.0,4257.179688,4250.0,4286.666504,4285.641113,4213.589844,4214.871582,4244.615234,4204.871582,4213.205078,4216.538574,4545.897461,4525.256348,4409.487305,4461.922852,3074.0,2.0,35.0,,,,0.0,4.0,4.0,4.0,4.0,4.0,4.0,4.0,4.0,4.0,4.0,4.0,4.0,4.0,4.0,100.0,,,,,,,,,,,,,,,,,,,,,,,,,,,,,,,,,,,,,,,,,,,,,,,,,,,,,,,,,,,,,,,,,,,,,,,,,,,,,,,,,,,,,,,,,,,,,,,,,,,,,,,,,,,,,,,,,,,,,,,,,,,,,,,,,,,
1725618247.058325,1725618247.059144,16.0,0.0,4262.307617,4253.846191,4291.538574,4290.641113,4215.384766,4216.025879,4246.538574,4204.487305,4217.692383,4218.333496,4551.410156,4526.153809,4414.102539,4463.974121,3416.0,2.0,35.0,,,,0.0,4.0,4.0,4.0,4.0,4.0,4.0,4.0,4.0,4.0,4.0,4.0,4.0,4.0,4.0,100.0,,,,,,,,,,,,,,,,,,,,,,,,,,,,,,,,,,,,,,,,,,,,,,,,,,,,,,,,,,,,,,,,,,,,,,,,,,,,,,,,,,,,,,,,,,,,,,,,,,,,,,,,,,,,,,,,,,,,,,,,,,,,,,,,,,,
1725618247.06223,1725618247.063048,17.0,0.0,4266.666504,4258.333496,4296.794922,4294.487305,4217.94873,4220.384766,4248.461426,4208.205078,4222.563965,4219.102539,4554.743652,4527.94873,4416.666504,4464.358887,3902.0,2.0,35.0,,,,0.0,4.0,4.0,4.0,4.0,4.0,4.0,4.0,4.0,4.0,4.0,4.0,4.0,4.0,4.0,100.0,,,,,,,,,,,,,,,,,,,,,,,,,,,,,,,,,,,,,,,,,,,,,,,,,,,,,,,,,,,,,,,,,,,,,,,,,,,,,,,,,,,,,,,,,,,,,,,,,,,,,,,,,,,,,,,,,,,,,,,,,,,,,,,,,,,
1725618247.066134,1725618247.066952,18.0,0.0,4267.436035,4261.410156,4299.487305,4294.615234,4218.974121,4226.538574,4248.589844,4214.230957,4227.692383,4220.0,4553.717773,4529.871582,4416.538574,4463.205078,2895.0,2.0,35.0,,,,0.0,4.0,4.0,4.0,4.0,4.0,4.0,4.0,4.0,4.0,4.0,4.0,4.0,4.0,4.0,100.0,,,,,,,,,,,,,,,,,,,,,,,,,,,,,,,,,,,,,,,,,,,,,,,,,,,,,,,,0.0,0.0,1.0,0.0,1.0,0.0,,,,,,,,,,,,,,,,,,,,,,,,,,,,,,,,,,,,,,,,,,,,,,,,,,,,,,,,,,,,,,,,,,,,,,
1725618247.070038,1725618247.070856,19.0,0.0,4263.974121,4261.282227,4298.461426,4291.538574,4218.077148,4232.436035,4247.307617,4220.0,4233.974121,4222.436035,4549.487305,4531.666504,4414.615234,4461.153809,3074.0,2.0,35.0,,,,0.0,4.0,4.0,4.0,4.0,4.0,4.0,4.0,4.0,4.0,4.0,4.0,4.0,4.0,4.0,100.0,,,,,,,,,,,,,,,,,,,,,,,,,,,,,,,,,,,,,,,,,,,,,,,,,,,,,,,,,,,,,,,,,,,,,,,,,,,,,,,,,,,,,,,,,,,,,,,,,,,,,,,,,,,,,,,,,,,,,,,,,,,,,,,,,,,
1725618247.073942,1725618247.074661,20.0,0.0,4258.205078,4258.077148,4294.615234,4287.05127,4216.538574,4235.256348,4246.153809,4223.589844,4241.282227,4227.179688,4545.641113,4532.436035,4412.820313,4458.846191,3416.0,2.0,35.0,,,,0.0,4.0,4.0,4.0,4.0,4.0,4.0,4.0,4.0,4.0,4.0,4.0,4.0,4.0,4.0,100.0,,,,,,,,,,,,,,,,,,,,,,,,,,,,,,,,,,,,,,,,,,,,,,,,,,,,,,,,,,,,,,,,,,,,,,,,,,,,,,,,,,,,,,,,,,,,,,,,,,,,,,,,,,,,,,,,,,,,,,,,,,,,,,,,,,,
1725618247.077846,1725618247.078565,21.0,0.0,4252.820313,4253.461426,4289.871582,4283.461426,4216.282227,4233.333496,4246.410156,4223.974121,4247.307617,4231.922852,4544.358887,4531.538574,4411.666504,4456.410156,3902.0,2.0,35.0,,,,0.0,4.0,4.0,4.0,4.0,4.0,4.0,4.0,4.0,4.0,4.0,4.0,4.0,4.0,4.0,100.0,,,,,,,,,,,,,,,,,,,,,,,,,,,,,,,,,,,,,,,,,,,,,,,,,,,,,,,,,,,,,,,,,,,,,,,,,,,,,,,,,,,,,,,,,,,,,,,,,,,,,,,,,,,,,,,,,,,,,,,,,,,,,,,,,,,
1725618247.08175,1725618247.082469,22.0,0.0,4249.743652,4249.615234,4285.256348,4281.666504,4217.692383,4226.922852,4247.563965,4221.282227,4248.974121,4232.820313,4543.589844,4527.94873,4409.487305,4453.717773,2895.0,2.0,35.0,,,,0.0,4.0,4.0,4.0,4.0,4.0,4.0,4.0,4.0,4.0,4.0,4.0,4.0,4.0,4.0,100.0,,,,,,,,,,,,,,,,,,,,,,,,,,,,,,,,,,,,,,,,,,,,,,,,,,,,,,,,,,,,,,,,,,,,,,,,,,,,,,,,,,,,,,,,,,,,,,,,,,,,,,,,,,,,,,,,,,,,,,,,,,,,,,,,,,,
1725618247.085654,1725618247.086373,23.0,0.0,4248.589844,4247.820313,4281.794922,4281.538574,4219.358887,4219.615234,4248.205078,4216.025879,4245.128418,4227.94873,4540.256348,4521.922852,4404.871582,4450.512695,3074.0,2.0,35.0,,,,0.0,4.0,4.0,4.0,4.0,4.0,4.0,4.0,4.0,4.0,4.0,4.0,4.0,4.0,4.0,100.0,,,,,,,,,,,,,,,,,,,,,,,,,,,,,,,,,,,,,,,,,,,,,,,,,,,,,,,,,,,,,,,,,,,,,,,,,,,,,,,,,,,,,,,,,,,,,,,,,,,,,,,,,,,,,,,,,,,,,,,,,,,,,,,,,,,
1725618247.089558,1725618247.090177,24.0,0.0,4247.94873,4248.717773,4279.615234,4282.307617,4219.615234,4215.256348,4247.820313,4209.102539,4238.333496,4220.0,4533.846191,4515.0,4397.05127,4446.666504,3416.0,2.0,35.0,,,,0.0,4.0,4.0,4.0,4.0,4.0,4.0,4.0,4.0,4.0,4.0,4.0,4.0,4.0,4.0,100.0,,,,,,,,,,,,,,,,,,,,,,,,,,,,,,,,,,,,,,,,,,,,,,,,,,,,,,,,,,,,,,,,,,,,,,,,,,,,,,,,,,,,,,,,,,,,,,,,,,,,,,,,,,,,,,,,,,,,,,,,,,,,,,,,,,,
1725618247.093462,1725618247.094081,25.0,0.0,4246.410156,4251.025879,4278.461426,4282.05127,4218.077148,4215.641113,4246.794922,4202.563965,4232.820313,4214.102539,4527.179688,4508.717773,4387.692383,4442.436035,3902.0,2.0,35.0,,,,0.0,4.0,4.0,4.0,4.0,4.0,4.0,4.0,4.0,4.0,4.0,4.0,4.0,4.0,4.0,100.0,,,,,,,,,,,,,,,,,,,,,,,,,,,,,,,,,,,,,,,,,,,,,,,,,,,,,,,,,,,,,,,,,,,,,,,,,,,,,,,,,,,,,,,,,,,,,,,,,,,,,,,,,,,,,,,,,,,,,,,,,,,,,,,,,,,
1725618247.097366,1725618247.097985,26.0,0.0,4242.94873,4253.077148,4277.307617,4279.871582,4216.153809,4218.846191,4246.410156,4198.205078,4231.025879,4212.94873,4522.94873,4504.358887,4378.461426,4437.94873,2895.0,2.0,35.0,,,,0.0,4.0,4.0,4.0,4.0,4.0,4.0,4.0,4.0,4.0,4.0,4.0,4.0,4.0,4.0,100.0,,,,,,,,,,,,,,,,,,,,,,,,,,,,,,,,,,,,,,,,,,,,,,,,,,,,,,,,0.0,0.0,1.0,0.0,1.0,0.0,,,,,,,,,,,,,,,,,,,,,,,,,,,,,,,,,,,,,,,,,,,,,,,,,,,,,,,,,,,,,,,,,,,,,,
1725618247.101271,1725618247.101989,27.0,0.0,4237.692383,4253.077148,4275.0,4276.025879,4215.128418,4221.025879,4246.794922,4198.205078,4232.307617,4214.871582,4521.282227,4502.436035,4370.256348,4433.461426,3074.0,2.0,35.0,,,,0.0,4.0,4.0,4.0,4.0,4.0,4.0,4.0,4.0,4.0,4.0,4.0,4.0,4.0,4.0,100.0,,,,,,,,,,,,,,,,,,,,,,,,,,,,,,,,,,,,,,,,,,,,,,,,,,,,,,,,,,,,,,,,,,,,,,,,,,,,,,,,,,,,,,,,,,,,,,,,,,,,,,,,,,,,,,,,,,,,,,,,,,,,,,,,,,,
1725618247.105175,1725618247.105893,28.0,0.0,4231.794922,4250.769043,4271.666504,4271.794922,4215.769043,4220.384766,4247.05127,4203.333496,4234.358887,4215.897461,4520.384766,4503.589844,4362.820313,4429.358887,3416.0,2.0,35.0,,,,0.0,4.0,4.0,4.0,4.0,4.0,4.0,4.0,4.0,4.0,4.0,4.0,4.0,4.0,4.0,100.0,,,,,,,,,,,,,,,,,,,,,,,,,,,,,,,,,,,,,,,,,,,,,,,,,,,,,,,,,,,,,,,,,,,,,,,,,,,,,,,,,,,,,,,,,,,,,,,,,,,,,,,,,,,,,,,,,,,,,,,,,,,,,,,,,,,
1725618247.109079,1725618247.109798,29.0,0.0,4226.922852,4247.05127,4268.717773,4268.077148,4217.307617,4218.205078,4245.769043,4211.282227,4236.153809,4213.589844,4518.846191,4506.666504,4355.512695,4426.922852,3902.0,2.0,35.0,,,,0.0,4.0,4.0,4.0,4.0,4.0,4.0,4.0,4.0,4.0,4.0,4.0,4.0,4.0,4.0,100.0,,,,,,,,,,,,,,,,,,,,,,,,,,,,,,,,,,,,,,,,,,,,,,,,,,,,,,,,,,,,,,,,,,,,,,,,,,,,,,,,,,,,,,,,,,,,,,,,,,,,,,,,,,,,,,,,,,,,,,,,,,,,,,,,,,,
1725618247.112983,1725618247.113802,30.0,0.0,4223.589844,4242.179688,4267.179688,4265.128418,4217.94873,4216.794922,4242.820313,4217.436035,4237.307617,4208.846191,4516.282227,4508.846191,4348.077148,4425.897461,2895.0,2.0,35.0,,,,0.0,4.0,4.0,4.0,4.0,4.0,4.0,4.0,4.0,4.0,4.0,4.0,4.0,4.0,4.0,100.0,,,,,,,,,,,,,,,,,,,,,,,,,,,,,,,,,,,,,,,,,,,,,,,,,,,,,,,,,,,,,,,,,,,,,,,,,,,,,,,,,,,,,,,,,,,,,,,,,,,,,,,,,,,,,,,,,,,,,,,,,,,,,,,,,,,
1725618247.116887,1725618247.117706,31.0,0.0,4220.641113,4236.538574,4266.282227,4261.794922,4216.025879,4216.794922,4238.717773,4217.05127,4237.436035,4204.358887,4513.333496,4506.922852,4340.512695,4424.615234,3074.0,2.0,35.0,,,,0.0,4.0,4.0,4.0,4.0,4.0,4.0,4.0,4.0,4.0,4.0,4.0,4.0,4.0,4.0,100.0,,,,,,,,,,,,,,,,,,,,,,,,,,,,,,,,,,,,,,,,,,,,,,,,,,,,,,,,,,,,,,,,,,,,,,,,,,,,,,,,,,,,,,,,,,,,,,,,,,,,,,,,,,,,,,,,,,,,,,,,,,,,,,,,,,,
1725618247.120791,1725618247.12161,32.0,0.0,4216.538574,4230.128418,4264.487305,4257.179688,4211.282227,4216.538574,4234.743652,4209.358887,4235.897461,4201.794922,4510.128418,4499.743652,4331.666504,4421.153809,0.0,2.0,35.0,,,,0.0,4.0,4.0,4.0,4.0,4.0,4.0,4.0,4.0,4.0,4.0,4.0,4.0,4.0,4.0,100.0,,,,,,,,,,,,,,,,,,,,,,,,,,,,,,,,,,,,,,,,,,,,,,,,,,,,,,,,,,,,,,,,,,,,,,,,,,,,,,,,,,,,,,,,,,,,,,,,,,,,,,,,,,,,,,,,,,,,,,,,,,,,,,,,,,,
1725618247.124695,1725618247.125514,33.0,0.0,4211.025879,4223.333496,4261.153809,4251.794922,4205.0,4214.358887,4232.179688,4198.461426,4232.436035,4201.410156,4506.794922,4489.615234,4321.538574,4415.128418,0.0,2.0,35.0,,,,0.0,4.0,4.0,4.0,4.0,4.0,4.0,4.0,4.0,4.0,4.0,4.0,4.0,4.0,4.0,100.0,,,,,,,,,,,,,,,,,,,,,,,,,,,,,,,,,,,,,,,,,,,,,,,,,,,,,,,,,,,,,,,,,,,,,,,,,,,,,,,,,,,,,,,,,,,,,,,,,,,,,,,,,,,,,,,,,,,,,,,,,,,,,,,,,,,
1725618247.128599,1725618247.129418,34.0,0.0,4206.153809,4217.436035,4257.179688,4247.05127,4200.0,4210.128418,4231.410156,4190.128418,4227.820313,4201.025879,4503.974121,4481.025879,4311.153809,4408.205078,0.0,2.0,35.0,,,,0.0,4.0,4.0,4.0,4.0,4.0,4.0,4.0,4.0,4.0,4.0,4.0,4.0,4.0,4.0,100.0,,,,,,,,,,,,,,,,,1.0,0.0,0.0,,,,,,,,,,,,,,,,,,,,,,,,,,,,,,,,,,,,,0.0,0.0,1.0,0.0,1.0,0.0,2.990514,1.513587,0.791132,0.40226,0.083422,1.466092,1.442615,0.441672,0.312861,0.119236,2.130383,1.319748,0.678974,0.291503,0.0863,1.247738,1.462411,0.83294,0.22787,0.067957,0.705955,0.524177,0.365828,0.118604,0.053242,0.194047,0.259453,0.142757,0.063508,0.038717,0.581473,0.405147,0.325713,0.09609,0.030016,0.442314,1.267861,0.479543,0.441976,0.171493,1.661577,0.908525,0.86469,0.41512,0.111418,3.778361,1.582734,0.876715,0.353152,0.092069,3.127805,2.580787,1.129436,0.454058,0.158805,2.920984,2.024884,0.707564,0.60309,0.176136,4.810321,2.572003,1.32182,0.397943,0.105348,2.804666,1.947349,1.006763,0.366683,0.123822
1725618247.132503,1725618247.133222,35.0,0.0,4204.230957,4214.102539,4254.871582,4244.743652,4198.333496,4205.128418,4232.05127,4187.436035,4222.820313,4199.615234,4502.820313,4477.94873,4303.461426,4403.717773,0.0,2.0,35.0,,,,0.0,4.0,4.0,4.0,4.0,4.0,4.0,4.0,4.0,4.0,4.0,4.0,4.0,4.0,4.0,100.0,,,,,,,,,,,,,,,,,,,,,,,,,,,,,,,,,,,,,,,,,,,,,,,,,,,,,,,,,,,,,,,,,,,,,,,,,,,,,,,,,,,,,,,,,,,,,,,,,,,,,,,,,,,,,,,,,,,,,,,,,,,,,,,,,,,
1725618247.136408,1725618247.137126,36.0,0.0,4205.897461,4214.102539,4255.897461,4245.897461,4200.0,4201.666504,4233.205078,4190.128418,4218.205078,4197.820313,4503.846191,4480.769043,4300.897461,4404.102539,0.0,2.0,35.0,,,,0.0,4.0,4.0,4.0,4.0,4.0,4.0,4.0,4.0,4.0,4.0,4.0,4.0,4.0,4.0,100.0,,,,,,,,,,,,,,,,,,,,,,,,,,,,,,,,,,,,,,,,,,,,,,,,,,,,,,,,,,,,,,,,,,,,,,,,,,,,,,,,,,,,,,,,,,,,,,,,,,,,,,,,,,,,,,,,,,,,,,,,,,,,,,,,,,,
1725618247.140312,1725618247.14103,37.0,0.0,4210.128418,4217.179688,4260.128418,4250.256348,4202.94873,4200.641113,4233.589844,4195.897461,4215.897461,4197.94873,4506.538574,4487.179688,4303.717773,4408.974121,0.0,2.0,35.0,,,,0.0,4.0,4.0,4.0,4.0,4.0,4.0,4.0,4.0,4.0,4.0,4.0,4.0,4.0,4.0,100.0,,,,,,,,,,,,,,,,,,,,,,,,,,,,,,,,,,,,,,,,,,,,,,,,,,,,,,,,,,,,,,,,,,,,,,,,,,,,,,,,,,,,,,,,,,,,,,,,,,,,,,,,,,,,,,,,,,,,,,,,,,,,,,,,,,,
1725618247.144216,1725618247.144934,38.0,0.0,4214.487305,4221.922852,4265.0,4256.282227,4205.0,4201.410156,4233.333496,4201.794922,4217.05127,4200.512695,4510.0,4493.077148,4308.974121,4415.769043,0.0,2.0,35.0,,,,0.0,4.0,4.0,4.0,4.0,4.0,4.0,4.0,4.0,4.0,4.0,4.0,4.0,4.0,4.0,100.0,,,,,,,,,,,,,,,,,,,,,,,,,,,,,,,,,,,,,,,,,,,,,,,,,,,,,,,,,,,,,,,,,,,,,,,,,,,,,,,,,,,,,,,,,,,,,,,,,,,,,,,,,,,,,,,,,,,,,,,,,,,,,,,,,,,
1725618247.14812,1725618247.148739,39.0,0.0,4217.307617,4226.666504,4267.94873,4261.538574,4205.384766,4202.820313,4232.820313,4204.871582,4220.0,4203.717773,4512.820313,4495.384766,4312.692383,4420.384766,0.0,2.0,35.0,,,,0.0,4.0,4.0,4.0,4.0,4.0,4.0,4.0,4.0,4.0,4.0,4.0,4.0,4.0,4.0,100.0,,,,,,,,,,,,,,,,,,,,,,,,,,,,,,,,,,,,,,,,,,,,,,,,,,,,,,,,,,,,,,,,,,,,,,,,,,,,,,,,,,,,,,,,,,,,,,,,,,,,,,,,,,,,,,,,,,,,,,,,,,,,,,,,,,,
1725618247.152024,1725618247.152643,40.0,0.0,4218.077148,4230.384766,4267.94873,4264.230957,4204.743652,4204.615234,4232.94873,4203.846191,4221.153809,4204.230957,4513.205078,4493.589844,4312.563965,4420.897461,0.0,2.0,35.0,,,,0.0,4.0,4.0,4.0,4.0,4.0,4.0,4.0,4.0,4.0,4.0,4.0,4.0,4.0,4.0,100.0,,,,,,,,,,,,,,,,,,,,,,,,,,,,,,,,,,,,,,,,,,,,,,,,,,,,,,,,,,,,,,,,,,,,,,,,,,,,,,,,,,,,,,,,,,,,,,,,,,,,,,,,,,,,,,,,,,,,,,,,,,,,,,,,,,,
1725618247.155928,1725618247.156547,41.0,0.0,4217.94873,4232.179688,4265.897461,4263.846191,4204.102539,4207.436035,4233.717773,4199.487305,4218.205078,4200.256348,4510.641113,4489.615234,4308.717773,4417.820313,0.0,2.0,35.0,,,,0.0,4.0,4.0,4.0,4.0,4.0,4.0,4.0,4.0,4.0,4.0,4.0,4.0,4.0,4.0,100.0,,,,,,,,,,,,,,,,,,,,,,,,,,,,,,,,,,,,,,,,,,,,,,,,,,,,,,,,,,,,,,,,,,,,,,,,,,,,,,,,,,,,,,,,,,,,,,,,,,,,,,,,,,,,,,,,,,,,,,,,,,,,,,,,,,,
1725618247.159832,1725618247.160451,42.0,0.0,4218.205078,4232.179688,4264.102539,4262.179688,4204.230957,4210.384766,4234.487305,4194.487305,4212.179688,4192.94873,4506.794922,4486.538574,4304.487305,4413.974121,0.0,2.0,35.0,,,,0.0,4.0,4.0,4.0,4.0,4.0,4.0,4.0,4.0,4.0,4.0,4.0,4.0,4.0,4.0,100.0,,,,,,,,,,,,,,,,,,,,,,,,,,,,,,,,,,,,,,,,,,,,,,,,,,,,,,,,0.0,0.0,1.0,0.0,1.0,0.0,,,,,,,,,,,,,,,,,,,,,,,,,,,,,,,,,,,,,,,,,,,,,,,,,,,,,,,,,,,,,,,,,,,,,,
1725618247.163736,1725618247.164255,43.0,0.0,4219.230957,4230.769043,4263.974121,4261.153809,4205.0,4212.307617,4235.0,4191.282227,4206.538574,4186.025879,4504.230957,4486.794922,4302.820313,4412.307617,0.0,2.0,35.0,,,,0.0,4.0,4.0,4.0,4.0,4.0,4.0,4.0,4.0,4.0,4.0,4.0,4.0,4.0,4.0,100.0,,,,,,,,,,,,,,,,,,,,,,,,,,,,,,,,,,,,,,,,,,,,,,,,,,,,,,,,,,,,,,,,,,,,,,,,,,,,,,,,,,,,,,,,,,,,,,,,,,,,,,,,,,,,,,,,,,,,,,,,,,,,,,,,,,,
1725618247.16764,1725618247.168159,44.0,0.0,4220.256348,4229.358887,4265.256348,4261.538574,4205.512695,4211.922852,4234.743652,4190.641113,4204.230957,4182.436035,4504.487305,4489.743652,4304.358887,4413.846191,0.0,2.0,35.0,,,,0.0,4.0,4.0,4.0,4.0,4.0,4.0,4.0,4.0,4.0,4.0,4.0,4.0,4.0,4.0,100.0,,,,,,,,,,,,,,,,,,,,,,,,,,,,,,,,,,,,,,,,,,,,,,,,,,,,,,,,,,,,,,,,,,,,,,,,,,,,,,,,,,,,,,,,,,,,,,,,,,,,,,,,,,,,,,,,,,,,,,,,,,,,,,,,,,,
1725618247.171544,1725618247.172063,45.0,0.0,4220.512695,4229.358887,4266.922852,4262.563965,4205.512695,4209.487305,4233.974121,4192.307617,4206.025879,4183.077148,4506.025879,4493.205078,4306.794922,4417.692383,0.0,2.0,35.0,,,,0.0,4.0,4.0,4.0,4.0,4.0,4.0,4.0,4.0,4.0,4.0,4.0,4.0,4.0,4.0,100.0,,,,,,,,,,,,,,,,,,,,,,,,,,,,,,,,,,,,,,,,,,,,,,,,,,,,,,,,,,,,,,,,,,,,,,,,,,,,,,,,,,,,,,,,,,,,,,,,,,,,,,,,,,,,,,,,,,,,,,,,,,,,,,,,,,,
1725618247.175449,1725618247.175968,46.0,0.0,4219.871582,4230.769043,4267.692383,4263.461426,4205.0,4207.05127,4232.692383,4195.256348,4210.128418,4185.897461,4506.410156,4495.256348,4307.692383,4421.794922,0.0,2.0,35.0,,,,0.0,4.0,4.0,4.0,4.0,4.0,4.0,4.0,4.0,4.0,4.0,4.0,4.0,4.0,4.0,100.0,,,,,,,,,,,,,,,,,,,,,,,,,,,,,,,,,,,,,,,,,,,,,,,,,,,,,,,,,,,,,,,,,,,,,,,,,,,,,,,,,,,,,,,,,,,,,,,,,,,,,,,,,,,,,,,,,,,,,,,,,,,,,,,,,,,
1725618247.179353,1725618247.179772,47.0,0.0,4219.615234,4232.307617,4267.692383,4263.846191,4204.230957,4206.666504,4231.282227,4198.205078,4214.102539,4188.461426,4505.769043,4495.128418,4306.153809,4423.846191,0.0,2.0,35.0,,,,0.0,4.0,4.0,4.0,4.0,4.0,4.0,4.0,4.0,4.0,4.0,4.0,4.0,4.0,4.0,100.0,,,,,,,,,,,,,,,,,,,,,,,,,,,,,,,,,,,,,,,,,,,,,,,,,,,,,,,,,,,,,,,,,,,,,,,,,,,,,,,,,,,,,,,,,,,,,,,,,,,,,,,,,,,,,,,,,,,,,,,,,,,,,,,,,,,
1725618247.183257,1725618247.183676,48.0,0.0,4221.282227,4232.436035,4267.179688,4263.461426,4203.717773,4209.615234,4230.384766,4200.256348,4216.666504,4189.358887,4505.897461,4493.717773,4304.615234,4423.205078,0.0,2.0,35.0,,,,0.0,4.0,4.0,4.0,4.0,4.0,4.0,4.0,4.0,4.0,4.0,4.0,4.0,4.0,4.0,100.0,,,,,,,,,,,,,,,,,,,,,,,,,,,,,,,,,,,,,,,,,,,,,,,,,,,,,,,,,,,,,,,,,,,,,,,,,,,,,,,,,,,,,,,,,,,,,,,,,,,,,,,,,,,,,,,,,,,,,,,,,,,,,,,,,,,
1725618247.187161,1725618247.18758,49.0,0.0,4224.743652,4230.128418,4266.410156,4262.820313,4203.846191,4214.102539,4230.256348,4201.153809,4217.436035,4188.846191,4507.94873,4491.794922,4305.256348,4421.410156,0.0,2.0,35.0,,,,0.0,4.0,4.0,4.0,4.0,4.0,4.0,4.0,4.0,4.0,4.0,4.0,4.0,4.0,4.0,100.0,,,,,,,,,,,,,,,,,,,,,,,,,,,,,,,,,,,,,,,,,,,,,,,,,,,,,,,,,,,,,,,,,,,,,,,,,,,,,,,,,,,,,,,,,,,,,,,,,,,,,,,,,,,,,,,,,,,,,,,,,,,,,,,,,,,
1725618247.191065,1725618247.191484,50.0,0.0,4227.179688,4225.769043,4265.128418,4262.05127,4204.358887,4217.692383,4231.025879,4201.282227,4217.179688,4187.820313,4509.487305,4490.256348,4307.820313,4420.0,0.0,2.0,35.0,,,,0.0,4.0,4.0,4.0,4.0,4.0,4.0,4.0,4.0,4.0,4.0,4.0,4.0,4.0,4.0,100.0,,,,,,,,,,,,,,,,,,,,,,,,,,,,,,,,,,,,,,,,,,,,,,,,,,,,,,,,0.0,0.0,1.0,0.0,1.0,0.0,,,,,,,,,,,,,,,,,,,,,,,,,,,,,,,,,,,,,,,,,,,,,,,,,,,,,,,,,,,,,,,,,,,,,,
1725618247.194969,1725618247.195288,51.0,0.0,4226.410156,4221.153809,4263.717773,4261.410156,4204.871582,4218.333496,4231.794922,4201.282227,4216.153809,4186.410156,4507.563965,4489.487305,4309.230957,4419.358887,0.0,2.0,35.0,,,,0.0,4.0,4.0,4.0,4.0,4.0,4.0,4.0,4.0,4.0,4.0,4.0,4.0,4.0,4.0,100.0,,,,,,,,,,,,,,,,,,,,,,,,,,,,,,,,,,,,,,,,,,,,,,,,,,,,,,,,,,,,,,,,,,,,,,,,,,,,,,,,,,,,,,,,,,,,,,,,,,,,,,,,,,,,,,,,,,,,,,,,,,,,,,,,,,,
1725618247.198873,1725618247.199192,52.0,0.0,4222.436035,4217.94873,4263.205078,4260.384766,4204.743652,4216.153809,4232.179688,4201.153809,4214.102539,4185.128418,4501.282227,4489.871582,4306.282227,4418.717773,0.0,2.0,35.0,,,,0.0,4.0,4.0,4.0,4.0,4.0,4.0,4.0,4.0,4.0,4.0,4.0,4.0,4.0,4.0,100.0,,,,,,,,,,,,,,,,,,,,,,,,,,,,,,,,,,,,,,,,,,,,,,,,,,,,,,,,,,,,,,,,,,,,,,,,,,,,,,,,,,,,,,,,,,,,,,,,,,,,,,,,,,,,,,,,,,,,,,,,,,,,,,,,,,,
1725618247.202777,1725618247.203096,53.0,0.0,4218.205078,4217.05127,4263.846191,4258.974121,4203.461426,4213.077148,4231.666504,4200.0,4210.897461,4184.230957,4493.717773,4490.641113,4299.487305,4417.307617,0.0,2.0,35.0,,,,0.0,4.0,4.0,4.0,4.0,4.0,4.0,4.0,4.0,4.0,4.0,4.0,4.0,4.0,4.0,100.0,,,,,,,,,,,,,,,,,,,,,,,,,,,,,,,,,,,,,,,,,,,,,,,,,,,,,,,,,,,,,,,,,,,,,,,,,,,,,,,,,,,,,,,,,,,,,,,,,,,,,,,,,,,,,,,,,,,,,,,,,,,,,,,,,,,
1725618247.206681,1725618247.2071,54.0,0.0,4216.153809,4217.820313,4265.0,4257.94873,4201.282227,4211.153809,4230.512695,4197.307617,4206.922852,4183.974121,4489.743652,4491.025879,4293.205078,4415.897461,0.0,2.0,35.0,,,,0.0,4.0,4.0,4.0,4.0,4.0,4.0,4.0,4.0,4.0,4.0,4.0,4.0,4.0,4.0,100.0,,,,,,,,,,,,,,,,,,,,,,,,,,,,,,,,,,,,,,,,,,,,,,,,,,,,,,,,,,,,,,,,,,,,,,,,,,,,,,,,,,,,,,,,,,,,,,,,,,,,,,,,,,,,,,,,,,,,,,,,,,,,,,,,,,,
1725618247.210585,1725618247.211005,55.0,0.0,4217.179688,4218.974121,4265.769043,4258.333496,4198.846191,4211.282227,4229.230957,4195.0,4203.461426,4184.230957,4492.692383,4490.897461,4292.307617,4416.538574,0.0,2.0,35.0,,,,0.0,4.0,4.0,4.0,4.0,4.0,4.0,4.0,4.0,4.0,4.0,4.0,4.0,4.0,4.0,100.0,,,,,,,,,,,,,,,,,,,,,,,,,,,,,,,,,,,,,,,,,,,,,,,,,,,,,,,,,,,,,,,,,,,,,,,,,,,,,,,,,,,,,,,,,,,,,,,,,,,,,,,,,,,,,,,,,,,,,,,,,,,,,,,,,,,
1725618247.21449,1725618247.214909,56.0,0.0,4219.871582,4219.102539,4265.769043,4259.871582,4197.179688,4213.077148,4228.589844,4196.025879,4201.794922,4185.0,4501.153809,4490.641113,4297.820313,4420.641113,0.0,2.0,35.0,,,,0.0,4.0,4.0,4.0,4.0,4.0,4.0,4.0,4.0,4.0,4.0,4.0,4.0,4.0,4.0,100.0,,,,,,,,,,,,,,,,,,,,,,,,,,,,,,,,,,,,,,,,,,,,,,,,,,,,,,,,,,,,,,,,,,,,,,,,,,,,,,,,,,,,,,,,,,,,,,,,,,,,,,,,,,,,,,,,,,,,,,,,,,,,,,,,,,,
1725618247.218394,1725618247.218913,57.0,0.0,4221.922852,4218.077148,4265.512695,4261.153809,4196.922852,4215.0,4228.974121,4200.769043,4202.692383,4185.512695,4510.128418,4490.769043,4306.153809,4426.153809,0.0,2.0,35.0,,,,0.0,4.0,4.0,4.0,4.0,4.0,4.0,4.0,4.0,4.0,4.0,4.0,4.0,4.0,4.0,100.0,,,,,,,,,,,,,,,,,,,,,,,,,,,,,,,,,,,,,,,,,,,,,,,,,,,,,,,,,,,,,,,,,,,,,,,,,,,,,,,,,,,,,,,,,,,,,,,,,,,,,,,,,,,,,,,,,,,,,,,,,,,,,,,,,,,
1725618247.222298,1725618247.222817,58.0,0.0,4221.794922,4216.410156,4265.384766,4260.769043,4197.94873,4215.641113,4230.0,4205.384766,4204.871582,4185.384766,4513.717773,4491.025879,4311.922852,4428.717773,0.0,2.0,35.0,,,,0.0,4.0,4.0,4.0,4.0,4.0,4.0,4.0,4.0,4.0,4.0,4.0,4.0,4.0,4.0,100.0,,,,,,,,,,,,,,,,,,,,,,,,,,,,,,,,,,,,,,,,,,,,,,,,,,,,,,,,0.0,0.0,1.0,0.0,1.0,0.0,,,,,,,,,,,,,,,,,,,,,,,,,,,,,,,,,,,,,,,,,,,,,,,,,,,,,,,,,,,,,,,,,,,,,,
1725618247.226202,1725618247.226721,59.0,0.0,4219.743652,4215.384766,4265.0,4258.717773,4199.358887,4214.102539,4230.897461,4204.487305,4205.641113,4184.230957,4509.871582,4490.512695,4312.05127,4425.128418,0.0,2.0,35.0,,,,0.0,4.0,4.0,4.0,4.0,4.0,4.0,4.0,4.0,4.0,4.0,4.0,4.0,4.0,4.0,100.0,,,,,,,,,,,,,,,,,,,,,,,,,,,,,,,,,,,,,,,,,,,,,,,,,,,,,,,,,,,,,,,,,,,,,,,,,,,,,,,,,,,,,,,,,,,,,,,,,,,,,,,,,,,,,,,,,,,,,,,,,,,,,,,,,,,
1725618247.230106,1725618247.230625,60.0,0.0,4217.307617,4215.641113,4263.974121,4256.410156,4200.384766,4210.256348,4230.769043,4196.666504,4203.589844,4183.077148,4501.538574,4488.846191,4308.333496,4417.563965,0.0,2.0,35.0,,,,0.0,4.0,4.0,4.0,4.0,4.0,4.0,4.0,4.0,4.0,4.0,4.0,4.0,4.0,4.0,100.0,,,,,,,,,,,,,,,,,,,,,,,,,,,,,,,,,,,,,,,,,,,,,,,,,,,,,,,,,,,,,,,,,,,,,,,,,,,,,,,,,,,,,,,,,,,,,,,,,,,,,,,,,,,,,,,,,,,,,,,,,,,,,,,,,,,
1725618247.23401,1725618247.234529,61.0,0.0,4216.153809,4216.794922,4262.820313,4255.641113,4201.025879,4205.256348,4229.487305,4187.05127,4200.641113,4182.820313,4495.256348,4486.794922,4305.128418,4411.538574,0.0,2.0,35.0,,,,0.0,4.0,4.0,4.0,4.0,4.0,4.0,4.0,4.0,4.0,4.0,4.0,4.0,4.0,4.0,100.0,,,,,,,,,,,,,,,,,,,,,,,,,,,,,,,,,,,,,,,,,,,,,,,,,,,,,,,,,,,,,,,,,,,,,,,,,,,,,,,,,,,,,,,,,,,,,,,,,,,,,,,,,,,,,,,,,,,,,,,,,,,,,,,,,,,
1725618247.237914,1725618247.238333,62.0,0.0,4216.794922,4217.179688,4262.307617,4256.538574,4201.666504,4201.025879,4228.333496,4182.307617,4199.487305,4183.589844,4496.153809,4486.410156,4305.769043,4411.538574,0.0,2.0,35.0,,,,0.0,4.0,4.0,4.0,4.0,4.0,4.0,4.0,4.0,4.0,4.0,4.0,4.0,4.0,4.0,100.0,,,,,,,,,,,,,,,,,,,,,,,,,,,,,,,,,,,,,,,,,,,,,,,,,,,,,,,,,,,,,,,,,,,,,,,,,,,,,,,,,,,,,,,,,,,,,,,,,,,,,,,,,,,,,,,,,,,,,,,,,,,,,,,,,,,
1725618247.241818,1725618247.242237,63.0,0.0,4217.94873,4216.025879,4262.563965,4257.692383,4202.563965,4199.230957,4228.589844,4185.897461,4201.410156,4184.102539,4503.205078,4488.205078,4309.743652,4417.563965,0.0,2.0,35.0,,,,0.0,4.0,4.0,4.0,4.0,4.0,4.0,4.0,4.0,4.0,4.0,4.0,4.0,4.0,4.0,100.0,,,,,,,,,,,,,,,,,,,,,,,,,,,,,,,,,,,,,,,,,,,,,,,,,,,,,,,,,,,,,,,,,,,,,,,,,,,,,,,,,,,,,,,,,,,,,,,,,,,,,,,,,,,,,,,,,,,,,,,,,,,,,,,,,,,
1725618247.245722,1725618247.246141,64.0,0.0,4217.94873,4214.102539,4262.692383,4257.05127,4203.077148,4200.512695,4230.128418,4194.615234,4204.871582,4183.717773,4510.512695,4491.025879,4313.717773,4424.487305,0.0,2.0,35.0,,,,0.0,4.0,4.0,4.0,4.0,4.0,4.0,4.0,4.0,4.0,4.0,4.0,4.0,4.0,4.0,100.0,,,,,,,,,,,,,,,,,,,,,,,,,,,,,,,,,,,,,,,,,,,,,,,,,,,,,,,,,,,,,,,,,,,,,,,,,,,,,,,,,,,,,,,,,,,,,,,,,,,,,,,,,,,,,,,,,,,,,,,,,,,,,,,,,,,
1725618247.249627,1725618247.250046,65.0,0.0,4216.282227,4213.077148,4261.153809,4253.461426,4202.563965,4203.461426,4231.410156,4201.538574,4206.794922,4182.692383,4512.307617,4492.436035,4314.358887,4426.666504,0.0,2.0,35.0,,,,0.0,4.0,4.0,4.0,4.0,4.0,4.0,4.0,4.0,4.0,4.0,4.0,4.0,4.0,4.0,100.0,,,,,,,,,,,,,,,,,,,,,,,,,,,,,,,,,,,,,,,,,,,,,,,,,,,,,,,,,,,,,,,,,,,,,,,,,,,,,,,,,,,,,,,,,,,,,,,,,,,,,,,,,,,,,,,,,,,,,,,,,,,,,,,,,,,
1725618247.253531,1725618247.25385,66.0,0.0,4213.974121,4213.333496,4257.563965,4248.589844,4200.641113,4205.384766,4230.384766,4201.538574,4205.769043,4182.179688,4507.179688,4490.769043,4311.922852,4422.307617,0.0,2.0,35.0,,,,0.0,4.0,4.0,4.0,4.0,4.0,4.0,4.0,4.0,4.0,4.0,4.0,4.0,4.0,4.0,100.0,1.0,100.0,4.0,4.0,4.0,4.0,4.0,4.0,4.0,4.0,4.0,4.0,4.0,4.0,4.0,4.0,1.0,0.0,0.0,,,,,,,,,,,,,,,,,,,,,,,,,,,,,,,,,,,,,0.0,0.0,1.0,0.0,1.0,0.0,2.929304,1.46787,0.842752,0.455426,0.08814,1.418889,1.388153,0.440467,0.296844,0.119017,2.187557,1.418795,0.685669,0.310809,0.100543,1.301429,1.337823,0.817661,0.249591,0.076026,0.648544,0.525902,0.374435,0.127786,0.058419,0.182591,0.257226,0.137758,0.063499,0.040956,0.544672,0.459563,0.296055,0.101682,0.032294,0.489796,1.240116,0.593028,0.395362,0.185459,1.65844,0.959488,0.818171,0.332622,0.102301,3.630853,1.550682,0.871202,0.359269,0.100439,3.325155,2.632391,1.16282,0.442619,0.194907,3.158531,2.206933,0.868943,0.562012,0.197236,4.506222,2.34862,1.20669,0.425803,0.118814,2.800996,1.967757,0.990635,0.391091,0.124165
1725618247.257435,1725618247.257754,67.0,0.0,4212.307617,4213.974121,4252.692383,4245.641113,4198.333496,4205.0,4226.025879,4194.487305,4203.205078,4182.94873,4498.846191,4486.538574,4309.230957,4414.230957,0.0,2.0,35.0,,,,0.0,4.0,4.0,4.0,4.0,4.0,4.0,4.0,4.0,4.0,4.0,4.0,4.0,4.0,4.0,100.0,,,,,,,,,,,,,,,,,,,,,,,,,,,,,,,,,,,,,,,,,,,,,,,,,,,,,,,,,,,,,,,,,,,,,,,,,,,,,,,,,,,,,,,,,,,,,,,,,,,,,,,,,,,,,,,,,,,,,,,,,,,,,,,,,,,
1725618247.261339,1725618247.261658,68.0,0.0,4211.538574,4213.589844,4248.461426,4246.922852,4197.05127,4202.94873,4220.256348,4184.871582,4201.282227,4184.358887,4492.307617,4481.153809,4308.974121,4407.94873,0.0,2.0,35.0,,,,0.0,4.0,4.0,4.0,4.0,4.0,4.0,4.0,4.0,4.0,4.0,4.0,4.0,4.0,4.0,100.0,,,,,,,,,,,,,,,,,,,,,,,,,,,,,,,,,,,,,,,,,,,,,,,,,,,,,,,,,,,,,,,,,,,,,,,,,,,,,,,,,,,,,,,,,,,,,,,,,,,,,,,,,,,,,,,,,,,,,,,,,,,,,,,,,,,
1725618247.265243,1725618247.265562,69.0,0.0,4211.666504,4211.794922,4246.282227,4250.897461,4197.436035,4201.666504,4216.538574,4178.461426,4201.282227,4185.384766,4490.256348,4476.410156,4310.897461,4406.794922,0.0,2.0,35.0,,,,0.0,4.0,4.0,4.0,4.0,4.0,4.0,4.0,4.0,4.0,4.0,4.0,4.0,4.0,4.0,100.0,,,,,,,,,,,,,,,,,,,,,,,,,,,,,,,,,,,,,,,,,,,,,,,,,,,,,,,,,,,,,,,,,,,,,,,,,,,,,,,,,,,,,,,,,,,,,,,,,,,,,,,,,,,,,,,,,,,,,,,,,,,,,,,,,,,
1725618247.269147,1725618247.269366,70.0,0.0,4212.436035,4209.358887,4246.538574,4254.102539,4199.102539,4202.820313,4217.179688,4178.205078,4202.563965,4185.128418,4492.307617,4473.589844,4313.205078,4410.128418,0.0,2.0,35.0,,,,0.0,4.0,4.0,4.0,4.0,4.0,4.0,4.0,4.0,4.0,4.0,4.0,4.0,4.0,4.0,100.0,,,,,,,,,,,,,,,,,,,,,,,,,,,,,,,,,,,,,,,,,,,,,,,,,,,,,,,,,,,,,,,,,,,,,,,,,,,,,,,,,,,,,,,,,,,,,,,,,,,,,,,,,,,,,,,,,,,,,,,,,,,,,,,,,,,
1725618247.273051,1725618247.27327,71.0,0.0,4213.846191,4207.820313,4247.692383,4253.846191,4200.897461,4205.641113,4221.922852,4182.820313,4203.205078,4183.846191,4495.384766,4472.94873,4313.461426,4413.846191,0.0,2.0,35.0,,,,0.0,4.0,4.0,4.0,4.0,4.0,4.0,4.0,4.0,4.0,4.0,4.0,4.0,4.0,4.0,100.0,,,,,,,,,,,,,,,,,,,,,,,,,,,,,,,,,,,,,,,,,,,,,,,,,,,,,,,,,,,,,,,,,,,,,,,,,,,,,,,,,,,,,,,,,,,,,,,,,,,,,,,,,,,,,,,,,,,,,,,,,,,,,,,,,,,
1725618247.276955,1725618247.277175,72.0,0.0,4215.769043,4208.589844,4248.717773,4250.897461,4202.05127,4208.077148,4227.436035,4187.94873,4202.179688,4182.436035,4496.410156,4474.487305,4311.153809,4414.743652,0.0,2.0,35.0,,,,0.0,4.0,4.0,4.0,4.0,4.0,4.0,4.0,4.0,4.0,4.0,4.0,4.0,4.0,4.0,100.0,,,,,,,,,,,,,,,,,,,,,,,,,,,,,,,,,,,,,,,,,,,,,,,,,,,,,,,,,,,,,,,,,,,,,,,,,,,,,,,,,,,,,,,,,,,,,,,,,,,,,,,,,,,,,,,,,,,,,,,,,,,,,,,,,,,
1725618247.280859,1725618247.281079,73.0,0.0,4217.179688,4211.666504,4249.743652,4248.461426,4202.05127,4207.94873,4229.871582,4190.0,4200.256348,4182.05127,4494.102539,4477.692383,4308.077148,4412.820313,0.0,2.0,35.0,,,,0.0,4.0,4.0,4.0,4.0,4.0,4.0,4.0,4.0,4.0,4.0,4.0,4.0,4.0,4.0,100.0,,,,,,,,,,,,,,,,,,,,,,,,,,,,,,,,,,,,,,,,,,,,,,,,,,,,,,,,,,,,,,,,,,,,,,,,,,,,,,,,,,,,,,,,,,,,,,,,,,,,,,,,,,,,,,,,,,,,,,,,,,,,,,,,,,,
1725618247.284763,1725618247.284883,74.0,0.0,4217.563965,4215.384766,4251.666504,4249.743652,4201.025879,4205.128418,4227.436035,4188.461426,4199.230957,4182.820313,4490.0,4482.436035,4307.179688,4411.025879,0.0,2.0,35.0,,,,0.0,4.0,4.0,4.0,4.0,4.0,4.0,4.0,4.0,4.0,4.0,4.0,4.0,4.0,4.0,100.0,,,,,,,,,,,,,,,,,,,,,,,,,,,,,,,,,,,,,,,,,,,,,,,,,,,,,,,,0.0,0.0,1.0,0.0,1.0,0.0,,,,,,,,,,,,,,,,,,,,,,,,,,,,,,,,,,,,,,,,,,,,,,,,,,,,,,,,,,,,,,,,,,,,,,
1725618247.288668,1725618247.288787,75.0,0.0,4217.05127,4217.563965,4255.512695,4254.615234,4199.871582,4202.307617,4221.794922,4185.897461,4199.871582,4183.846191,4487.820313,4487.820313,4310.128418,4412.436035,0.0,2.0,35.0,,,,0.0,4.0,4.0,4.0,4.0,4.0,4.0,4.0,4.0,4.0,4.0,4.0,4.0,4.0,4.0,100.0,,,,,,,,,,,,,,,,,,,,,,,,,,,,,,,,,,,,,,,,,,,,,,,,,,,,,,,,,,,,,,,,,,,,,,,,,,,,,,,,,,,,,,,,,,,,,,,,,,,,,,,,,,,,,,,,,,,,,,,,,,,,,,,,,,,
1725618247.292572,1725618247.292691,76.0,0.0,4217.05127,4217.563965,4260.512695,4260.384766,4199.487305,4202.307617,4217.179688,4185.128418,4201.794922,4184.230957,4490.128418,4492.563965,4316.153809,4417.179688,0.0,2.0,35.0,,,,0.0,4.0,4.0,4.0,4.0,4.0,4.0,4.0,4.0,4.0,4.0,4.0,4.0,4.0,4.0,100.0,,,,,,,,,,,,,,,,,,,,,,,,,,,,,,,,,,,,,,,,,,,,,,,,,,,,,,,,,,,,,,,,,,,,,,,,,,,,,,,,,,,,,,,,,,,,,,,,,,,,,,,,,,,,,,,,,,,,,,,,,,,,,,,,,,,
1725618247.296476,1725618247.296695,77.0,0.0,4218.846191,4216.153809,4264.743652,4264.230957,4200.128418,4206.410156,4217.05127,4186.922852,4203.974121,4183.974121,4496.538574,4495.0,4322.94873,4423.717773,0.0,2.0,35.0,,,,0.0,4.0,4.0,4.0,4.0,4.0,4.0,4.0,4.0,4.0,4.0,4.0,4.0,4.0,4.0,100.0,,,,,,,,,,,,,,,,,,,,,,,,,,,,,,,,,,,,,,,,,,,,,,,,,,,,,,,,,,,,,,,,,,,,,,,,,,,,,,,,,,,,,,,,,,,,,,,,,,,,,,,,,,,,,,,,,,,,,,,,,,,,,,,,,,,
1725618247.30038,1725618247.300599,78.0,0.0,4223.077148,4215.384766,4267.05127,4265.256348,4201.282227,4212.820313,4221.666504,4190.897461,4205.512695,4183.846191,4504.102539,4494.743652,4327.563965,4429.487305,0.0,2.0,35.0,,,,0.0,4.0,4.0,4.0,4.0,4.0,4.0,4.0,4.0,4.0,4.0,4.0,4.0,4.0,4.0,100.0,,,,,,,,,,,,,,,,,,,,,,,,,,,,,,,,,,,,,,,,,,,,,,,,,,,,,,,,,,,,,,,,,,,,,,,,,,,,,,,,,,,,,,,,,,,,,,,,,,,,,,,,,,,,,,,,,,,,,,,,,,,,,,,,,,,
1725618247.304284,1725618247.304503,79.0,0.0,4228.461426,4216.282227,4267.692383,4264.102539,4201.922852,4217.692383,4227.820313,4195.769043,4205.769043,4184.487305,4509.487305,4493.333496,4328.333496,4432.436035,0.0,2.0,35.0,,,,0.0,4.0,4.0,4.0,4.0,4.0,4.0,4.0,4.0,4.0,4.0,4.0,4.0,4.0,4.0,100.0,,,,,,,,,,,,,,,,,,,,,,,,,,,,,,,,,,,,,,,,,,,,,,,,,,,,,,,,,,,,,,,,,,,,,,,,,,,,,,,,,,,,,,,,,,,,,,,,,,,,,,,,,,,,,,,,,,,,,,,,,,,,,,,,,,,
1725618247.308188,1725618247.308407,80.0,0.0,4233.205078,4218.333496,4267.820313,4262.179688,4201.666504,4217.692383,4231.410156,4200.128418,4204.743652,4186.025879,4510.897461,4493.077148,4325.769043,4432.05127,0.0,2.0,35.0,,,,0.0,4.0,4.0,4.0,4.0,4.0,4.0,4.0,4.0,4.0,4.0,4.0,4.0,4.0,4.0,100.0,,,,,,,,,,,,,,,,,,,,,,,,,,,,,,,,,,,,,,,,,,,,,,,,,,,,,,,,,,,,,,,,,,,,,,,,,,,,,,,,,,,,,,,,,,,,,,,,,,,,,,,,,,,,,,,,,,,,,,,,,,,,,,,,,,,
1725618247.312092,1725618247.312411,81.0,0.0,4235.512695,4220.256348,4268.974121,4261.025879,4200.897461,4212.94873,4231.410156,4202.692383,4203.333496,4187.563965,4509.487305,4495.256348,4322.820313,4429.615234,0.0,2.0,35.0,,,,0.0,4.0,4.0,4.0,4.0,4.0,4.0,4.0,4.0,4.0,4.0,4.0,4.0,4.0,4.0,100.0,,,,,,,,,,,,,,,,,,,,,,,,,,,,,,,,,,,,,,,,,,,,,,,,,,,,,,,,,,,,,,,,,,,,,,,,,,,,,,,,,,,,,,,,,,,,,,,,,,,,,,,,,,,,,,,,,,,,,,,,,,,,,,,,,,,
1725618247.315996,1725618247.316315,82.0,0.0,4235.256348,4220.641113,4272.05127,4262.307617,4200.384766,4207.563965,4229.615234,4202.820313,4202.692383,4188.589844,4507.05127,4499.487305,4322.436035,4428.205078,0.0,2.0,35.0,,,,0.0,4.0,4.0,4.0,4.0,4.0,4.0,4.0,4.0,4.0,4.0,4.0,4.0,4.0,4.0,100.0,,,,,,,,,,,,,,,,,,,,,,,,,,,,,,,,,,,,,,,,,,,,,,,,,,,,,,,,0.0,0.0,1.0,0.0,1.0,0.0,,,,,,,,,,,,,,,,,,,,,,,,,,,,,,,,,,,,,,,,,,,,,,,,,,,,,,,,,,,,,,,,,,,,,,
1725618247.3199,1725618247.32022,83.0,0.0,4233.717773,4220.0,4276.153809,4266.282227,4201.282227,4206.025879,4228.589844,4201.282227,4203.846191,4188.974121,4505.897461,4504.487305,4325.128418,4430.641113,0.0,2.0,35.0,,,,0.0,4.0,4.0,4.0,4.0,4.0,4.0,4.0,4.0,4.0,4.0,4.0,4.0,4.0,4.0,100.0,,,,,,,,,,,,,,,,,,,,,,,,,,,,,,,,,,,,,,,,,,,,,,,,,,,,,,,,,,,,,,,,,,,,,,,,,,,,,,,,,,,,,,,,,,,,,,,,,,,,,,,,,,,,,,,,,,,,,,,,,,,,,,,,,,,
1725618247.323805,1725618247.324224,84.0,0.0,4233.333496,4219.487305,4280.256348,4271.538574,4202.94873,4209.487305,4229.102539,4199.871582,4206.153809,4188.974121,4507.05127,4508.974121,4329.615234,4436.794922,0.0,2.0,35.0,,,,0.0,4.0,4.0,4.0,4.0,4.0,4.0,4.0,4.0,4.0,4.0,4.0,4.0,4.0,4.0,100.0,,,,,,,,,,,,,,,,,,,,,,,,,,,,,,,,,,,,,,,,,,,,,,,,,,,,,,,,,,,,,,,,,,,,,,,,,,,,,,,,,,,,,,,,,,,,,,,,,,,,,,,,,,,,,,,,,,,,,,,,,,,,,,,,,,,
1725618247.327709,1725618247.328128,85.0,0.0,4235.0,4220.0,4282.94873,4275.256348,4203.974121,4214.871582,4229.615234,4200.128418,4208.461426,4188.461426,4510.0,4512.436035,4333.589844,4443.461426,0.0,2.0,35.0,,,,0.0,4.0,4.0,4.0,4.0,4.0,4.0,4.0,4.0,4.0,4.0,4.0,4.0,4.0,4.0,100.0,,,,,,,,,,,,,,,,,,,,,,,,,,,,,,,,,,,,,,,,,,,,,,,,,,,,,,,,,,,,,,,,,,,,,,,,,,,,,,,,,,,,,,,,,,,,,,,,,,,,,,,,,,,,,,,,,,,,,,,,,,,,,,,,,,,
1725618247.331613,1725618247.332032,86.0,0.0,4237.436035,4220.641113,4282.820313,4275.641113,4203.077148,4218.077148,4227.94873,4202.179688,4209.358887,4187.436035,4513.077148,4514.358887,4335.256348,4446.922852,0.0,2.0,35.0,,,,0.0,4.0,4.0,4.0,4.0,4.0,4.0,4.0,4.0,4.0,4.0,4.0,4.0,4.0,4.0,100.0,,,,,,,,,,,,,,,,,,,,,,,,,,,,,,,,,,,,,,,,,,,,,,,,,,,,,,,,,,,,,,,,,,,,,,,,,,,,,,,,,,,,,,,,,,,,,,,,,,,,,,,,,,,,,,,,,,,,,,,,,,,,,,,,,,,
1725618247.335517,1725618247.335936,87.0,0.0,4237.94873,4220.256348,4279.230957,4272.820313,4200.512695,4217.05127,4223.717773,4204.487305,4208.077148,4186.282227,4513.717773,4513.717773,4333.846191,4445.128418,0.0,2.0,35.0,,,,0.0,4.0,4.0,4.0,4.0,4.0,4.0,4.0,4.0,4.0,4.0,4.0,4.0,4.0,4.0,100.0,,,,,,,,,,,,,,,,,,,,,,,,,,,,,,,,,,,,,,,,,,,,,,,,,,,,,,,,,,,,,,,,,,,,,,,,,,,,,,,,,,,,,,,,,,,,,,,,,,,,,,,,,,,,,,,,,,,,,,,,,,,,,,,,,,,
1725618247.339421,1725618247.33984,88.0,0.0,4235.0,4218.589844,4273.333496,4268.461426,4197.820313,4213.461426,4218.461426,4205.0,4205.256348,4185.384766,4510.512695,4509.871582,4329.871582,4439.102539,0.0,2.0,35.0,,,,0.0,4.0,4.0,4.0,4.0,4.0,4.0,4.0,4.0,4.0,4.0,4.0,4.0,4.0,4.0,100.0,,,,,,,,,,,,,,,,,,,,,,,,,,,,,,,,,,,,,,,,,,,,,,,,,,,,,,,,,,,,,,,,,,,,,,,,,,,,,,,,,,,,,,,,,,,,,,,,,,,,,,,,,,,,,,,,,,,,,,,,,,,,,,,,,,,
1725618247.343325,1725618247.343644,89.0,0.0,4229.102539,4216.282227,4267.307617,4264.615234,4196.410156,4210.128418,4215.128418,4202.692383,4202.179688,4184.743652,4503.974121,4503.461426,4324.358887,4432.05127,0.0,2.0,35.0,,,,0.0,4.0,4.0,4.0,4.0,4.0,4.0,4.0,4.0,4.0,4.0,4.0,4.0,4.0,4.0,100.0,,,,,,,,,,,,,,,,,,,,,,,,,,,,,,,,,,,,,,,,,,,,,,,,,,,,,,,,,,,,,,,,,,,,,,,,,,,,,,,,,,,,,,,,,,,,,,,,,,,,,,,,,,,,,,,,,,,,,,,,,,,,,,,,,,,
1725618247.347229,1725618247.347548,90.0,0.0,4222.563965,4214.615234,4263.333496,4262.05127,4196.282227,4208.589844,4214.871582,4197.820313,4200.512695,4183.333496,4496.410156,4496.922852,4319.102539,4426.282227,0.0,2.0,35.0,,,,0.0,4.0,4.0,4.0,4.0,4.0,4.0,4.0,4.0,4.0,4.0,4.0,4.0,4.0,4.0,100.0,,,,,,,,,,,,,,,,,,,,,,,,,,,,,,,,,,,,,,,,,,,,,,,,,,,,,,,,0.0,0.0,1.0,0.0,1.0,0.0,,,,,,,,,,,,,,,,,,,,,,,,,,,,,,,,,,,,,,,,,,,,,,,,,,,,,,,,,,,,,,,,,,,,,,
1725618247.351133,1725618247.351452,91.0,0.0,4218.717773,4214.743652,4261.922852,4260.128418,4196.538574,4208.589844,4216.794922,4191.538574,4201.153809,4180.641113,4490.897461,4491.794922,4315.641113,4422.820313,0.0,2.0,35.0,,,,0.0,4.0,4.0,4.0,4.0,4.0,4.0,4.0,4.0,4.0,4.0,4.0,4.0,4.0,4.0,100.0,,,,,,,,,,,,,,,,,,,,,,,,,,,,,,,,,,,,,,,,,,,,,,,,,,,,,,,,,,,,,,,,,,,,,,,,,,,,,,,,,,,,,,,,,,,,,,,,,,,,,,,,,,,,,,,,,,,,,,,,,,,,,,,,,,,
1725618247.355038,1725618247.355357,92.0,0.0,4218.333496,4216.410156,4261.794922,4258.077148,4195.641113,4208.461426,4218.974121,4186.153809,4203.077148,4177.436035,4489.102539,4488.589844,4315.0,4420.897461,0.0,2.0,35.0,,,,0.0,4.0,4.0,4.0,4.0,4.0,4.0,4.0,4.0,4.0,4.0,4.0,4.0,4.0,4.0,100.0,,,,,,,,,,,,,,,,,,,,,,,,,,,,,,,,,,,,,,,,,,,,,,,,,,,,,,,,,,,,,,,,,,,,,,,,,,,,,,,,,,,,,,,,,,,,,,,,,,,,,,,,,,,,,,,,,,,,,,,,,,,,,,,,,,,
1725618247.358942,1725618247.359161,93.0,0.0,4219.871582,4217.94873,4261.025879,4255.0,4192.692383,4207.179688,4219.487305,4183.717773,4204.230957,4174.871582,4489.871582,4486.282227,4316.538574,4418.974121,0.0,2.0,35.0,,,,0.0,4.0,4.0,4.0,4.0,4.0,4.0,4.0,4.0,4.0,4.0,4.0,4.0,4.0,4.0,100.0,,,,,,,,,,,,,,,,,,,,,,,,,,,,,,,,,,,,,,,,,,,,,,,,,,,,,,,,,,,,,,,,,,,,,,,,,,,,,,,,,,,,,,,,,,,,,,,,,,,,,,,,,,,,,,,,,,,,,,,,,,,,,,,,,,,
1725618247.362846,1725618247.363065,94.0,0.0,4220.128418,4217.307617,4258.333496,4251.538574,4188.846191,4204.743652,4217.692383,4185.0,4203.589844,4174.615234,4490.128418,4484.102539,4318.846191,4416.282227,0.0,2.0,35.0,,,,0.0,4.0,4.0,4.0,4.0,4.0,4.0,4.0,4.0,4.0,4.0,4.0,4.0,4.0,4.0,100.0,,,,,,,,,,,,,,,,,,,,,,,,,,,,,,,,,,,,,,,,,,,,,,,,,,,,,,,,,,,,,,,,,,,,,,,,,,,,,,,,,,,,,,,,,,,,,,,,,,,,,,,,,,,,,,,,,,,,,,,,,,,,,,,,,,,
1725618247.36675,1725618247.366969,95.0,0.0,4216.794922,4213.333496,4253.589844,4249.358887,4186.025879,4202.563965,4214.487305,4188.717773,4201.410156,4176.794922,4486.538574,4481.153809,4319.487305,4413.461426,0.0,2.0,35.0,,,,0.0,4.0,4.0,4.0,4.0,4.0,4.0,4.0,4.0,4.0,4.0,4.0,4.0,4.0,4.0,100.0,,,,,,,,,,,,,,,,,,,,,,,,,,,,,,,,,,,,,,,,,,,,,,,,,,,,,,,,,,,,,,,,,,,,,,,,,,,,,,,,,,,,,,,,,,,,,,,,,,,,,,,,,,,,,,,,,,,,,,,,,,,,,,,,,,,
1725618247.370654,1725618247.370873,96.0,0.0,4210.384766,4207.179688,4248.846191,4249.102539,4185.256348,4201.794922,4212.05127,4191.922852,4199.871582,4180.256348,4479.615234,4477.563965,4317.563965,4411.794922,0.0,2.0,35.0,,,,0.0,4.0,4.0,4.0,4.0,4.0,4.0,4.0,4.0,4.0,4.0,4.0,4.0,4.0,4.0,100.0,,,,,,,,,,,,,,,,,,,,,,,,,,,,,,,,,,,,,,,,,,,,,,,,,,,,,,,,,,,,,,,,,,,,,,,,,,,,,,,,,,,,,,,,,,,,,,,,,,,,,,,,,,,,,,,,,,,,,,,,,,,,,,,,,,,
1725618247.374558,1725618247.374677,97.0,0.0,4204.102539,4201.666504,4246.666504,4250.128418,4186.282227,4202.563965,4211.538574,4192.436035,4200.0,4183.077148,4473.333496,4473.974121,4313.717773,4411.922852,0.0,2.0,35.0,,,,0.0,4.0,4.0,4.0,4.0,4.0,4.0,4.0,4.0,4.0,4.0,4.0,4.0,4.0,4.0,100.0,,,,,,,,,,,,,,,,,,,,,,,,,,,,,,,,,,,,,,,,,,,,,,,,,,,,,,,,,,,,,,,,,,,,,,,,,,,,,,,,,,,,,,,,,,,,,,,,,,,,,,,,,,,,,,,,,,,,,,,,,,,,,,,,,,,
1725618247.378462,1725618247.378581,98.0,0.0,4201.666504,4198.846191,4248.077148,4251.025879,4187.307617,4203.589844,4212.307617,4190.256348,4200.897461,4184.102539,4472.307617,4472.307617,4310.641113,4412.820313,0.0,2.0,35.0,,,,0.0,4.0,4.0,4.0,4.0,4.0,4.0,4.0,4.0,4.0,4.0,4.0,4.0,4.0,4.0,100.0,,,,,,,,,,,,,,,,,1.0,0.0,0.0,,,,,,,,,,,,,,,,,,,,,,,,,,,,,,,,,,,,,0.0,0.0,1.0,0.0,1.0,0.0,2.788199,1.587466,0.994321,0.534788,0.093073,1.419121,1.456909,0.511357,0.325747,0.125337,2.170004,1.727886,0.80587,0.358106,0.117095,1.428839,1.350575,0.913191,0.305265,0.089194,0.657796,0.541423,0.390774,0.144578,0.065509,0.164659,0.283753,0.125893,0.067917,0.044527,0.545024,0.551878,0.304158,0.118623,0.039506,0.518178,1.284507,0.740603,0.357291,0.211056,1.662564,1.121447,0.81981,0.267935,0.096572,3.305812,1.683575,0.962039,0.39915,0.112412,3.343333,2.908701,1.34702,0.500744,0.238764,3.345026,2.613421,1.216352,0.589516,0.227453,4.23316,2.426196,1.218474,0.528915,0.136284,2.766128,2.255612,1.113062,0.474366,0.131071
1725618247.382366,1725618247.382485,99.0,0.0,4204.358887,4199.102539,4251.282227,4250.769043,4187.179688,4204.102539,4212.94873,4187.692383,4201.410156,4183.205078,4477.820313,4473.589844,4310.641113,4412.436035,0.0,2.0,35.0,,,,0.0,4.0,4.0,4.0,4.0,4.0,4.0,4.0,4.0,4.0,4.0,4.0,4.0,4.0,4.0,100.0,,,,,,,,,,,,,,,,,,,,,,,,,,,,,,,,,,,,,,,,,,,,,,,,,,,,,,,,,,,,,,,,,,,,,,,,,,,,,,,,,,,,,,,,,,,,,,,,,,,,,,,,,,,,,,,,,,,,,,,,,,,,,,,,,,,
1725618247.38627,1725618247.38639,100.0,0.0,4210.769043,4201.282227,4254.102539,4249.871582,4186.153809,4203.846191,4212.307617,4187.563965,4201.666504,4181.922852,4486.282227,4478.077148,4314.102539,4410.256348,0.0,2.0,35.0,,,,0.0,4.0,4.0,4.0,4.0,4.0,4.0,4.0,4.0,4.0,4.0,4.0,4.0,4.0,4.0,100.0,,,,,,,,,,,,,,,,,,,,,,,,,,,,,,,,,,,,,,,,,,,,,,,,,,,,,,,,,,,,,,,,,,,,,,,,,,,,,,,,,,,,,,,,,,,,,,,,,,,,,,,,,,,,,,,,,,,,,,,,,,,,,,,,,,,
1725618247.390175,1725618247.390194,101.0,0.0,4217.179688,4203.333496,4255.769043,4250.0,4185.128418,4203.589844,4210.128418,4191.025879,4203.333496,4181.922852,4492.05127,4484.230957,4319.615234,4408.205078,0.0,2.0,35.0,,,,0.0,4.0,4.0,4.0,4.0,4.0,4.0,4.0,4.0,4.0,4.0,4.0,4.0,4.0,4.0,100.0,,,,,,,,,,,,,,,,,,,,,,,,,,,,,,,,,,,,,,,,,,,,,,,,,,,,,,,,,,,,,,,,,,,,,,,,,,,,,,,,,,,,,,,,,,,,,,,,,,,,,,,,,,,,,,,,,,,,,,,,,,,,,,,,,,,
1725618247.394079,1725618247.394098,102.0,0.0,4220.512695,4204.358887,4257.307617,4251.282227,4184.871582,4203.846191,4206.922852,4196.794922,4206.794922,4183.333496,4492.307617,4490.0,4324.358887,4408.333496,0.0,2.0,35.0,,,,0.0,4.0,4.0,4.0,4.0,4.0,4.0,4.0,4.0,4.0,4.0,4.0,4.0,4.0,4.0,100.0,,,,,,,,,,,,,,,,,,,,,,,,,,,,,,,,,,,,,,,,,,,,,,,,,,,,,,,,,,,,,,,,,,,,,,,,,,,,,,,,,,,,,,,,,,,,,,,,,,,,,,,,,,,,,,,,,,,,,,,,,,,,,,,,,,,
1725618247.397983,1725618247.398002,103.0,0.0,4220.0,4203.974121,4259.230957,4252.692383,4185.256348,4204.487305,4203.461426,4201.922852,4210.512695,4185.128418,4488.461426,4493.846191,4326.922852,4411.025879,0.0,2.0,35.0,,,,0.0,4.0,4.0,4.0,4.0,4.0,4.0,4.0,4.0,4.0,4.0,4.0,4.0,4.0,4.0,100.0,,,,,,,,,,,,,,,,,,,,,,,,,,,,,,,,,,,,,,,,,,,,,,,,,,,,,,,,,,,,,,,,,,,,,,,,,,,,,,,,,,,,,,,,,,,,,,,,,,,,,,,,,,,,,,,,,,,,,,,,,,,,,,,,,,,
1725618247.401887,1725618247.402006,104.0,0.0,4217.436035,4202.94873,4260.512695,4252.820313,4185.641113,4204.871582,4200.897461,4204.102539,4212.692383,4185.897461,4485.0,4495.128418,4327.05127,4415.128418,0.0,2.0,35.0,,,,0.0,4.0,4.0,4.0,4.0,4.0,4.0,4.0,4.0,4.0,4.0,4.0,4.0,4.0,4.0,100.0,,,,,,,,,,,,,,,,,,,,,,,,,,,,,,,,,,,,,,,,,,,,,,,,,,,,,,,,,,,,,,,,,,,,,,,,,,,,,,,,,,,,,,,,,,,,,,,,,,,,,,,,,,,,,,,,,,,,,,,,,,,,,,,,,,,
1725618247.405791,1725618247.40591,105.0,0.0,4215.512695,4201.794922,4259.615234,4251.282227,4185.512695,4204.743652,4200.256348,4203.333496,4212.692383,4185.384766,4485.128418,4493.717773,4325.769043,4418.077148,0.0,2.0,35.0,,,,0.0,4.0,4.0,4.0,4.0,4.0,4.0,4.0,4.0,4.0,4.0,4.0,4.0,4.0,4.0,100.0,,,,,,,,,,,,,,,,,,,,,,,,,,,,,,,,,,,,,,,,,,,,,,,,,,,,,,,,,,,,,,,,,,,,,,,,,,,,,,,,,,,,,,,,,,,,,,,,,,,,,,,,,,,,,,,,,,,,,,,,,,,,,,,,,,,
1725618247.409695,1725618247.409814,106.0,0.0,4215.256348,4201.538574,4256.282227,4249.615234,4185.256348,4204.230957,4201.410156,4201.410156,4211.666504,4184.743652,4488.846191,4490.769043,4323.974121,4418.333496,0.0,2.0,35.0,,,,0.0,4.0,4.0,4.0,4.0,4.0,4.0,4.0,4.0,4.0,4.0,4.0,4.0,4.0,4.0,100.0,,,,,,,,,,,,,,,,,,,,,,,,,,,,,,,,,,,,,,,,,,,,,,,,,,,,,,,,0.0,0.0,1.0,0.0,1.0,0.0,,,,,,,,,,,,,,,,,,,,,,,,,,,,,,,,,,,,,,,,,,,,,,,,,,,,,,,,,,,,,,,,,,,,,,
1725618247.413599,1725618247.413718,107.0,0.0,4216.410156,4202.692383,4252.307617,4248.846191,4185.0,4203.717773,4202.692383,4200.128418,4210.641113,4185.0,4493.077148,4487.820313,4322.436035,4415.512695,0.0,2.0,35.0,,,,0.0,4.0,4.0,4.0,4.0,4.0,4.0,4.0,4.0,4.0,4.0,4.0,4.0,4.0,4.0,100.0,,,,,,,,,,,,,,,,,,,,,,,,,,,,,,,,,,,,,,,,,,,,,,,,,,,,,,,,,,,,,,,,,,,,,,,,,,,,,,,,,,,,,,,,,,,,,,,,,,,,,,,,,,,,,,,,,,,,,,,,,,,,,,,,,,,
1725618247.417503,1725618247.417722,108.0,0.0,4217.692383,4205.641113,4250.384766,4249.487305,4184.743652,4203.077148,4202.820313,4200.256348,4210.128418,4185.897461,4494.743652,4486.538574,4322.05127,4411.666504,0.0,2.0,35.0,,,,0.0,4.0,4.0,4.0,4.0,4.0,4.0,4.0,4.0,4.0,4.0,4.0,4.0,4.0,4.0,100.0,,,,,,,,,,,,,,,,,,,,,,,,,,,,,,,,,,,,,,,,,,,,,,,,,,,,,,,,,,,,,,,,,,,,,,,,,,,,,,,,,,,,,,,,,,,,,,,,,,,,,,,,,,,,,,,,,,,,,,,,,,,,,,,,,,,
1725618247.421407,1725618247.421626,109.0,0.0,4218.333496,4209.871582,4251.922852,4250.897461,4184.230957,4202.307617,4201.794922,4200.897461,4210.0,4186.410156,4493.077148,4487.307617,4324.487305,4409.743652,0.0,2.0,35.0,,,,0.0,4.0,4.0,4.0,4.0,4.0,4.0,4.0,4.0,4.0,4.0,4.0,4.0,4.0,4.0,100.0,,,,,,,,,,,,,,,,,,,,,,,,,,,,,,,,,,,,,,,,,,,,,,,,,,,,,,,,,,,,,,,,,,,,,,,,,,,,,,,,,,,,,,,,,,,,,,,,,,,,,,,,,,,,,,,,,,,,,,,,,,,,,,,,,,,
1725618247.425311,1725618247.42553,110.0,0.0,4218.333496,4213.974121,4256.153809,4252.692383,4183.333496,4201.794922,4200.897461,4201.153809,4210.128418,4186.794922,4490.641113,4489.615234,4330.384766,4411.794922,0.0,2.0,35.0,,,,0.0,4.0,4.0,4.0,4.0,4.0,4.0,4.0,4.0,4.0,4.0,4.0,4.0,4.0,4.0,100.0,,,,,,,,,,,,,,,,,,,,,,,,,,,,,,,,,,,,,,,,,,,,,,,,,,,,,,,,,,,,,,,,,,,,,,,,,,,,,,,,,,,,,,,,,,,,,,,,,,,,,,,,,,,,,,,,,,,,,,,,,,,,,,,,,,,
1725618247.429216,1725618247.429534,111.0,0.0,4218.589844,4216.282227,4261.153809,4254.871582,4182.436035,4201.794922,4201.153809,4200.769043,4209.487305,4188.333496,4490.128418,4492.05127,4338.333496,4417.563965,0.0,2.0,35.0,,,,0.0,4.0,4.0,4.0,4.0,4.0,4.0,4.0,4.0,4.0,4.0,4.0,4.0,4.0,4.0,100.0,,,,,,,,,,,,,,,,,,,,,,,,,,,,,,,,,,,,,,,,,,,,,,,,,,,,,,,,,,,,,,,,,,,,,,,,,,,,,,,,,,,,,,,,,,,,,,,,,,,,,,,,,,,,,,,,,,,,,,,,,,,,,,,,,,,
1725618247.43312,1725618247.433439,112.0,0.0,4218.846191,4216.153809,4264.358887,4257.820313,4181.794922,4202.179688,4202.820313,4200.384766,4207.94873,4191.153809,4492.94873,4493.333496,4345.128418,4424.487305,0.0,2.0,35.0,,,,0.0,4.0,4.0,4.0,4.0,4.0,4.0,4.0,4.0,4.0,4.0,4.0,4.0,4.0,4.0,100.0,,,,,,,,,,,,,,,,,,,,,,,,,,,,,,,,,,,,,,,,,,,,,,,,,,,,,,,,,,,,,,,,,,,,,,,,,,,,,,,,,,,,,,,,,,,,,,,,,,,,,,,,,,,,,,,,,,,,,,,,,,,,,,,,,,,
1725618247.437024,1725618247.437343,113.0,0.0,4218.333496,4214.615234,4264.487305,4260.897461,4181.410156,4202.179688,4204.230957,4200.256348,4205.512695,4193.717773,4497.820313,4492.436035,4347.692383,4429.230957,0.0,2.0,35.0,,,,0.0,4.0,4.0,4.0,4.0,4.0,4.0,4.0,4.0,4.0,4.0,4.0,4.0,4.0,4.0,100.0,,,,,,,,,,,,,,,,,,,,,,,,,,,,,,,,,,,,,,,,,,,,,,,,,,,,,,,,,,,,,,,,,,,,,,,,,,,,,,,,,,,,,,,,,,,,,,,,,,,,,,,,,,,,,,,,,,,,,,,,,,,,,,,,,,,
1725618247.440928,1725618247.441347,114.0,0.0,4217.692383,4213.461426,4262.179688,4263.461426,4181.282227,4201.794922,4204.102539,4200.641113,4203.846191,4193.717773,4501.922852,4490.256348,4345.641113,4430.384766,0.0,2.0,35.0,,,,0.0,4.0,4.0,4.0,4.0,4.0,4.0,4.0,4.0,4.0,4.0,4.0,4.0,4.0,4.0,100.0,,,,,,,,,,,,,,,,,,,,,,,,,,,,,,,,,,,,,,,,,,,,,,,,,,,,,,,,0.0,0.0,1.0,0.0,1.0,0.0,,,,,,,,,,,,,,,,,,,,,,,,,,,,,,,,,,,,,,,,,,,,,,,,,,,,,,,,,,,,,,,,,,,,,,
1725618247.444832,1725618247.445251,115.0,0.0,4218.589844,4213.717773,4259.871582,4264.743652,4181.410156,4201.282227,4202.436035,4201.794922,4204.102539,4191.025879,4503.717773,4488.717773,4342.436035,4429.230957,0.0,2.0,35.0,,,,0.0,4.0,4.0,4.0,4.0,4.0,4.0,4.0,4.0,4.0,4.0,4.0,4.0,4.0,4.0,100.0,,,,,,,,,,,,,,,,,,,,,,,,,,,,,,,,,,,,,,,,,,,,,,,,,,,,,,,,,,,,,,,,,,,,,,,,,,,,,,,,,,,,,,,,,,,,,,,,,,,,,,,,,,,,,,,,,,,,,,,,,,,,,,,,,,,
1725618247.448736,1725618247.449155,116.0,0.0,4221.794922,4215.256348,4259.871582,4264.615234,4181.538574,4201.153809,4200.897461,4203.205078,4206.794922,4187.94873,4504.358887,4491.282227,4342.179688,4428.205078,0.0,2.0,35.0,,,,0.0,4.0,4.0,4.0,4.0,4.0,4.0,4.0,4.0,4.0,4.0,4.0,4.0,4.0,4.0,100.0,,,,,,,,,,,,,,,,,,,,,,,,,,,,,,,,,,,,,,,,,,,,,,,,,,,,,,,,,,,,,,,,,,,,,,,,,,,,,,,,,,,,,,,,,,,,,,,,,,,,,,,,,,,,,,,,,,,,,,,,,,,,,,,,,,,
1725618247.45264,1725618247.453059,117.0,0.0,4226.025879,4216.410156,4262.563965,4264.102539,4181.922852,4201.410156,4200.256348,4204.230957,4210.256348,4187.307617,4505.769043,4498.461426,4347.307617,4428.717773,0.0,2.0,35.0,,,,0.0,4.0,4.0,4.0,4.0,4.0,4.0,4.0,4.0,4.0,4.0,4.0,4.0,4.0,4.0,100.0,,,,,,,,,,,,,,,,,,,,,,,,,,,,,,,,,,,,,,,,,,,,,,,,,,,,,,,,,,,,,,,,,,,,,,,,,,,,,,,,,,,,,,,,,,,,,,,,,,,,,,,,,,,,,,,,,,,,,,,,,,,,,,,,,,,
1725618247.456544,1725618247.456963,118.0,0.0,4228.717773,4216.410156,4265.897461,4263.589844,4182.307617,4201.538574,4200.897461,4204.487305,4211.153809,4189.871582,4507.94873,4507.05127,4355.512695,4430.128418,0.0,2.0,35.0,,,,0.0,4.0,4.0,4.0,4.0,4.0,4.0,4.0,4.0,4.0,4.0,4.0,4.0,4.0,4.0,100.0,,,,,,,,,,,,,,,,,,,,,,,,,,,,,,,,,,,,,,,,,,,,,,,,,,,,,,,,,,,,,,,,,,,,,,,,,,,,,,,,,,,,,,,,,,,,,,,,,,,,,,,,,,,,,,,,,,,,,,,,,,,,,,,,,,,
1725618247.460448,1725618247.460867,119.0,0.0,4228.589844,4215.256348,4267.307617,4263.717773,4182.94873,4201.538574,4202.05127,4203.717773,4207.307617,4193.589844,4509.102539,4511.666504,4361.794922,4431.025879,0.0,2.0,35.0,,,,0.0,4.0,4.0,4.0,4.0,4.0,4.0,4.0,4.0,4.0,4.0,4.0,4.0,4.0,4.0,100.0,,,,,,,,,,,,,,,,,,,,,,,,,,,,,,,,,,,,,,,,,,,,,,,,,,,,,,,,,,,,,,,,,,,,,,,,,,,,,,,,,,,,,,,,,,,,,,,,,,,,,,,,,,,,,,,,,,,,,,,,,,,,,,,,,,,
1725618247.464352,1725618247.464671,120.0,0.0,4226.538574,4213.846191,4266.538574,4264.102539,4183.589844,4201.282227,4203.077148,4202.307617,4198.589844,4195.256348,4507.179688,4509.102539,4362.05127,4430.512695,0.0,2.0,35.0,,,,0.0,4.0,4.0,4.0,4.0,4.0,4.0,4.0,4.0,4.0,4.0,4.0,4.0,4.0,4.0,100.0,,,,,,,,,,,,,,,,,,,,,,,,,,,,,,,,,,,,,,,,,,,,,,,,,,,,,,,,,,,,,,,,,,,,,,,,,,,,,,,,,,,,,,,,,,,,,,,,,,,,,,,,,,,,,,,,,,,,,,,,,,,,,,,,,,,
1725618247.468257,1725618247.468576,121.0,0.0,4224.743652,4213.461426,4264.487305,4264.230957,4183.717773,4201.282227,4203.077148,4200.256348,4187.307617,4193.461426,4502.94873,4501.025879,4356.282227,4429.102539,0.0,2.0,35.0,,,,0.0,4.0,4.0,4.0,4.0,4.0,4.0,4.0,4.0,4.0,4.0,4.0,4.0,4.0,4.0,100.0,,,,,,,,,,,,,,,,,,,,,,,,,,,,,,,,,,,,,,,,,,,,,,,,,,,,,,,,,,,,,,,,,,,,,,,,,,,,,,,,,,,,,,,,,,,,,,,,,,,,,,,,,,,,,,,,,,,,,,,,,,,,,,,,,,,
1725618247.472161,1725618247.47248,122.0,0.0,4225.128418,4215.128418,4262.563965,4264.102539,4183.333496,4201.538574,4201.794922,4197.820313,4176.922852,4189.102539,4498.974121,4492.563965,4348.717773,4427.436035,0.0,2.0,35.0,,,,0.0,4.0,4.0,4.0,4.0,4.0,4.0,4.0,4.0,4.0,4.0,4.0,4.0,4.0,4.0,100.0,,,,,,,,,,,,,,,,,,,,,,,,,,,,,,,,,,,,,,,,,,,,,,,,,,,,,,,,0.0,0.0,1.0,0.0,1.0,0.0,,,,,,,,,,,,,,,,,,,,,,,,,,,,,,,,,,,,,,,,,,,,,,,,,,,,,,,,,,,,,,,,,,,,,,
1725618247.476065,1725618247.476384,123.0,0.0,4227.820313,4218.461426,4260.897461,4263.846191,4182.436035,4201.794922,4199.743652,4195.256348,4170.512695,4185.128418,4497.94873,4488.205078,4343.461426,4425.769043,0.0,2.0,35.0,,,,0.0,4.0,4.0,4.0,4.0,4.0,4.0,4.0,4.0,4.0,4.0,4.0,4.0,4.0,4.0,100.0,,,,,,,,,,,,,,,,,,,,,,,,,,,,,,,,,,,,,,,,,,,,,,,,,,,,,,,,,,,,,,,,,,,,,,,,,,,,,,,,,,,,,,,,,,,,,,,,,,,,,,,,,,,,,,,,,,,,,,,,,,,,,,,,,,,
1725618247.479969,1725618247.480188,124.0,0.0,4231.025879,4221.025879,4259.230957,4263.717773,4181.794922,4201.794922,4198.461426,4193.077148,4168.974121,4184.358887,4499.615234,4488.974121,4342.05127,4423.846191,0.0,2.0,35.0,,,,0.0,4.0,4.0,4.0,4.0,4.0,4.0,4.0,4.0,4.0,4.0,4.0,4.0,4.0,4.0,100.0,,,,,,,,,,,,,,,,,,,,,,,,,,,,,,,,,,,,,,,,,,,,,,,,,,,,,,,,,,,,,,,,,,,,,,,,,,,,,,,,,,,,,,,,,,,,,,,,,,,,,,,,,,,,,,,,,,,,,,,,,,,,,,,,,,,
1725618247.483873,1725618247.484092,125.0,0.0,4232.563965,4220.512695,4257.820313,4263.717773,4181.794922,4201.666504,4198.974121,4191.794922,4170.512695,4186.922852,4501.794922,4492.179688,4342.563965,4421.025879,0.0,2.0,35.0,,,,0.0,4.0,4.0,4.0,4.0,4.0,4.0,4.0,4.0,4.0,4.0,4.0,4.0,4.0,4.0,100.0,,,,,,,,,,,,,,,,,,,,,,,,,,,,,,,,,,,,,,,,,,,,,,,,,,,,,,,,,,,,,,,,,,,,,,,,,,,,,,,,,,,,,,,,,,,,,,,,,,,,,,,,,,,,,,,,,,,,,,,,,,,,,,,,,,,
1725618247.487777,1725618247.487996,126.0,0.0,4231.153809,4216.153809,4257.436035,4263.589844,4182.94873,4201.153809,4200.897461,4192.307617,4172.307617,4190.128418,4501.666504,4494.358887,4342.436035,4417.307617,0.0,2.0,35.0,,,,0.0,4.0,4.0,4.0,4.0,4.0,4.0,4.0,4.0,4.0,4.0,4.0,4.0,4.0,4.0,100.0,,,,,,,,,,,,,,,,,,,,,,,,,,,,,,,,,,,,,,,,,,,,,,,,,,,,,,,,,,,,,,,,,,,,,,,,,,,,,,,,,,,,,,,,,,,,,,,,,,,,,,,,,,,,,,,,,,,,,,,,,,,,,,,,,,,
1725618247.491681,1725618247.4919,127.0,0.0,4228.077148,4209.871582,4258.205078,4263.461426,4184.487305,4200.897461,4203.333496,4194.871582,4172.307617,4191.410156,4498.333496,4494.230957,4340.256348,4413.846191,0.0,2.0,35.0,,,,0.0,4.0,4.0,4.0,4.0,4.0,4.0,4.0,4.0,4.0,4.0,4.0,4.0,4.0,4.0,100.0,,,,,,,,,,,,,,,,,,,,,,,,,,,,,,,,,,,,,,,,,,,,,,,,,,,,,,,,,,,,,,,,,,,,,,,,,,,,,,,,,,,,,,,,,,,,,,,,,,,,,,,,,,,,,,,,,,,,,,,,,,,,,,,,,,,
1725618247.495585,1725618247.495704,128.0,0.0,4225.769043,4205.0,4259.615234,4263.333496,4185.769043,4201.922852,4204.871582,4198.589844,4171.282227,4189.615234,4492.94873,4492.307617,4337.179688,4412.563965,2615.0,2.0,35.0,,,,0.0,4.0,4.0,4.0,4.0,4.0,4.0,4.0,4.0,4.0,4.0,4.0,4.0,4.0,4.0,100.0,,,,,,,,,,,,,,,,,,,,,,,,,,,,,,,,,,,,,,,,,,,,,,,,,,,,,,,,,,,,,,,,,,,,,,,,,,,,,,,,,,,,,,,,,,,,,,,,,,,,,,,,,,,,,,,,,,,,,,,,,,,,,,,,,,,
1725618247.499489,1725618247.499609,129.0,0.0,4225.769043,4204.358887,4260.897461,4263.589844,4186.025879,4204.102539,4204.743652,4201.794922,4170.897461,4186.666504,4488.205078,4490.512695,4335.897461,4413.333496,2570.0,2.0,35.0,,,,0.0,4.0,4.0,4.0,4.0,4.0,4.0,4.0,4.0,4.0,4.0,4.0,4.0,4.0,4.0,100.0,,,,,,,,,,,,,,,,,,,,,,,,,,,,,,,,,,,,,,,,,,,,,,,,,,,,,,,,,,,,,,,,,,,,,,,,,,,,,,,,,,,,,,,,,,,,,,,,,,,,,,,,,,,,,,,,,,,,,,,,,,,,,,,,,,,
1725618247.503394,1725618247.503513,130.0,0.0,4227.94873,4208.077148,4261.153809,4263.846191,4185.128418,4206.410156,4203.077148,4202.05127,4172.179688,4184.871582,4485.769043,4489.615234,4337.436035,4414.615234,2453.0,2.0,35.0,,,,0.0,4.0,4.0,4.0,4.0,4.0,4.0,4.0,4.0,4.0,4.0,4.0,4.0,4.0,4.0,100.0,,,,,,,,,,,,,,,,,1.0,0.0,0.0,,,,,,,,,,,,,,,,,,,,,,,,,,,,,,,,,,,,,0.0,0.0,1.0,0.0,1.0,0.0,2.658402,1.986323,1.241321,0.633962,0.099095,1.510632,1.713738,0.65237,0.402117,0.13908,2.111576,2.273395,1.042865,0.433278,0.133193,1.633608,1.574624,1.127112,0.390838,0.106185,0.733256,0.582043,0.422697,0.168421,0.073827,0.149142,0.362382,0.115029,0.082465,0.051889,0.591212,0.66252,0.355634,0.147208,0.05146,0.523989,1.385983,0.905992,0.33538,0.24971,1.831138,1.400913,0.888733,0.24319,0.099633,2.968932,1.997518,1.159165,0.469666,0.127955,3.193003,3.429399,1.707329,0.620702,0.279857,3.415982,3.259741,1.716424,0.683233,0.263692,4.350846,3.011812,1.418337,0.693939,0.158525,2.749387,2.86829,1.377771,0.605035,0.144911
1725618247.507298,1725618247.507517,131.0,0.0,4230.384766,4213.205078,4259.743652,4263.589844,4183.717773,4207.179688,4200.897461,4198.461426,4173.333496,4184.743652,4485.128418,4489.358887,4340.641113,4414.615234,2469.0,2.0,35.0,,,,0.0,4.0,4.0,4.0,4.0,4.0,4.0,4.0,4.0,4.0,4.0,4.0,4.0,4.0,4.0,100.0,,,,,,,,,,,,,,,,,,,,,,,,,,,,,,,,,,,,,,,,,,,,,,,,,,,,,,,,,,,,,,,,,,,,,,,,,,,,,,,,,,,,,,,,,,,,,,,,,,,,,,,,,,,,,,,,,,,,,,,,,,,,,,,,,,,
1725618247.511202,1725618247.511421,132.0,0.0,4231.538574,4216.538574,4257.692383,4262.692383,4182.436035,4205.897461,4199.871582,4191.922852,4172.820313,4184.871582,4485.0,4488.589844,4342.820313,4413.589844,2433.0,2.0,35.0,,,,0.0,4.0,4.0,4.0,4.0,4.0,4.0,4.0,4.0,4.0,4.0,4.0,4.0,4.0,4.0,100.0,,,,,,,,,,,,,,,,,,,,,,,,,,,,,,,,,,,,,,,,,,,,,,,,,,,,,,,,,,,,,,,,,,,,,,,,,,,,,,,,,,,,,,,,,,,,,,,,,,,,,,,,,,,,,,,,,,,,,,,,,,,,,,,,,,,
1725618247.515106,1725618247.515325,133.0,0.0,4231.538574,4216.410156,4256.538574,4262.179688,4182.179688,4203.205078,4200.256348,4185.769043,4170.256348,4183.846191,4484.871582,4487.307617,4342.94873,4413.205078,2404.0,2.0,35.0,,,,0.0,4.0,4.0,4.0,4.0,4.0,4.0,4.0,4.0,4.0,4.0,4.0,4.0,4.0,4.0,100.0,,,,,,,,,,,,,,,,,,,,,,,,,,,,,,,,,,,,,,,,,,,,,,,,,,,,,,,,,,,,,,,,,,,,,,,,,,,,,,,,,,,,,,,,,,,,,,,,,,,,,,,,,,,,,,,,,,,,,,,,,,,,,,,,,,,
1725618247.51901,1725618247.519229,134.0,0.0,4231.666504,4213.974121,4257.563965,4262.94873,4182.94873,4201.153809,4201.666504,4183.846191,4167.820313,4182.307617,4485.128418,4486.922852,4342.563965,4415.256348,2191.0,2.0,35.0,,,,0.0,4.0,4.0,4.0,4.0,4.0,4.0,4.0,4.0,4.0,4.0,4.0,4.0,4.0,4.0,100.0,,,,,,,,,,,,,,,,,,,,,,,,,,,,,,,,,,,,,,,,,,,,,,,,,,,,,,,,,,,,,,,,,,,,,,,,,,,,,,,,,,,,,,,,,,,,,,,,,,,,,,,,,,,,,,,,,,,,,,,,,,,,,,,,,,,
1725618247.522914,1725618247.523133,135.0,0.0,4232.563965,4212.05127,4261.025879,4264.743652,4184.102539,4200.897461,4203.333496,4187.692383,4167.307617,4181.922852,4486.666504,4488.461426,4343.974121,4419.871582,2505.0,2.0,35.0,,,,0.0,4.0,4.0,4.0,4.0,4.0,4.0,4.0,4.0,4.0,4.0,4.0,4.0,4.0,4.0,100.0,,,,,,,,,,,,,,,,,,,,,,,,,,,,,,,,,,,,,,,,,,,,,,,,,,,,,,,,,,,,,,,,,,,,,,,,,,,,,,,,,,,,,,,,,,,,,,,,,,,,,,,,,,,,,,,,,,,,,,,,,,,,,,,,,,,
1725618247.526818,1725618247.527037,136.0,0.0,4233.589844,4212.820313,4265.0,4266.410156,4184.743652,4202.563965,4204.487305,4194.487305,4168.717773,4183.333496,4489.102539,4491.282227,4348.077148,4425.128418,2471.0,2.0,35.0,,,,0.0,4.0,4.0,4.0,4.0,4.0,4.0,4.0,4.0,4.0,4.0,4.0,4.0,4.0,4.0,100.0,,,,,,,,,,,,,,,,,,,,,,,,,,,,,,,,,,,,,,,,,,,,,,,,,,,,,,,,,,,,,,,,,,,,,,,,,,,,,,,,,,,,,,,,,,,,,,,,,,,,,,,,,,,,,,,,,,,,,,,,,,,,,,,,,,,
1725618247.530722,1725618247.530941,137.0,0.0,4233.717773,4215.897461,4267.179688,4266.666504,4184.615234,4204.615234,4204.615234,4199.358887,4170.512695,4185.0,4490.512695,4493.205078,4353.205078,4428.717773,2558.0,2.0,35.0,,,,0.0,4.0,4.0,4.0,4.0,4.0,4.0,4.0,4.0,4.0,4.0,4.0,4.0,4.0,4.0,100.0,,,,,,,,,,,,,,,,,,,,,,,,,,,,,,,,,,,,,,,,,,,,,,,,,,,,,,,,,,,,,,,,,,,,,,,,,,,,,,,,,,,,,,,,,,,,,,,,,,,,,,,,,,,,,,,,,,,,,,,,,,,,,,,,,,,
1725618247.534626,1725618247.534945,138.0,0.0,4233.205078,4218.974121,4266.538574,4265.769043,4184.102539,4205.256348,4203.974121,4200.512695,4171.410156,4185.641113,4490.128418,4493.589844,4356.922852,4429.230957,2894.0,2.0,35.0,,,,0.0,4.0,4.0,4.0,4.0,4.0,4.0,4.0,4.0,4.0,4.0,4.0,4.0,4.0,4.0,100.0,,,,,,,,,,,,,,,,,,,,,,,,,,,,,,,,,,,,,,,,,,,,,,,,,,,,,,,,0.0,0.0,1.0,0.0,1.0,0.0,,,,,,,,,,,,,,,,,,,,,,,,,,,,,,,,,,,,,,,,,,,,,,,,,,,,,,,,,,,,,,,,,,,,,,
1725618247.53853,1725618247.538849,139.0,0.0,4232.436035,4220.128418,4264.358887,4265.641113,4183.589844,4204.230957,4203.205078,4199.743652,4171.922852,4185.512695,4489.871582,4494.102539,4358.846191,4428.077148,3079.0,2.0,35.0,,,,0.0,4.0,4.0,4.0,4.0,4.0,4.0,4.0,4.0,4.0,4.0,4.0,4.0,4.0,4.0,100.0,,,,,,,,,,,,,,,,,,,,,,,,,,,,,,,,,,,,,,,,,,,,,,,,,,,,,,,,,,,,,,,,,,,,,,,,,,,,,,,,,,,,,,,,,,,,,,,,,,,,,,,,,,,,,,,,,,,,,,,,,,,,,,,,,,,
1725618247.542435,1725618247.542754,140.0,0.0,4232.179688,4219.230957,4262.692383,4267.692383,4183.461426,4202.820313,4203.205078,4201.282227,4173.589844,4186.282227,4493.333496,4497.179688,4360.0,4427.307617,3421.0,2.0,35.0,,,,0.0,4.0,4.0,4.0,4.0,4.0,4.0,4.0,4.0,4.0,4.0,4.0,4.0,4.0,4.0,100.0,,,,,,,,,,,,,,,,,,,,,,,,,,,,,,,,,,,,,,,,,,,,,,,,,,,,,,,,,,,,,,,,,,,,,,,,,,,,,,,,,,,,,,,,,,,,,,,,,,,,,,,,,,,,,,,,,,,,,,,,,,,,,,,,,,,
1725618247.546339,1725618247.546758,141.0,0.0,4232.94873,4217.94873,4262.94873,4272.563965,4183.846191,4202.692383,4204.615234,4207.05127,4177.179688,4189.230957,4501.538574,4503.077148,4361.794922,4428.205078,3902.0,2.0,35.0,,,,0.0,4.0,4.0,4.0,4.0,4.0,4.0,4.0,4.0,4.0,4.0,4.0,4.0,4.0,4.0,100.0,,,,,,,,,,,,,,,,,,,,,,,,,,,,,,,,,,,,,,,,,,,,,,,,,,,,,,,,,,,,,,,,,,,,,,,,,,,,,,,,,,,,,,,,,,,,,,,,,,,,,,,,,,,,,,,,,,,,,,,,,,,,,,,,,,,
1725618247.550243,1725618247.550662,142.0,0.0,4234.615234,4218.333496,4264.615234,4277.94873,4185.128418,4203.974121,4207.307617,4214.358887,4182.05127,4194.102539,4510.256348,4508.974121,4364.230957,4430.256348,2894.0,2.0,35.0,,,,0.0,4.0,4.0,4.0,4.0,4.0,4.0,4.0,4.0,4.0,4.0,4.0,4.0,4.0,4.0,100.0,,,,,,,,,,,,,,,,,,,,,,,,,,,,,,,,,,,,,,,,,,,,,,,,,,,,,,,,,,,,,,,,,,,,,,,,,,,,,,,,,,,,,,,,,,,,,,,,,,,,,,,,,,,,,,,,,,,,,,,,,,,,,,,,,,,
1725618247.554147,1725618247.554566,143.0,0.0,4236.282227,4220.128418,4266.282227,4281.282227,4186.666504,4205.769043,4210.256348,4217.692383,4185.897461,4198.717773,4513.589844,4511.282227,4365.897461,4431.538574,3079.0,2.0,35.0,,,,0.0,4.0,4.0,4.0,4.0,4.0,4.0,4.0,4.0,4.0,4.0,4.0,4.0,4.0,4.0,100.0,,,,,,,,,,,,,,,,,,,,,,,,,,,,,,,,,,,,,,,,,,,,,,,,,,,,,,,,,,,,,,,,,,,,,,,,,,,,,,,,,,,,,,,,,,,,,,,,,,,,,,,,,,,,,,,,,,,,,,,,,,,,,,,,,,,
1725618247.558051,1725618247.55847,144.0,0.0,4237.05127,4221.282227,4266.410156,4280.512695,4188.077148,4206.666504,4212.179688,4212.307617,4187.307617,4201.410156,4508.846191,4507.563965,4365.256348,4431.410156,3421.0,2.0,35.0,,,,0.0,4.0,4.0,4.0,4.0,4.0,4.0,4.0,4.0,4.0,4.0,4.0,4.0,4.0,4.0,100.0,,,,,,,,,,,,,,,,,,,,,,,,,,,,,,,,,,,,,,,,,,,,,,,,,,,,,,,,,,,,,,,,,,,,,,,,,,,,,,,,,,,,,,,,,,,,,,,,,,,,,,,,,,,,,,,,,,,,,,,,,,,,,,,,,,,
1725618247.561955,1725618247.562374,145.0,0.0,4236.025879,4220.641113,4264.615234,4276.538574,4188.974121,4206.538574,4212.94873,4198.974121,4186.153809,4201.282227,4499.358887,4499.358887,4362.05127,4430.256348,3902.0,2.0,35.0,,,,0.0,4.0,4.0,4.0,4.0,4.0,4.0,4.0,4.0,4.0,4.0,4.0,4.0,4.0,4.0,100.0,,,,,,,,,,,,,,,,,,,,,,,,,,,,,,,,,,,,,,,,,,,,,,,,,,,,,,,,,,,,,,,,,,,,,,,,,,,,,,,,,,,,,,,,,,,,,,,,,,,,,,,,,,,,,,,,,,,,,,,,,,,,,,,,,,,
1725618247.565859,1725618247.566278,146.0,0.0,4233.589844,4218.717773,4262.05127,4272.436035,4189.230957,4206.282227,4212.94873,4184.743652,4183.974121,4199.358887,4491.282227,4490.769043,4358.205078,4429.102539,2894.0,2.0,35.0,,,,0.0,4.0,4.0,4.0,4.0,4.0,4.0,4.0,4.0,4.0,4.0,4.0,4.0,4.0,4.0,100.0,,,,,,,,,,,,,,,,,,,,,,,,,,,,,,,,,,,,,,,,,,,,,,,,,,,,,,,,0.0,0.0,1.0,0.0,1.0,0.0,,,,,,,,,,,,,,,,,,,,,,,,,,,,,,,,,,,,,,,,,,,,,,,,,,,,,,,,,,,,,,,,,,,,,,
1725618247.569763,1725618247.570082,147.0,0.0,4231.282227,4217.179688,4260.512695,4271.410156,4188.974121,4207.307617,4212.820313,4177.563965,4182.820313,4197.179688,4489.358887,4486.410156,4355.897461,4428.846191,3079.0,2.0,35.0,,,,0.0,4.0,4.0,4.0,4.0,4.0,4.0,4.0,4.0,4.0,4.0,4.0,4.0,4.0,4.0,100.0,,,,,,,,,,,,,,,,,,,,,,,,,,,,,,,,,,,,,,,,,,,,,,,,,,,,,,,,,,,,,,,,,,,,,,,,,,,,,,,,,,,,,,,,,,,,,,,,,,,,,,,,,,,,,,,,,,,,,,,,,,,,,,,,,,,
1725618247.573667,1725618247.573986,148.0,0.0,4230.384766,4217.05127,4261.025879,4273.846191,4188.589844,4210.0,4212.436035,4181.538574,4183.333496,4196.410156,4494.230957,4488.205078,4356.282227,4428.974121,3421.0,2.0,35.0,,,,0.0,4.0,4.0,4.0,4.0,4.0,4.0,4.0,4.0,4.0,4.0,4.0,4.0,4.0,4.0,100.0,,,,,,,,,,,,,,,,,,,,,,,,,,,,,,,,,,,,,,,,,,,,,,,,,,,,,,,,,,,,,,,,,,,,,,,,,,,,,,,,,,,,,,,,,,,,,,,,,,,,,,,,,,,,,,,,,,,,,,,,,,,,,,,,,,,
1725618247.577572,1725618247.57789,149.0,0.0,4231.666504,4218.205078,4263.205078,4278.205078,4188.461426,4213.846191,4211.282227,4193.461426,4184.871582,4196.922852,4502.692383,4495.128418,4359.230957,4429.102539,3902.0,2.0,35.0,,,,0.0,4.0,4.0,4.0,4.0,4.0,4.0,4.0,4.0,4.0,4.0,4.0,4.0,4.0,4.0,100.0,,,,,,,,,,,,,,,,,,,,,,,,,,,,,,,,,,,,,,,,,,,,,,,,,,,,,,,,,,,,,,,,,,,,,,,,,,,,,,,,,,,,,,,,,,,,,,,,,,,,,,,,,,,,,,,,,,,,,,,,,,,,,,,,,,,
1725618247.581476,1725618247.581795,150.0,0.0,4234.487305,4219.615234,4265.641113,4281.410156,4189.102539,4217.307617,4209.358887,4205.128418,4186.282227,4198.205078,4509.871582,4503.077148,4363.333496,4429.358887,2894.0,2.0,35.0,,,,0.0,4.0,4.0,4.0,4.0,4.0,4.0,4.0,4.0,4.0,4.0,4.0,4.0,4.0,4.0,100.0,,,,,,,,,,,,,,,,,,,,,,,,,,,,,,,,,,,,,,,,,,,,,,,,,,,,,,,,,,,,,,,,,,,,,,,,,,,,,,,,,,,,,,,,,,,,,,,,,,,,,,,,,,,,,,,,,,,,,,,,,,,,,,,,,,,
1725618247.58538,1725618247.585599,151.0,0.0,4237.179688,4220.384766,4266.666504,4281.922852,4190.128418,4218.846191,4206.794922,4210.0,4186.666504,4199.102539,4512.179688,4507.94873,4367.179688,4431.025879,3079.0,2.0,35.0,,,,0.0,4.0,4.0,4.0,4.0,4.0,4.0,4.0,4.0,4.0,4.0,4.0,4.0,4.0,4.0,100.0,,,,,,,,,,,,,,,,,,,,,,,,,,,,,,,,,,,,,,,,,,,,,,,,,,,,,,,,,,,,,,,,,,,,,,,,,,,,,,,,,,,,,,,,,,,,,,,,,,,,,,,,,,,,,,,,,,,,,,,,,,,,,,,,,,,
1725618247.589284,1725618247.589503,152.0,0.0,4237.820313,4220.0,4265.769043,4280.641113,4190.512695,4217.307617,4204.358887,4207.179688,4186.538574,4199.615234,4510.128418,4508.333496,4369.743652,4434.871582,3421.0,2.0,35.0,,,,0.0,4.0,4.0,4.0,4.0,4.0,4.0,4.0,4.0,4.0,4.0,4.0,4.0,4.0,4.0,100.0,,,,,,,,,,,,,,,,,,,,,,,,,,,,,,,,,,,,,,,,,,,,,,,,,,,,,,,,,,,,,,,,,,,,,,,,,,,,,,,,,,,,,,,,,,,,,,,,,,,,,,,,,,,,,,,,,,,,,,,,,,,,,,,,,,,
1725618247.593188,1725618247.593407,153.0,0.0,4235.897461,4218.974121,4264.487305,4278.974121,4189.743652,4212.94873,4202.692383,4201.666504,4186.666504,4199.871582,4507.307617,4506.153809,4371.153809,4440.0,3902.0,2.0,35.0,,,,0.0,4.0,4.0,4.0,4.0,4.0,4.0,4.0,4.0,4.0,4.0,4.0,4.0,4.0,4.0,100.0,,,,,,,,,,,,,,,,,,,,,,,,,,,,,,,,,,,,,,,,,,,,,,,,,,,,,,,,,,,,,,,,,,,,,,,,,,,,,,,,,,,,,,,,,,,,,,,,,,,,,,,,,,,,,,,,,,,,,,,,,,,,,,,,,,,
1725618247.597092,1725618247.597411,154.0,0.0,4233.333496,4218.461426,4264.871582,4278.077148,4187.692383,4208.077148,4202.307617,4199.615234,4187.307617,4200.128418,4507.563965,4504.615234,4371.794922,4444.358887,2894.0,2.0,35.0,,,,0.0,4.0,4.0,4.0,4.0,4.0,4.0,4.0,4.0,4.0,4.0,4.0,4.0,4.0,4.0,100.0,,,,,,,,,,,,,,,,,,,,,,,,,,,,,,,,,,,,,,,,,,,,,,,,,,,,,,,,0.0,0.0,1.0,0.0,1.0,0.0,,,,,,,,,,,,,,,,,,,,,,,,,,,,,,,,,,,,,,,,,,,,,,,,,,,,,,,,,,,,,,,,,,,,,,
1725618247.600996,1725618247.601315,155.0,0.0,4232.820313,4218.589844,4267.563965,4278.333496,4185.512695,4205.512695,4203.205078,4202.94873,4187.692383,4200.384766,4511.666504,4505.897461,4372.436035,4446.282227,3079.0,2.0,35.0,,,,0.0,4.0,4.0,4.0,4.0,4.0,4.0,4.0,4.0,4.0,4.0,4.0,4.0,4.0,4.0,100.0,,,,,,,,,,,,,,,,,,,,,,,,,,,,,,,,,,,,,,,,,,,,,,,,,,,,,,,,,,,,,,,,,,,,,,,,,,,,,,,,,,,,,,,,,,,,,,,,,,,,,,,,,,,,,,,,,,,,,,,,,,,,,,,,,,,
1725618247.6049,1725618247.605219,156.0,0.0,4236.282227,4219.358887,4271.538574,4279.358887,4184.615234,4206.666504,4204.102539,4208.846191,4187.179688,4200.769043,4516.538574,4509.102539,4374.230957,4446.153809,3421.0,2.0,35.0,,,,0.0,4.0,4.0,4.0,4.0,4.0,4.0,4.0,4.0,4.0,4.0,4.0,4.0,4.0,4.0,100.0,,,,,,,,,,,,,,,,,,,,,,,,,,,,,,,,,,,,,,,,,,,,,,,,,,,,,,,,,,,,,,,,,,,,,,,,,,,,,,,,,,,,,,,,,,,,,,,,,,,,,,,,,,,,,,,,,,,,,,,,,,,,,,,,,,,
1725618247.608804,1725618247.609123,157.0,0.0,4242.94873,4220.256348,4275.0,4280.897461,4185.897461,4209.871582,4204.102539,4212.692383,4186.794922,4201.538574,4518.589844,4512.94873,4378.205078,4445.641113,3902.0,2.0,35.0,,,,0.0,4.0,4.0,4.0,4.0,4.0,4.0,4.0,4.0,4.0,4.0,4.0,4.0,4.0,4.0,100.0,,,,,,,,,,,,,,,,,,,,,,,,,,,,,,,,,,,,,,,,,,,,,,,,,,,,,,,,,,,,,,,,,,,,,,,,,,,,,,,,,,,,,,,,,,,,,,,,,,,,,,,,,,,,,,,,,,,,,,,,,,,,,,,,,,,
1725618247.612708,1725618247.612927,158.0,0.0,4249.871582,4221.282227,4276.153809,4281.794922,4188.461426,4212.436035,4203.205078,4212.563965,4187.307617,4202.820313,4516.922852,4516.025879,4383.589844,4445.897461,2894.0,2.0,35.0,,,,0.0,4.0,4.0,4.0,4.0,4.0,4.0,4.0,4.0,4.0,4.0,4.0,4.0,4.0,4.0,100.0,,,,,,,,,,,,,,,,,,,,,,,,,,,,,,,,,,,,,,,,,,,,,,,,,,,,,,,,,,,,,,,,,,,,,,,,,,,,,,,,,,,,,,,,,,,,,,,,,,,,,,,,,,,,,,,,,,,,,,,,,,,,,,,,,,,
1725618247.616613,1725618247.616832,159.0,0.0,4252.563965,4221.794922,4274.487305,4280.769043,4190.256348,4212.307617,4202.436035,4209.743652,4188.461426,4203.333496,4513.077148,4517.692383,4387.179688,4446.410156,3079.0,2.0,35.0,,,,0.0,4.0,4.0,4.0,4.0,4.0,4.0,4.0,4.0,4.0,4.0,4.0,4.0,4.0,4.0,100.0,,,,,,,,,,,,,,,,,,,,,,,,,,,,,,,,,,,,,,,,,,,,,,,,,,,,,,,,,,,,,,,,,,,,,,,,,,,,,,,,,,,,,,,,,,,,,,,,,,,,,,,,,,,,,,,,,,,,,,,,,,,,,,,,,,,
1725618247.620517,1725618247.620736,160.0,0.0,4248.717773,4220.641113,4270.512695,4277.436035,4188.974121,4209.102539,4202.05127,4206.410156,4188.205078,4200.384766,4509.358887,4516.410156,4385.384766,4445.256348,3421.0,2.0,35.0,,,,0.0,4.0,4.0,4.0,4.0,4.0,4.0,4.0,4.0,4.0,4.0,4.0,4.0,4.0,4.0,100.0,,,,,,,,,,,,,,,,,,,,,,,,,,,,,,,,,,,,,,,,,,,,,,,,,,,,,,,,,,,,,,,,,,,,,,,,,,,,,,,,,,,,,,,,,,,,,,,,,,,,,,,,,,,,,,,,,,,,,,,,,,,,,,,,,,,
1725618247.624421,1725618247.62474,161.0,0.0,4238.589844,4216.794922,4265.384766,4272.179688,4184.230957,4204.230957,4201.410156,4203.589844,4185.0,4192.820313,4505.384766,4510.641113,4376.922852,4440.384766,3902.0,2.0,35.0,,,,0.0,4.0,4.0,4.0,4.0,4.0,4.0,4.0,4.0,4.0,4.0,4.0,4.0,4.0,4.0,100.0,,,,,,,,,,,,,,,,,,,,,,,,,,,,,,,,,,,,,,,,,,,,,,,,,,,,,,,,,,,,,,,,,,,,,,,,,,,,,,,,,,,,,,,,,,,,,,,,,,,,,,,,,,,,,,,,,,,,,,,,,,,,,,,,,,,
1725618247.628325,1725618247.628644,162.0,0.0,4226.025879,4210.0,4259.743652,4266.410156,4178.205078,4199.615234,4199.358887,4201.153809,4178.589844,4181.538574,4500.0,4500.128418,4364.358887,4431.410156,2894.0,2.0,35.0,,,,0.0,4.0,4.0,4.0,4.0,4.0,4.0,4.0,4.0,4.0,4.0,4.0,4.0,4.0,4.0,100.0,,,,,,,,,,,,,,,,,1.0,0.0,0.0,,,,,,,,,,,,,,,,,,,,,,,,,,,,,,,,,,,,,0.0,0.0,64.0,0.033119,1.0,0.0,2.653867,2.641135,1.505215,0.723117,0.10603,1.699013,2.120177,0.810903,0.499662,0.156306,2.07532,2.966484,1.329101,0.51491,0.144824,1.895537,1.977995,1.384541,0.481943,0.123312,0.833894,0.641404,0.462393,0.192616,0.081491,0.150157,0.499603,0.113518,0.108181,0.064791,0.668184,0.759359,0.430491,0.180929,0.066576,0.517565,1.517359,1.049598,0.324958,0.299491,2.234514,1.73491,0.988005,0.254636,0.112519,2.747949,2.374123,1.394148,0.542502,0.144126,2.970268,4.075605,2.142702,0.753657,0.309513,3.378152,4.031225,2.228437,0.800852,0.297627,5.183898,4.064497,1.732325,0.862137,0.184707,2.830746,3.707895,1.685109,0.738963,0.163894
1725618247.632229,1725618247.632548,163.0,0.0,4215.0,4201.282227,4254.102539,4260.256348,4173.077148,4196.922852,4195.384766,4199.615234,4171.282227,4169.743652,4491.794922,4487.692383,4351.666504,4420.256348,3079.0,2.0,35.0,,,,0.0,4.0,4.0,4.0,4.0,4.0,4.0,4.0,4.0,4.0,4.0,4.0,4.0,4.0,4.0,100.0,,,,,,,,,,,,,,,,,,,,,,,,,,,,,,,,,,,,,,,,,,,,,,,,,,,,,,,,,,,,,,,,,,,,,,,,,,,,,,,,,,,,,,,,,,,,,,,,,,,,,,,,,,,,,,,,,,,,,,,,,,,,,,,,,,,
1725618247.636133,1725618247.636452,164.0,0.0,4207.179688,4192.179688,4247.692383,4253.333496,4170.384766,4197.179688,4190.512695,4199.487305,4165.769043,4160.384766,4480.897461,4477.05127,4341.538574,4409.230957,3421.0,2.0,35.0,,,,0.0,4.0,4.0,4.0,4.0,4.0,4.0,4.0,4.0,4.0,4.0,4.0,4.0,4.0,4.0,100.0,,,,,,,,,,,,,,,,,,,,,,,,,,,,,,,,,,,,,,,,,,,,,,,,,,,,,,,,,,,,,,,,,,,,,,,,,,,,,,,,,,,,,,,,,,,,,,,,,,,,,,,,,,,,,,,,,,,,,,,,,,,,,,,,,,,
1725618247.640037,1725618247.640456,165.0,0.0,4202.05127,4183.974121,4240.512695,4245.384766,4168.974121,4200.384766,4186.025879,4200.769043,4163.461426,4154.230957,4468.974121,4470.256348,4333.974121,4399.871582,3902.0,2.0,35.0,,,,0.0,4.0,4.0,4.0,4.0,4.0,4.0,4.0,4.0,4.0,4.0,4.0,4.0,4.0,4.0,100.0,,,,,,,,,,,,,,,,,,,,,,,,,,,,,,,,,,,,,,,,,,,,,,,,,,,,,,,,,,,,,,,,,,,,,,,,,,,,,,,,,,,,,,,,,,,,,,,,,,,,,,,,,,,,,,,,,,,,,,,,,,,,,,,,,,,
1725618247.643941,1725618247.64436,166.0,0.0,4197.94873,4178.333496,4233.461426,4237.179688,4167.307617,4205.128418,4183.333496,4202.563965,4163.717773,4150.0,4458.205078,4467.05127,4327.820313,4392.692383,2894.0,2.0,35.0,,,,0.0,4.0,4.0,4.0,4.0,4.0,4.0,4.0,4.0,4.0,4.0,4.0,4.0,4.0,4.0,100.0,,,,,,,,,,,,,,,,,,,,,,,,,,,,,,,,,,,,,,,,,,,,,,,,,,,,,,,,,,,,,,,,,,,,,,,,,,,,,,,,,,,,,,,,,,,,,,,,,,,,,,,,,,,,,,,,,,,,,,,,,,,,,,,,,,,
