Timestamp,OriginalTimestamp,EEG.Counter,EEG.Interpolated,EEG.AF3,EEG.F7,EEG.F3,EEG.FC5,EEG.T7,EEG.P7,EEG.O1,EEG.O2,EEG.P8,EEG.T8,EEG.FC6,EEG.F4,EEG.F8,EEG.AF4,EEG.RawCq,EEG.Battery,EEG.BatteryPercent,MarkerIndex,MarkerType,MarkerValueInt,EEG.MarkerHardware,CQ.AF3,CQ.F7,CQ.F3,CQ.FC5,CQ.T7,CQ.P7,CQ.O1,CQ.O2,CQ.P8,CQ.T8,CQ.FC6,CQ.F4,CQ.F8,CQ.AF4,CQ.Overall,EQ.SampleRateQuality,EQ.OVERALL,EQ.AF3,EQ.F7,EQ.F3,EQ.FC5,EQ.T7,EQ.P7,EQ.O1,EQ.O2,EQ.P8,EQ.T8,EQ.FC6,EQ.F4,EQ.F8,EQ.AF4,MC.Action,MC.ActionPower,MC.IsActive,PM.Attention.IsActive,PM.Attention.Scaled,PM.Attention.Raw,PM.Attention.Min,PM.Attention.Max,PM.Engagement.IsActive,PM.Engagement.Scaled,PM.Engagement.Raw,PM.Engagement.Min,PM.Engagement.Max,PM.Excitement.IsActive,PM.Excitement.Scaled,PM.Excitement.Raw,PM.Excitement.Min,PM.Excitement.Max,PM.LongTermExcitement,PM.Stress.IsActive,PM.Stress.Scaled,PM.Stress.Raw,PM.Stress.Min,PM.Stress.Max,PM.Relaxation.IsActive,PM.Relaxation.Scaled,PM.Relaxation.Raw,PM.Relaxation.Min,PM.Relaxation.Max,PM.Interest.IsActive,PM.Interest.Scaled,PM.Interest.Raw,PM.Interest.Min,PM.Interest.Max,PM.Focus.IsActive,PM.Focus.Scaled,PM.Focus.Raw,PM.Focus.Min,PM.Focus.Max,FE.BlinkWink,FE.HorizontalEyesDirection,FE.UpperFaceAction,FE.UpperFaceActionPower,FE.LowerFaceAction,FE.LowerFaceActionPower,POW.AF3.Theta,POW.AF3.Alpha,POW.AF3.BetaL,POW.AF3.BetaH,POW.AF3.Gamma,POW.F7.Theta,POW.F7.Alpha,POW.F7.BetaL,POW.F7.BetaH,POW.F7.Gamma,POW.F3.Theta,POW.F3.Alpha,POW.F3.BetaL,POW.F3.BetaH,POW.F3.Gamma,POW.FC5.Theta,POW.FC5.Alpha,POW.FC5.BetaL,POW.FC5.BetaH,POW.FC5.Gamma,POW.T7.Theta,POW.T7.Alpha,POW.T7.BetaL,POW.T7.BetaH,POW.T7.Gamma,POW.P7.Theta,POW.P7.Alpha,POW.P7.BetaL,POW.P7.BetaH,POW.P7.Gamma,POW.O1.Theta,POW.O1.Alpha,POW.O1.BetaL,POW.O1.BetaH,POW.O1.Gamma,POW.O2.Theta,POW.O2.Alpha,POW.O2.BetaL,POW.O2.BetaH,POW.O2.Gamma,POW.P8.Theta,POW.P8.Alpha,POW.P8.BetaL,POW.P8.BetaH,POW.P8.Gamma,POW.T8.Theta,POW.T8.Alpha,POW.T8.BetaL,POW.T8.BetaH,POW.T8.Gamma,POW.FC6.Theta,POW.FC6.Alpha,POW.FC6.BetaL,POW.FC6.BetaH,POW.FC6.Gamma,POW.F4.Theta,POW.F4.Alpha,POW.F4.BetaL,POW.F4.BetaH,POW.F4.Gamma,POW.F8.Theta,POW.F8.Alpha,POW.F8.BetaL,POW.F8.BetaH,POW.F8.Gamma,POW.AF4.Theta,POW.AF4.Alpha,POW.AF4.BetaL,POW.AF4.BetaH,POW.AF4.Gamma
1725710447.419931,1725710447.420239,54.0,0.0,4262.436035,4251.153809,4257.94873,4291.666504,4219.230957,4235.0,4410.641113,4229.487305,4229.615234,4208.974121,4537.692383,4510.384766,4382.179688,4453.717773,0.0,1.0,15.0,19.0,1.0,1.0,0.0,4.0,4.0,4.0,4.0,4.0,4.0,4.0,4.0,4.0,4.0,4.0,4.0,4.0,4.0,100.0,,,,,,,,,,,,,,,,,,,,,,,,,,,,,,,,,,,,,,,,,,,,,,,,,,,,,,,,,,,,,,,,,,,,,,,,,,,,,,,,,,,,,,,,,,,,,,,,,,,,,,,,,,,,,,,,,,,,,,,,,,,,,,,,,,,
1725710447.423835,1725710447.424143,55.0,0.0,4262.05127,4249.230957,4254.615234,4293.974121,4218.077148,4233.589844,4406.794922,4227.436035,4225.256348,4200.769043,4541.794922,4506.922852,4380.512695,4447.94873,0.0,1.0,15.0,,,,0.0,4.0,4.0,4.0,4.0,4.0,4.0,4.0,4.0,4.0,4.0,4.0,4.0,4.0,4.0,100.0,,,,,,,,,,,,,,,,,,,,,,,,,,,,,,,,,,,,,,,,,,,,,,,,,,,,,,,,,,,,,,,,,,,,,,,,,,,,,,,,,,,,,,,,,,,,,,,,,,,,,,,,,,,,,,,,,,,,,,,,,,,,,,,,,,,
1725710447.427739,1725710447.428047,56.0,0.0,4260.384766,4249.743652,4251.922852,4296.538574,4216.922852,4232.692383,4403.717773,4224.102539,4221.282227,4196.410156,4550.641113,4506.538574,4378.717773,4444.230957,0.0,1.0,15.0,,,,0.0,4.0,4.0,4.0,4.0,4.0,4.0,4.0,4.0,4.0,4.0,4.0,4.0,4.0,4.0,100.0,,,,,,,,,,,,,,,,,,,,,,,,,,,,,,,,,,,,,,,,,,,,,,,,,,,,,,,,0.0,0.0,1.0,0.0,128.0,0.0,,,,,,,,,,,,,,,,,,,,,,,,,,,,,,,,,,,,,,,,,,,,,,,,,,,,,,,,,,,,,,,,,,,,,,
1725710447.431643,1725710447.431952,57.0,0.0,4256.794922,4251.538574,4250.512695,4296.666504,4216.282227,4232.692383,4400.769043,4220.256348,4219.615234,4197.179688,4558.333496,4507.179688,4376.282227,4443.333496,0.0,1.0,15.0,,,,0.0,4.0,4.0,4.0,4.0,4.0,4.0,4.0,4.0,4.0,4.0,4.0,4.0,4.0,4.0,100.0,,,,,,,,,,,,,,,,,,,,,,,,,,,,,,,,,,,,,,,,,,,,,,,,,,,,,,,,,,,,,,,,,,,,,,,,,,,,,,,,,,,,,,,,,,,,,,,,,,,,,,,,,,,,,,,,,,,,,,,,,,,,,,,,,,,
1725710447.435547,1725710447.435856,58.0,0.0,4252.05127,4252.94873,4250.128418,4293.333496,4216.153809,4233.589844,4396.794922,4217.307617,4221.282227,4201.282227,4559.102539,4505.769043,4373.974121,4444.743652,0.0,1.0,15.0,,,,0.0,4.0,4.0,4.0,4.0,4.0,4.0,4.0,4.0,4.0,4.0,4.0,4.0,4.0,4.0,100.0,,,,,,,,,,,,,,,,,,,,,,,,,,,,,,,,,,,,,,,,,,,,,,,,,,,,,,,,,,,,,,,,,,,,,,,,,,,,,,,,,,,,,,,,,,,,,,,,,,,,,,,,,,,,,,,,,,,,,,,,,,,,,,,,,,,
1725710447.439452,1725710447.43986,59.0,0.0,4247.94873,4252.820313,4250.641113,4287.692383,4215.897461,4234.487305,4391.666504,4216.794922,4225.256348,4204.871582,4551.922852,4501.538574,4372.692383,4446.153809,0.0,1.0,15.0,,,,0.0,4.0,4.0,4.0,4.0,4.0,4.0,4.0,4.0,4.0,4.0,4.0,4.0,4.0,4.0,100.0,,,,,,,,,,,,,,,,,,,,,,,,,,,,,,,,,,,,,,,,,,,,,,,,,,,,,,,,,,,,,,,,,,,,,,,,,,,,,,,,,,,,,,,,,,,,,,,,,,,,,,,,,,,,,,,,,,,,,,,,,,,,,,,,,,,
1725710447.443356,1725710447.443764,60.0,0.0,4246.410156,4251.410156,4251.153809,4282.307617,4215.256348,4234.615234,4386.410156,4219.358887,4229.743652,4205.512695,4541.153809,4496.025879,4372.820313,4445.641113,0.0,1.0,15.0,,,,0.0,4.0,4.0,4.0,4.0,4.0,4.0,4.0,4.0,4.0,4.0,4.0,4.0,4.0,4.0,100.0,,,,,,,,,,,,,,,,,,,,,,,,,,,,,,,,,,,,,,,,,,,,,,,,,,,,,,,,,,,,,,,,,,,,,,,,,,,,,,,,,,,,,,,,,,,,,,,,,,,,,,,,,,,,,,,,,,,,,,,,,,,,,,,,,,,
1725710447.44726,1725710447.447668,61.0,0.0,4247.05127,4250.0,4250.897461,4279.487305,4215.384766,4234.102539,4382.05127,4224.487305,4233.205078,4203.333496,4533.974121,4491.922852,4373.589844,4442.179688,0.0,1.0,15.0,,,,0.0,4.0,4.0,4.0,4.0,4.0,4.0,4.0,4.0,4.0,4.0,4.0,4.0,4.0,4.0,100.0,,,,,,,,,,,,,,,,,,,,,,,,,,,,,,,,,,,,,,,,,,,,,,,,,,,,,,,,,,,,,,,,,,,,,,,,,,,,,,,,,,,,,,,,,,,,,,,,,,,,,,,,,,,,,,,,,,,,,,,,,,,,,,,,,,,
1725710447.451164,1725710447.451572,62.0,0.0,4248.205078,4249.358887,4249.102539,4279.358887,4216.410156,4233.461426,4378.077148,4229.487305,4234.743652,4201.025879,4534.615234,4490.256348,4373.974121,4436.922852,0.0,1.0,15.0,,,,0.0,4.0,4.0,4.0,4.0,4.0,4.0,4.0,4.0,4.0,4.0,4.0,4.0,4.0,4.0,100.0,,,,,,,,,,,,,,,,,,,,,,,,,,,,,,,,,,,,,,,,,,,,,,,,,,,,,,,,,,,,,,,,,,,,,,,,,,,,,,,,,,,,,,,,,,,,,,,,,,,,,,,,,,,,,,,,,,,,,,,,,,,,,,,,,,,
1725710447.455068,1725710447.455476,63.0,0.0,4247.179688,4249.615234,4245.512695,4279.743652,4217.436035,4233.205078,4373.717773,4232.179688,4234.487305,4200.769043,4540.897461,4490.897461,4372.94873,4432.179688,0.0,1.0,15.0,,,,0.0,4.0,4.0,4.0,4.0,4.0,4.0,4.0,4.0,4.0,4.0,4.0,4.0,4.0,4.0,100.0,,,,,,,,,,,,,,,,,,,,,,,,,,,,,,,,,,,,,,,,,,,,,,,,,,,,,,,,,,,,,,,,,,,,,,,,,,,,,,,,,,,,,,,,,,,,,,,,,,,,,,,,,,,,,,,,,,,,,,,,,,,,,,,,,,,
1725710447.458972,1725710447.45928,64.0,0.0,4243.205078,4249.358887,4240.641113,4278.461426,4216.666504,4233.589844,4368.717773,4231.794922,4233.205078,4202.436035,4545.769043,4492.179688,4370.641113,4429.102539,0.0,1.0,15.0,,,,0.0,4.0,4.0,4.0,4.0,4.0,4.0,4.0,4.0,4.0,4.0,4.0,4.0,4.0,4.0,100.0,,,,,,,,,,,,,,,,,,,,,,,,,,,,,,,,,,,,,,,,,,,,,,,,,,,,,,,,0.0,0.0,1.0,0.0,128.0,0.0,,,,,,,,,,,,,,,,,,,,,,,,,,,,,,,,,,,,,,,,,,,,,,,,,,,,,,,,,,,,,,,,,,,,,,
1725710447.462876,1725710447.463184,65.0,0.0,4237.436035,4247.05127,4236.025879,4274.871582,4213.077148,4233.974121,4363.974121,4228.717773,4232.05127,4203.589844,4543.205078,4492.307617,4367.563965,4427.820313,0.0,1.0,15.0,,,,0.0,4.0,4.0,4.0,4.0,4.0,4.0,4.0,4.0,4.0,4.0,4.0,4.0,4.0,4.0,100.0,,,,,,,,,,,,,,,,,,,,,,,,,,,,,,,,,,,,,,,,,,,,,,,,,,,,,,,,,,,,,,,,,,,,,,,,,,,,,,,,,,,,,,,,,,,,,,,,,,,,,,,,,,,,,,,,,,,,,,,,,,,,,,,,,,,
1725710447.46678,1725710447.467089,66.0,0.0,4232.563965,4242.307617,4232.94873,4270.769043,4208.205078,4234.230957,4359.871582,4224.230957,4231.794922,4202.307617,4533.077148,4490.0,4364.102539,4427.307617,0.0,1.0,15.0,,,,0.0,4.0,4.0,4.0,4.0,4.0,4.0,4.0,4.0,4.0,4.0,4.0,4.0,4.0,4.0,100.0,,,,,,,,,,,,,,,,,,,,,,,,,,,,,,,,,,,,,,,,,,,,,,,,,,,,,,,,,,,,,,,,,,,,,,,,,,,,,,,,,,,,,,,,,,,,,,,,,,,,,,,,,,,,,,,,,,,,,,,,,,,,,,,,,,,
1725710447.470684,1725710447.470893,67.0,0.0,4230.512695,4236.282227,4231.794922,4268.717773,4204.743652,4234.358887,4356.410156,4220.0,4232.179688,4198.717773,4521.282227,4485.769043,4360.641113,4426.410156,0.0,1.0,15.0,,,,0.0,4.0,4.0,4.0,4.0,4.0,4.0,4.0,4.0,4.0,4.0,4.0,4.0,4.0,4.0,100.0,,,,,,,,,,,,,,,,,,,,,,,,,,,,,,,,,,,,,,,,,,,,,,,,,,,,,,,,,,,,,,,,,,,,,,,,,,,,,,,,,,,,,,,,,,,,,,,,,,,,,,,,,,,,,,,,,,,,,,,,,,,,,,,,,,,
1725710447.474589,1725710447.474797,68.0,0.0,4231.153809,4231.282227,4232.307617,4270.0,4204.358887,4234.871582,4352.820313,4217.179688,4232.307617,4194.615234,4514.743652,4481.410156,4357.563965,4425.128418,0.0,1.0,15.0,,,,0.0,4.0,4.0,4.0,4.0,4.0,4.0,4.0,4.0,4.0,4.0,4.0,4.0,4.0,4.0,100.0,,,,,,,,,,,,,,,,,,,,,,,,,,,,,,,,,,,,,,,,,,,,,,,,,,,,,,,,,,,,,,,,,,,,,,,,,,,,,,,,,,,,,,,,,,,,,,,,,,,,,,,,,,,,,,,,,,,,,,,,,,,,,,,,,,,
1725710447.478493,1725710447.478701,69.0,0.0,4233.077148,4229.487305,4233.333496,4273.974121,4206.282227,4235.384766,4349.102539,4215.769043,4230.641113,4192.05127,4516.282227,4478.717773,4355.769043,4423.846191,0.0,1.0,15.0,,,,0.0,4.0,4.0,4.0,4.0,4.0,4.0,4.0,4.0,4.0,4.0,4.0,4.0,4.0,4.0,100.0,,,,,,,,,,,,,,,,,,,,,,,,,,,,,,,,,,,,,,,,,,,,,,,,,,,,,,,,,,,,,,,,,,,,,,,,,,,,,,,,,,,,,,,,,,,,,,,,,,,,,,,,,,,,,,,,,,,,,,,,,,,,,,,,,,,
1725710447.482397,1725710447.482605,70.0,0.0,4234.871582,4232.307617,4234.358887,4278.077148,4208.205078,4235.256348,4345.256348,4215.769043,4226.922852,4192.179688,4524.102539,4478.461426,4355.641113,4423.205078,0.0,1.0,15.0,,,,0.0,4.0,4.0,4.0,4.0,4.0,4.0,4.0,4.0,4.0,4.0,4.0,4.0,4.0,4.0,100.0,,,,,,,,,,,,,,,,,,,,,,,,,,,,,,,,,,,,,,,,,,,,,,,,,,,,,,,,,,,,,,,,,,,,,,,,,,,,,,,,,,,,,,,,,,,,,,,,,,,,,,,,,,,,,,,,,,,,,,,,,,,,,,,,,,,
1725710447.486301,1725710447.486409,71.0,0.0,4235.897461,4238.717773,4235.384766,4280.512695,4207.436035,4234.487305,4341.538574,4216.666504,4222.05127,4194.615234,4533.333496,4480.897461,4357.179688,4423.974121,0.0,1.0,15.0,,,,0.0,4.0,4.0,4.0,4.0,4.0,4.0,4.0,4.0,4.0,4.0,4.0,4.0,4.0,4.0,100.0,,,,,,,,,,,,,,,,,,,,,,,,,,,,,,,,,,,,,,,,,,,,,,,,,,,,,,,,,,,,,,,,,,,,,,,,,,,,,,,,,,,,,,,,,,,,,,,,,,,,,,,,,,,,,,,,,,,,,,,,,,,,,,,,,,,
1725710447.490205,1725710447.490313,72.0,0.0,4236.153809,4245.256348,4237.05127,4280.512695,4204.230957,4233.717773,4338.077148,4217.692383,4218.205078,4197.820313,4538.974121,4485.0,4358.589844,4426.153809,0.0,1.0,15.0,,,,0.0,4.0,4.0,4.0,4.0,4.0,4.0,4.0,4.0,4.0,4.0,4.0,4.0,4.0,4.0,100.0,,,,,,,,,,,,,,,,,,,,,,,,,,,,,,,,,,,,,,,,,,,,,,,,,,,,,,,,0.0,0.0,1.0,0.0,128.0,0.0,,,,,,,,,,,,,,,,,,,,,,,,,,,,,,,,,,,,,,,,,,,,,,,,,,,,,,,,,,,,,,,,,,,,,,
1725710447.494109,1725710447.494217,73.0,0.0,4235.641113,4248.205078,4239.615234,4279.358887,4201.410156,4234.358887,4335.384766,4218.205078,4217.05127,4199.871582,4539.615234,4488.589844,4358.974121,4428.589844,0.0,1.0,15.0,,,,0.0,4.0,4.0,4.0,4.0,4.0,4.0,4.0,4.0,4.0,4.0,4.0,4.0,4.0,4.0,100.0,,,,,,,,,,,,,,,,,,,,,,,,,,,,,,,,,,,,,,,,,,,,,,,,,,,,,,,,,,,,,,,,,,,,,,,,,,,,,,,,,,,,,,,,,,,,,,,,,,,,,,,,,,,,,,,,,,,,,,,,,,,,,,,,,,,
1725710447.498013,1725710447.498221,74.0,0.0,4235.256348,4246.282227,4242.05127,4279.102539,4201.794922,4237.179688,4333.974121,4217.94873,4219.358887,4199.871582,4537.307617,4490.128418,4357.692383,4429.871582,0.0,1.0,15.0,,,,0.0,4.0,4.0,4.0,4.0,4.0,4.0,4.0,4.0,4.0,4.0,4.0,4.0,4.0,4.0,100.0,,,,,,,,,,,,,,,,,,,,,,,,,,,,,,,,,,,,,,,,,,,,,,,,,,,,,,,,,,,,,,,,,,,,,,,,,,,,,,,,,,,,,,,,,,,,,,,,,,,,,,,,,,,,,,,,,,,,,,,,,,,,,,,,,,,
1725710447.501917,1725710447.502126,75.0,0.0,4235.641113,4241.538574,4243.077148,4280.128418,4206.282227,4241.538574,4333.846191,4217.179688,4223.974121,4198.333496,4535.641113,4489.358887,4355.641113,4428.974121,0.0,1.0,15.0,,,,0.0,4.0,4.0,4.0,4.0,4.0,4.0,4.0,4.0,4.0,4.0,4.0,4.0,4.0,4.0,100.0,,,,,,,,,,,,,,,,,,,,,,,,,,,,,,,,,,,,,,,,,,,,,,,,,,,,,,,,,,,,,,,,,,,,,,,,,,,,,,,,,,,,,,,,,,,,,,,,,,,,,,,,,,,,,,,,,,,,,,,,,,,,,,,,,,,
1725710447.505821,1725710447.50603,76.0,0.0,4237.563965,4238.077148,4242.94873,4281.666504,4212.692383,4245.897461,4334.487305,4216.410156,4228.974121,4196.666504,4536.410156,4488.205078,4353.974121,4427.436035,0.0,1.0,15.0,,,,0.0,4.0,4.0,4.0,4.0,4.0,4.0,4.0,4.0,4.0,4.0,4.0,4.0,4.0,4.0,100.0,,,,,,,,,,,,,,,,,,,,,,,,,,,,,,,,,,,,,,,,,,,,,,,,,,,,,,,,,,,,,,,,,,,,,,,,,,,,,,,,,,,,,,,,,,,,,,,,,,,,,,,,,,,,,,,,,,,,,,,,,,,,,,,,,,,
1725710447.509725,1725710447.509934,77.0,0.0,4240.769043,4238.461426,4242.692383,4282.563965,4217.692383,4248.589844,4335.512695,4216.153809,4231.922852,4195.897461,4538.077148,4488.846191,4354.102539,4427.179688,0.0,1.0,15.0,,,,0.0,4.0,4.0,4.0,4.0,4.0,4.0,4.0,4.0,4.0,4.0,4.0,4.0,4.0,4.0,100.0,,,,,,,,,,,,,,,,,,,,,,,,,,,,,,,,,,,,,,,,,,,,,,,,,,,,,,,,,,,,,,,,,,,,,,,,,,,,,,,,,,,,,,,,,,,,,,,,,,,,,,,,,,,,,,,,,,,,,,,,,,,,,,,,,,,
1725710447.51363,1725710447.513938,78.0,0.0,4244.615234,4242.436035,4243.717773,4282.436035,4219.230957,4248.846191,4336.410156,4216.666504,4232.307617,4196.538574,4537.436035,4492.307617,4357.05127,4429.487305,0.0,1.0,15.0,,,,0.0,4.0,4.0,4.0,4.0,4.0,4.0,4.0,4.0,4.0,4.0,4.0,4.0,4.0,4.0,100.0,,,,,,,,,,,,,,,,,,,,,,,,,,,,,,,,,,,,,,,,,,,,,,,,,,,,,,,,,,,,,,,,,,,,,,,,,,,,,,,,,,,,,,,,,,,,,,,,,,,,,,,,,,,,,,,,,,,,,,,,,,,,,,,,,,,
1725710447.517534,1725710447.517842,79.0,0.0,4247.94873,4246.922852,4246.410156,4281.666504,4218.077148,4247.307617,4336.794922,4217.692383,4231.153809,4197.820313,4532.94873,4497.436035,4362.307617,4433.974121,0.0,1.0,15.0,,,,0.0,4.0,4.0,4.0,4.0,4.0,4.0,4.0,4.0,4.0,4.0,4.0,4.0,4.0,4.0,100.0,,,,,,,,,,,,,,,,,,,,,,,,,,,,,,,,,,,,,,,,,,,,,,,,,,,,,,,,,,,,,,,,,,,,,,,,,,,,,,,,,,,,,,,,,,,,,,,,,,,,,,,,,,,,,,,,,,,,,,,,,,,,,,,,,,,
1725710447.521438,1725710447.521746,80.0,0.0,4249.743652,4249.358887,4248.974121,4281.410156,4216.282227,4245.641113,4336.666504,4218.717773,4230.128418,4198.461426,4526.410156,4501.922852,4367.692383,4439.102539,0.0,1.0,15.0,,,,0.0,4.0,4.0,4.0,4.0,4.0,4.0,4.0,4.0,4.0,4.0,4.0,4.0,4.0,4.0,100.0,,,,,,,,,,,,,,,,,1.0,0.0,0.0,,,,,,,,,,,,,,,,,,,,,,,,,,,,,,,,,,,,,0.0,0.0,1.0,0.0,128.0,0.000393,1.761042,0.485202,0.368408,0.127447,0.065465,1.281462,0.624408,0.316429,0.255448,0.071163,1.642662,0.408463,0.173148,0.083929,0.0405,1.364646,0.733487,0.311009,0.219516,0.133252,0.75041,0.210801,0.116862,0.042158,0.054044,0.224941,0.271757,0.124064,0.037035,0.024872,4.843076,1.843647,0.452953,0.521778,0.180527,1.778013,3.218484,1.487103,0.17739,0.11787,1.594914,1.774742,1.302642,0.195167,0.117482,1.345729,1.141974,0.941737,0.260976,0.189382,3.452411,0.938817,1.696808,0.493542,0.390963,4.151297,1.241251,1.023431,0.287596,0.178869,2.997629,1.162061,1.037037,0.511891,0.139725,3.008187,1.058025,0.644974,0.23424,0.114556
1725710447.525342,1725710447.52575,81.0,0.0,4249.871582,4249.230957,4250.0,4282.436035,4215.897461,4245.256348,4335.641113,4219.102539,4230.0,4198.461426,4522.692383,4505.0,4371.282227,4443.077148,0.0,1.0,15.0,,,,0.0,4.0,4.0,4.0,4.0,4.0,4.0,4.0,4.0,4.0,4.0,4.0,4.0,4.0,4.0,100.0,,,,,,,,,,,,,,,,,,,,,,,,,,,,,,,,,,,,,,,,,,,,,,,,,,,,,,,,,,,,,,,,,,,,,,,,,,,,,,,,,,,,,,,,,,,,,,,,,,,,,,,,,,,,,,,,,,,,,,,,,,,,,,,,,,,
1725710447.529246,1725710447.529654,82.0,0.0,4248.974121,4248.077148,4249.102539,4284.871582,4216.794922,4246.410156,4333.846191,4218.589844,4230.384766,4198.461426,4526.025879,4506.538574,4372.436035,4445.0,0.0,1.0,15.0,,,,0.0,4.0,4.0,4.0,4.0,4.0,4.0,4.0,4.0,4.0,4.0,4.0,4.0,4.0,4.0,100.0,,,,,,,,,,,,,,,,,,,,,,,,,,,,,,,,,,,,,,,,,,,,,,,,,,,,,,,,,,,,,,,,,,,,,,,,,,,,,,,,,,,,,,,,,,,,,,,,,,,,,,,,,,,,,,,,,,,,,,,,,,,,,,,,,,,
1725710447.53315,1725710447.533558,83.0,0.0,4248.333496,4248.461426,4247.179688,4288.077148,4218.077148,4248.333496,4331.666504,4217.436035,4230.769043,4199.615234,4535.384766,4507.436035,4372.179688,4444.615234,0.0,1.0,15.0,,,,0.0,4.0,4.0,4.0,4.0,4.0,4.0,4.0,4.0,4.0,4.0,4.0,4.0,4.0,4.0,100.0,,,,,,,,,,,,,,,,,,,,,,,,,,,,,,,,,,,,,,,,,,,,,,,,,,,,,,,,,,,,,,,,,,,,,,,,,,,,,,,,,,,,,,,,,,,,,,,,,,,,,,,,,,,,,,,,,,,,,,,,,,,,,,,,,,,
1725710447.537054,1725710447.537462,84.0,0.0,4248.589844,4251.538574,4245.769043,4291.025879,4219.102539,4249.358887,4329.358887,4216.666504,4231.153809,4201.410156,4545.769043,4507.436035,4372.179688,4443.077148,0.0,1.0,15.0,,,,0.0,4.0,4.0,4.0,4.0,4.0,4.0,4.0,4.0,4.0,4.0,4.0,4.0,4.0,4.0,100.0,,,,,,,,,,,,,,,,,,,,,,,,,,,,,,,,,,,,,,,,,,,,,,,,,,,,,,,,,,,,,,,,,,,,,,,,,,,,,,,,,,,,,,,,,,,,,,,,,,,,,,,,,,,,,,,,,,,,,,,,,,,,,,,,,,,
1725710447.540958,1725710447.541366,85.0,0.0,4249.358887,4255.897461,4245.512695,4292.820313,4219.743652,4249.358887,4326.666504,4216.922852,4231.922852,4203.077148,4551.282227,4506.025879,4374.102539,4442.179688,0.0,1.0,15.0,,,,0.0,4.0,4.0,4.0,4.0,4.0,4.0,4.0,4.0,4.0,4.0,4.0,4.0,4.0,4.0,100.0,,,,,,,,,,,,,,,,,,,,,,,,,,,,,,,,,,,,,,,,,,,,,,,,,,,,,,,,,,,,,,,,,,,,,,,,,,,,,,,,,,,,,,,,,,,,,,,,,,,,,,,,,,,,,,,,,,,,,,,,,,,,,,,,,,,
1725710447.544862,1725710447.54527,86.0,0.0,4250.0,4258.717773,4246.025879,4293.077148,4220.512695,4248.589844,4323.205078,4217.436035,4232.94873,4204.358887,4550.641113,4502.692383,4377.94873,4442.692383,0.0,1.0,15.0,,,,0.0,4.0,4.0,4.0,4.0,4.0,4.0,4.0,4.0,4.0,4.0,4.0,4.0,4.0,4.0,100.0,,,,,,,,,,,,,,,,,,,,,,,,,,,,,,,,,,,,,,,,,,,,,,,,,,,,,,,,,,,,,,,,,,,,,,,,,,,,,,,,,,,,,,,,,,,,,,,,,,,,,,,,,,,,,,,,,,,,,,,,,,,,,,,,,,,
1725710447.548766,1725710447.549075,87.0,0.0,4250.0,4258.205078,4246.538574,4292.307617,4220.897461,4248.205078,4318.846191,4217.307617,4233.333496,4205.0,4547.05127,4497.94873,4382.179688,4444.102539,0.0,1.0,15.0,,,,0.0,4.0,4.0,4.0,4.0,4.0,4.0,4.0,4.0,4.0,4.0,4.0,4.0,4.0,4.0,100.0,,,,,,,,,,,,,,,,,,,,,,,,,,,,,,,,,,,,,,,,,,,,,,,,,,,,,,,,,,,,,,,,,,,,,,,,,,,,,,,,,,,,,,,,,,,,,,,,,,,,,,,,,,,,,,,,,,,,,,,,,,,,,,,,,,,
1725710447.552671,1725710447.552979,88.0,0.0,4249.615234,4255.0,4246.410156,4291.794922,4220.641113,4248.589844,4314.487305,4215.897461,4232.563965,4204.871582,4544.871582,4493.333496,4384.358887,4444.743652,0.0,1.0,15.0,,,,0.0,4.0,4.0,4.0,4.0,4.0,4.0,4.0,4.0,4.0,4.0,4.0,4.0,4.0,4.0,100.0,,,,,,,,,,,,,,,,,,,,,,,,,,,,,,,,,,,,,,,,,,,,,,,,,,,,,,,,0.0,0.0,1.0,0.0,128.0,0.000393,,,,,,,,,,,,,,,,,,,,,,,,,,,,,,,,,,,,,,,,,,,,,,,,,,,,,,,,,,,,,,,,,,,,,,
1725710447.556575,1725710447.556883,89.0,0.0,4249.102539,4251.794922,4246.282227,4292.820313,4219.615234,4249.487305,4311.282227,4213.717773,4230.897461,4203.461426,4546.282227,4490.512695,4383.589844,4443.846191,0.0,1.0,15.0,,,,0.0,4.0,4.0,4.0,4.0,4.0,4.0,4.0,4.0,4.0,4.0,4.0,4.0,4.0,4.0,100.0,,,,,,,,,,,,,,,,,,,,,,,,,,,,,,,,,,,,,,,,,,,,,,,,,,,,,,,,,,,,,,,,,,,,,,,,,,,,,,,,,,,,,,,,,,,,,,,,,,,,,,,,,,,,,,,,,,,,,,,,,,,,,,,,,,,
1725710447.560479,1725710447.560887,90.0,0.0,4248.974121,4250.897461,4246.794922,4295.0,4218.461426,4250.0,4309.743652,4212.05127,4229.487305,4201.666504,4549.615234,4490.512695,4380.769043,4442.179688,0.0,1.0,15.0,,,,0.0,4.0,4.0,4.0,4.0,4.0,4.0,4.0,4.0,4.0,4.0,4.0,4.0,4.0,4.0,100.0,,,,,,,,,,,,,,,,,,,,,,,,,,,,,,,,,,,,,,,,,,,,,,,,,,,,,,,,,,,,,,,,,,,,,,,,,,,,,,,,,,,,,,,,,,,,,,,,,,,,,,,,,,,,,,,,,,,,,,,,,,,,,,,,,,,
1725710447.564383,1725710447.564791,91.0,0.0,4249.102539,4252.563965,4248.205078,4296.922852,4217.820313,4250.0,4309.487305,4211.538574,4229.615234,4200.641113,4551.282227,4492.563965,4378.077148,4441.538574,0.0,1.0,15.0,,,,0.0,4.0,4.0,4.0,4.0,4.0,4.0,4.0,4.0,4.0,4.0,4.0,4.0,4.0,4.0,100.0,,,,,,,,,,,,,,,,,,,,,,,,,,,,,,,,,,,,,,,,,,,,,,,,,,,,,,,,,,,,,,,,,,,,,,,,,,,,,,,,,,,,,,,,,,,,,,,,,,,,,,,,,,,,,,,,,,,,,,,,,,,,,,,,,,,
1725710447.568287,1725710447.568695,92.0,0.0,4249.102539,4255.897461,4249.743652,4297.436035,4218.333496,4249.487305,4309.358887,4212.307617,4231.282227,4201.153809,4549.230957,4495.0,4377.179688,4442.692383,0.0,1.0,15.0,,,,0.0,4.0,4.0,4.0,4.0,4.0,4.0,4.0,4.0,4.0,4.0,4.0,4.0,4.0,4.0,100.0,,,,,,,,,,,,,,,,,,,,,,,,,,,,,,,,,,,,,,,,,,,,,,,,,,,,,,,,,,,,,,,,,,,,,,,,,,,,,,,,,,,,,,,,,,,,,,,,,,,,,,,,,,,,,,,,,,,,,,,,,,,,,,,,,,,
1725710447.572191,1725710447.572599,93.0,0.0,4249.230957,4259.615234,4250.384766,4296.282227,4219.230957,4248.846191,4308.333496,4214.230957,4233.589844,4203.205078,4544.230957,4495.641113,4378.205078,4443.974121,0.0,1.0,15.0,,,,0.0,4.0,4.0,4.0,4.0,4.0,4.0,4.0,4.0,4.0,4.0,4.0,4.0,4.0,4.0,100.0,,,,,,,,,,,,,,,,,,,,,,,,,,,,,,,,,,,,,,,,,,,,,,,,,,,,,,,,,,,,,,,,,,,,,,,,,,,,,,,,,,,,,,,,,,,,,,,,,,,,,,,,,,,,,,,,,,,,,,,,,,,,,,,,,,,
1725710447.576095,1725710447.576503,94.0,0.0,4249.358887,4262.563965,4250.384766,4294.615234,4219.358887,4248.205078,4306.153809,4216.153809,4234.871582,4205.256348,4539.230957,4493.717773,4379.871582,4443.717773,0.0,1.0,15.0,,,,0.0,4.0,4.0,4.0,4.0,4.0,4.0,4.0,4.0,4.0,4.0,4.0,4.0,4.0,4.0,100.0,,,,,,,,,,,,,,,,,,,,,,,,,,,,,,,,,,,,,,,,,,,,,,,,,,,,,,,,,,,,,,,,,,,,,,,,,,,,,,,,,,,,,,,,,,,,,,,,,,,,,,,,,,,,,,,,,,,,,,,,,,,,,,,,,,,
1725710447.579999,1725710447.580308,95.0,0.0,4249.358887,4263.846191,4250.0,4293.846191,4218.461426,4247.563965,4303.589844,4216.666504,4234.871582,4206.025879,4536.153809,4490.384766,4380.897461,4441.410156,0.0,1.0,15.0,,,,0.0,4.0,4.0,4.0,4.0,4.0,4.0,4.0,4.0,4.0,4.0,4.0,4.0,4.0,4.0,100.0,,,,,,,,,,,,,,,,,,,,,,,,,,,,,,,,,,,,,,,,,,,,,,,,,,,,,,,,,,,,,,,,,,,,,,,,,,,,,,,,,,,,,,,,,,,,,,,,,,,,,,,,,,,,,,,,,,,,,,,,,,,,,,,,,,,
1725710447.583903,1725710447.584212,96.0,0.0,4248.846191,4262.94873,4249.358887,4294.230957,4216.922852,4246.922852,4301.666504,4214.615234,4233.846191,4204.871582,4535.769043,4487.820313,4381.025879,4437.94873,0.0,1.0,15.0,,,,0.0,4.0,4.0,4.0,4.0,4.0,4.0,4.0,4.0,4.0,4.0,4.0,4.0,4.0,4.0,100.0,,,,,,,,,,,,,,,,,,,,,,,,,,,,,,,,,,,,,,,,,,,,,,,,,,,,,,,,0.0,0.0,1.0,0.0,128.0,0.000393,,,,,,,,,,,,,,,,,,,,,,,,,,,,,,,,,,,,,,,,,,,,,,,,,,,,,,,,,,,,,,,,,,,,,,
1725710447.587807,1725710447.588116,97.0,0.0,4247.692383,4259.743652,4248.717773,4294.487305,4216.025879,4246.410156,4301.153809,4210.384766,4232.692383,4202.563965,4536.538574,4487.179688,4381.153809,4434.487305,0.0,1.0,15.0,,,,0.0,4.0,4.0,4.0,4.0,4.0,4.0,4.0,4.0,4.0,4.0,4.0,4.0,4.0,4.0,100.0,,,,,,,,,,,,,,,,,,,,,,,,,,,,,,,,,,,,,,,,,,,,,,,,,,,,,,,,,,,,,,,,,,,,,,,,,,,,,,,,,,,,,,,,,,,,,,,,,,,,,,,,,,,,,,,,,,,,,,,,,,,,,,,,,,,
1725710447.591711,1725710447.59192,98.0,0.0,4246.025879,4255.128418,4247.563965,4293.333496,4216.410156,4246.153809,4302.05127,4206.153809,4231.922852,4200.256348,4536.922852,4487.820313,4381.794922,4431.666504,0.0,1.0,15.0,,,,0.0,4.0,4.0,4.0,4.0,4.0,4.0,4.0,4.0,4.0,4.0,4.0,4.0,4.0,4.0,100.0,,,,,,,,,,,,,,,,,,,,,,,,,,,,,,,,,,,,,,,,,,,,,,,,,,,,,,,,,,,,,,,,,,,,,,,,,,,,,,,,,,,,,,,,,,,,,,,,,,,,,,,,,,,,,,,,,,,,,,,,,,,,,,,,,,,
1725710447.595616,1725710447.595824,99.0,0.0,4244.487305,4250.512695,4246.410156,4291.025879,4217.820313,4246.538574,4303.205078,4204.230957,4231.666504,4199.102539,4535.897461,4488.077148,4382.563965,4430.128418,0.0,1.0,15.0,,,,0.0,4.0,4.0,4.0,4.0,4.0,4.0,4.0,4.0,4.0,4.0,4.0,4.0,4.0,4.0,100.0,,,,,,,,,,,,,,,,,,,,,,,,,,,,,,,,,,,,,,,,,,,,,,,,,,,,,,,,,,,,,,,,,,,,,,,,,,,,,,,,,,,,,,,,,,,,,,,,,,,,,,,,,,,,,,,,,,,,,,,,,,,,,,,,,,,
1725710447.59952,1725710447.599728,100.0,0.0,4243.717773,4247.563965,4245.512695,4288.846191,4218.846191,4247.179688,4304.487305,4205.256348,4231.922852,4199.230957,4534.230957,4487.436035,4381.538574,4430.0,0.0,1.0,15.0,,,,0.0,4.0,4.0,4.0,4.0,4.0,4.0,4.0,4.0,4.0,4.0,4.0,4.0,4.0,4.0,100.0,,,,,,,,,,,,,,,,,,,,,,,,,,,,,,,,,,,,,,,,,,,,,,,,,,,,,,,,,,,,,,,,,,,,,,,,,,,,,,,,,,,,,,,,,,,,,,,,,,,,,,,,,,,,,,,,,,,,,,,,,,,,,,,,,,,
1725710447.603424,1725710447.603732,101.0,0.0,4244.358887,4247.563965,4245.769043,4288.461426,4218.717773,4248.077148,4306.153809,4208.461426,4232.820313,4200.384766,4533.589844,4487.307617,4378.589844,4431.922852,0.0,1.0,15.0,,,,0.0,4.0,4.0,4.0,4.0,4.0,4.0,4.0,4.0,4.0,4.0,4.0,4.0,4.0,4.0,100.0,,,,,,,,,,,,,,,,,,,,,,,,,,,,,,,,,,,,,,,,,,,,,,,,,,,,,,,,,,,,,,,,,,,,,,,,,,,,,,,,,,,,,,,,,,,,,,,,,,,,,,,,,,,,,,,,,,,,,,,,,,,,,,,,,,,
1725710447.607328,1725710447.607636,102.0,0.0,4246.282227,4250.128418,4247.05127,4290.384766,4217.563965,4248.461426,4308.077148,4212.307617,4234.102539,4201.922852,4534.871582,4489.230957,4374.615234,4435.769043,0.0,1.0,15.0,,,,0.0,4.0,4.0,4.0,4.0,4.0,4.0,4.0,4.0,4.0,4.0,4.0,4.0,4.0,4.0,100.0,,,,,,,,,,,,,,,,,,,,,,,,,,,,,,,,,,,,,,,,,,,,,,,,,,,,,,,,,,,,,,,,,,,,,,,,,,,,,,,,,,,,,,,,,,,,,,,,,,,,,,,,,,,,,,,,,,,,,,,,,,,,,,,,,,,
1725710447.611232,1725710447.61154,103.0,0.0,4248.077148,4252.820313,4248.589844,4293.205078,4216.153809,4248.333496,4309.102539,4215.769043,4235.256348,4202.94873,4536.922852,4494.230957,4372.436035,4440.512695,0.0,1.0,15.0,,,,0.0,4.0,4.0,4.0,4.0,4.0,4.0,4.0,4.0,4.0,4.0,4.0,4.0,4.0,4.0,100.0,,,,,,,,,,,,,,,,,,,,,,,,,,,,,,,,,,,,,,,,,,,,,,,,,,,,,,,,,,,,,,,,,,,,,,,,,,,,,,,,,,,,,,,,,,,,,,,,,,,,,,,,,,,,,,,,,,,,,,,,,,,,,,,,,,,
1725710447.615136,1725710447.615444,104.0,0.0,4248.974121,4253.077148,4249.487305,4295.128418,4215.256348,4247.94873,4307.563965,4218.846191,4235.769043,4203.205078,4537.94873,4501.153809,4373.461426,4444.230957,0.0,1.0,15.0,,,,0.0,4.0,4.0,4.0,4.0,4.0,4.0,4.0,4.0,4.0,4.0,4.0,4.0,4.0,4.0,100.0,,,,,,,,,,,,,,,,,,,,,,,,,,,,,,,,,,,,,,,,,,,,,,,,,,,,,,,,0.0,0.0,1.0,0.0,128.0,0.000393,,,,,,,,,,,,,,,,,,,,,,,,,,,,,,,,,,,,,,,,,,,,,,,,,,,,,,,,,,,,,,,,,,,,,,
1725710447.61904,1725710447.619448,105.0,0.0,4248.717773,4250.256348,4249.230957,4295.0,4215.256348,4247.820313,4303.461426,4222.179688,4235.769043,4202.94873,4537.563965,4507.05127,4376.538574,4445.512695,0.0,1.0,15.0,,,,0.0,4.0,4.0,4.0,4.0,4.0,4.0,4.0,4.0,4.0,4.0,4.0,4.0,4.0,4.0,100.0,,,,,,,,,,,,,,,,,,,,,,,,,,,,,,,,,,,,,,,,,,,,,,,,,,,,,,,,,,,,,,,,,,,,,,,,,,,,,,,,,,,,,,,,,,,,,,,,,,,,,,,,,,,,,,,,,,,,,,,,,,,,,,,,,,,
1725710447.622944,1725710447.623353,106.0,0.0,4247.563965,4246.282227,4248.589844,4293.717773,4215.769043,4248.077148,4298.589844,4226.410156,4235.769043,4202.820313,4537.307617,4509.615234,4378.974121,4445.0,0.0,1.0,15.0,,,,0.0,4.0,4.0,4.0,4.0,4.0,4.0,4.0,4.0,4.0,4.0,4.0,4.0,4.0,4.0,100.0,,,,,,,,,,,,,,,,,,,,,,,,,,,,,,,,,,,,,,,,,,,,,,,,,,,,,,,,,,,,,,,,,,,,,,,,,,,,,,,,,,,,,,,,,,,,,,,,,,,,,,,,,,,,,,,,,,,,,,,,,,,,,,,,,,,
1725710447.626848,1725710447.627257,107.0,0.0,4246.666504,4244.743652,4248.717773,4292.94873,4216.025879,4248.717773,4295.769043,4231.666504,4236.666504,4202.94873,4538.974121,4508.717773,4379.102539,4444.358887,0.0,1.0,15.0,,,,0.0,4.0,4.0,4.0,4.0,4.0,4.0,4.0,4.0,4.0,4.0,4.0,4.0,4.0,4.0,100.0,,,,,,,,,,,,,,,,,,,,,,,,,,,,,,,,,,,,,,,,,,,,,,,,,,,,,,,,,,,,,,,,,,,,,,,,,,,,,,,,,,,,,,,,,,,,,,,,,,,,,,,,,,,,,,,,,,,,,,,,,,,,,,,,,,,
1725710447.630752,1725710447.631261,108.0,0.0,4246.410156,4247.692383,4249.743652,4293.717773,4215.769043,4249.358887,4297.179688,4236.153809,4239.102539,4203.974121,4543.077148,4507.179688,4378.077148,4445.897461,0.0,1.0,15.0,,,,0.0,4.0,4.0,4.0,4.0,4.0,4.0,4.0,4.0,4.0,4.0,4.0,4.0,4.0,4.0,100.0,,,,,,,,,,,,,,,,,,,,,,,,,,,,,,,,,,,,,,,,,,,,,,,,,,,,,,,,,,,,,,,,,,,,,,,,,,,,,,,,,,,,,,,,,,,,,,,,,,,,,,,,,,,,,,,,,,,,,,,,,,,,,,,,,,,
1725710447.634657,1725710447.635165,109.0,0.0,4247.179688,4254.230957,4250.641113,4295.641113,4215.128418,4249.743652,4302.307617,4238.077148,4242.563965,4206.538574,4549.358887,4507.692383,4379.102539,4450.0,0.0,1.0,15.0,,,,0.0,4.0,4.0,4.0,4.0,4.0,4.0,4.0,4.0,4.0,4.0,4.0,4.0,4.0,4.0,100.0,,,,,,,,,,,,,,,,,,,,,,,,,,,,,,,,,,,,,,,,,,,,,,,,,,,,,,,,,,,,,,,,,,,,,,,,,,,,,,,,,,,,,,,,,,,,,,,,,,,,,,,,,,,,,,,,,,,,,,,,,,,,,,,,,,,
1725710447.638561,1725710447.639069,110.0,0.0,4249.102539,4261.153809,4250.512695,4297.179688,4214.743652,4250.0,4308.974121,4236.666504,4246.025879,4210.641113,4555.769043,4510.897461,4383.717773,4455.512695,0.0,1.0,15.0,,,,0.0,4.0,4.0,4.0,4.0,4.0,4.0,4.0,4.0,4.0,4.0,4.0,4.0,4.0,4.0,100.0,,,,,,,,,,,,,,,,,,,,,,,,,,,,,,,,,,,,,,,,,,,,,,,,,,,,,,,,,,,,,,,,,,,,,,,,,,,,,,,,,,,,,,,,,,,,,,,,,,,,,,,,,,,,,,,,,,,,,,,,,,,,,,,,,,,
1725710447.642465,1725710447.642973,111.0,0.0,4252.05127,4266.025879,4249.358887,4297.307617,4215.256348,4250.384766,4314.102539,4233.717773,4248.717773,4214.743652,4559.358887,4514.743652,4390.384766,4460.128418,0.0,1.0,15.0,,,,0.0,4.0,4.0,4.0,4.0,4.0,4.0,4.0,4.0,4.0,4.0,4.0,4.0,4.0,4.0,100.0,,,,,,,,,,,,,,,,,,,,,,,,,,,,,,,,,,,,,,,,,,,,,,,,,,,,,,,,,,,,,,,,,,,,,,,,,,,,,,,,,,,,,,,,,,,,,,,,,,,,,,,,,,,,,,,,,,,,,,,,,,,,,,,,,,,
1725710447.646369,1725710447.646877,112.0,0.0,4255.384766,4267.436035,4248.589844,4296.153809,4216.538574,4251.025879,4316.282227,4231.922852,4250.384766,4216.410156,4557.436035,4516.922852,4395.128418,4462.05127,0.0,1.0,15.0,,,,0.0,4.0,4.0,4.0,4.0,4.0,4.0,4.0,4.0,4.0,4.0,4.0,4.0,4.0,4.0,100.0,,,,,,,,,,,,,,,,,1.0,0.0,0.0,,,,,,,,,,,,,,,,,,,,,,,,,,,,,,,,,,,,,0.0,0.0,1.0,0.0,1.0,0.0,1.650549,0.486177,0.338678,0.11327,0.067364,1.204474,0.704436,0.247786,0.227064,0.066835,1.480283,0.389295,0.149578,0.070989,0.039788,1.251477,0.770217,0.307058,0.207884,0.134615,0.742966,0.263216,0.118758,0.052194,0.055063,0.198819,0.310141,0.122236,0.042507,0.025536,5.389254,2.212786,0.563453,0.501056,0.19816,1.592779,2.723592,1.181517,0.210928,0.128384,1.456353,1.405564,0.944893,0.202919,0.123853,1.1604,0.965148,0.7692,0.262357,0.207835,2.957788,0.821806,1.280285,0.418737,0.404018,3.664824,1.066526,0.875861,0.307027,0.175111,2.682159,1.189502,0.923745,0.48759,0.137814,2.643325,1.004001,0.548979,0.225123,0.113843
1725710447.650273,1725710447.650881,113.0,0.0,4258.461426,4265.641113,4249.487305,4295.128418,4217.94873,4251.410156,4315.641113,4232.05127,4250.641113,4213.974121,4550.128418,4516.538574,4394.871582,4460.897461,0.0,1.0,15.0,,,,0.0,4.0,4.0,4.0,4.0,4.0,4.0,4.0,4.0,4.0,4.0,4.0,4.0,4.0,4.0,100.0,,,,,,,,,,,,,,,,,,,,,,,,,,,,,,,,,,,,,,,,,,,,,,,,,,,,,,,,,,,,,,,,,,,,,,,,,,,,,,,,,,,,,,,,,,,,,,,,,,,,,,,,,,,,,,,,,,,,,,,,,,,,,,,,,,,
1725710447.654177,1725710447.654785,114.0,0.0,4260.128418,4262.05127,4252.307617,4295.512695,4218.846191,4251.282227,4313.461426,4232.436035,4248.974121,4208.461426,4542.05127,4514.358887,4389.743652,4457.94873,0.0,1.0,15.0,,,,0.0,4.0,4.0,4.0,4.0,4.0,4.0,4.0,4.0,4.0,4.0,4.0,4.0,4.0,4.0,100.0,,,,,,,,,,,,,,,,,,,,,,,,,,,,,,,,,,,,,,,,,,,,,,,,,,,,,,,,,,,,,,,,,,,,,,,,,,,,,,,,,,,,,,,,,,,,,,,,,,,,,,,,,,,,,,,,,,,,,,,,,,,,,,,,,,,
1725710447.658081,1725710447.658689,115.0,0.0,4260.128418,4258.589844,4256.282227,4297.05127,4219.102539,4250.641113,4311.538574,4230.769043,4245.641113,4203.077148,4538.461426,4512.307617,4382.94873,4454.487305,0.0,1.0,15.0,,,,0.0,4.0,4.0,4.0,4.0,4.0,4.0,4.0,4.0,4.0,4.0,4.0,4.0,4.0,4.0,100.0,,,,,,,,,,,,,,,,,,,,,,,,,,,,,,,,,,,,,,,,,,,,,,,,,,,,,,,,,,,,,,,,,,,,,,,,,,,,,,,,,,,,,,,,,,,,,,,,,,,,,,,,,,,,,,,,,,,,,,,,,,,,,,,,,,,
1725710447.661985,1725710447.662593,116.0,0.0,4259.487305,4257.05127,4260.0,4298.205078,4219.230957,4250.384766,4310.512695,4226.922852,4241.538574,4200.641113,4542.05127,4511.153809,4378.077148,4451.282227,0.0,1.0,15.0,,,,0.0,4.0,4.0,4.0,4.0,4.0,4.0,4.0,4.0,4.0,4.0,4.0,4.0,4.0,4.0,100.0,,,,,,,,,,,,,,,,,,,,,,,,,,,,,,,,,,,,,,,,,,,,,,,,,,,,,,,,,,,,,,,,,,,,,,,,,,,,,,,,,,,,,,,,,,,,,,,,,,,,,,,,,,,,,,,,,,,,,,,,,,,,,,,,,,,
1725710447.665889,1725710447.666398,117.0,0.0,4259.230957,4257.94873,4262.179688,4297.692383,4219.358887,4251.025879,4310.0,4222.307617,4237.563965,4202.179688,4549.487305,4510.897461,4376.794922,4448.717773,0.0,1.0,15.0,,,,0.0,4.0,4.0,4.0,4.0,4.0,4.0,4.0,4.0,4.0,4.0,4.0,4.0,4.0,4.0,100.0,,,,,,,,,,,,,,,,,,,,,,,,,,,,,,,,,,,,,,,,,,,,,,,,,,,,,,,,,,,,,,,,,,,,,,,,,,,,,,,,,,,,,,,,,,,,,,,,,,,,,,,,,,,,,,,,,,,,,,,,,,,,,,,,,,,
1725710447.669793,1725710447.670302,118.0,0.0,4260.0,4260.256348,4262.692383,4295.769043,4219.743652,4252.563965,4309.230957,4218.589844,4234.743652,4205.769043,4553.974121,4510.384766,4378.589844,4447.179688,0.0,1.0,15.0,,,,0.0,4.0,4.0,4.0,4.0,4.0,4.0,4.0,4.0,4.0,4.0,4.0,4.0,4.0,4.0,100.0,,,,,,,,,,,,,,,,,,,,,,,,,,,,,,,,,,,,,,,,,,,,,,,,,,,,,,,,,,,,,,,,,,,,,,,,,,,,,,,,,,,,,,,,,,,,,,,,,,,,,,,,,,,,,,,,,,,,,,,,,,,,,,,,,,,
1725710447.673698,1725710447.674206,119.0,0.0,4260.384766,4261.410156,4261.922852,4294.230957,4220.0,4254.102539,4307.307617,4216.538574,4233.589844,4207.820313,4550.769043,4508.717773,4381.025879,4447.307617,0.0,1.0,15.0,,,,0.0,4.0,4.0,4.0,4.0,4.0,4.0,4.0,4.0,4.0,4.0,4.0,4.0,4.0,4.0,100.0,,,,,,,,,,,,,,,,,,,,,,,,,,,,,,,,,,,,,,,,,,,,,,,,,,,,,,,,,,,,,,,,,,,,,,,,,,,,,,,,,,,,,,,,,,,,,,,,,,,,,,,,,,,,,,,,,,,,,,,,,,,,,,,,,,,
1725710447.677602,1725710447.67821,120.0,0.0,4258.974121,4259.487305,4260.769043,4294.615234,4219.871582,4255.256348,4305.0,4216.025879,4233.461426,4205.897461,4541.538574,4506.666504,4382.563965,4448.846191,0.0,1.0,15.0,,,,0.0,4.0,4.0,4.0,4.0,4.0,4.0,4.0,4.0,4.0,4.0,4.0,4.0,4.0,4.0,100.0,,,,,,,,,,,,,,,,,,,,,,,,,,,,,,,,,,,,,,,,,,,,,,,,,,,,,,,,0.0,0.0,1.0,0.0,1.0,0.0,,,,,,,,,,,,,,,,,,,,,,,,,,,,,,,,,,,,,,,,,,,,,,,,,,,,,,,,,,,,,,,,,,,,,,
1725710447.681506,1725710447.682114,121.0,0.0,4255.641113,4255.0,4259.871582,4297.05127,4219.230957,4256.410156,4303.205078,4217.179688,4233.461426,4201.410156,4532.692383,4505.0,4382.94873,4450.128418,0.0,1.0,15.0,,,,0.0,4.0,4.0,4.0,4.0,4.0,4.0,4.0,4.0,4.0,4.0,4.0,4.0,4.0,4.0,100.0,,,,,,,,,,,,,,,,,,,,,,,,,,,,,,,,,,,,,,,,,,,,,,,,,,,,,,,,,,,,,,,,,,,,,,,,,,,,,,,,,,,,,,,,,,,,,,,,,,,,,,,,,,,,,,,,,,,,,,,,,,,,,,,,,,,
1725710447.68541,1725710447.686018,122.0,0.0,4252.05127,4250.641113,4260.0,4299.871582,4218.205078,4257.94873,4302.692383,4220.0,4233.461426,4198.205078,4531.410156,4504.743652,4382.692383,4449.615234,0.0,1.0,15.0,,,,0.0,4.0,4.0,4.0,4.0,4.0,4.0,4.0,4.0,4.0,4.0,4.0,4.0,4.0,4.0,100.0,,,,,,,,,,,,,,,,,,,,,,,,,,,,,,,,,,,,,,,,,,,,,,,,,,,,,,,,,,,,,,,,,,,,,,,,,,,,,,,,,,,,,,,,,,,,,,,,,,,,,,,,,,,,,,,,,,,,,,,,,,,,,,,,,,,
1725710447.689314,1725710447.689922,123.0,0.0,4250.128418,4248.974121,4261.025879,4301.538574,4216.922852,4260.256348,4303.077148,4224.230957,4233.717773,4199.487305,4539.102539,4505.897461,4382.179688,4447.05127,0.0,1.0,15.0,,,,0.0,4.0,4.0,4.0,4.0,4.0,4.0,4.0,4.0,4.0,4.0,4.0,4.0,4.0,4.0,100.0,,,,,,,,,,,,,,,,,,,,,,,,,,,,,,,,,,,,,,,,,,,,,,,,,,,,,,,,,,,,,,,,,,,,,,,,,,,,,,,,,,,,,,,,,,,,,,,,,,,,,,,,,,,,,,,,,,,,,,,,,,,,,,,,,,,
1725710447.693218,1725710447.693826,124.0,0.0,4250.641113,4251.153809,4261.666504,4301.282227,4216.153809,4262.179688,4303.717773,4228.974121,4235.0,4204.743652,4550.641113,4507.820313,4381.410156,4444.102539,0.0,1.0,15.0,,,,0.0,4.0,4.0,4.0,4.0,4.0,4.0,4.0,4.0,4.0,4.0,4.0,4.0,4.0,4.0,100.0,,,,,,,,,,,,,,,,,,,,,,,,,,,,,,,,,,,,,,,,,,,,,,,,,,,,,,,,,,,,,,,,,,,,,,,,,,,,,,,,,,,,,,,,,,,,,,,,,,,,,,,,,,,,,,,,,,,,,,,,,,,,,,,,,,,
1725710447.697122,1725710447.69763,125.0,0.0,4252.820313,4255.641113,4261.025879,4299.358887,4216.410156,4262.307617,4303.717773,4232.563965,4237.563965,4209.871582,4557.94873,4509.358887,4380.256348,4443.205078,0.0,1.0,15.0,,,,0.0,4.0,4.0,4.0,4.0,4.0,4.0,4.0,4.0,4.0,4.0,4.0,4.0,4.0,4.0,100.0,,,,,,,,,,,,,,,,,,,,,,,,,,,,,,,,,,,,,,,,,,,,,,,,,,,,,,,,,,,,,,,,,,,,,,,,,,,,,,,,,,,,,,,,,,,,,,,,,,,,,,,,,,,,,,,,,,,,,,,,,,,,,,,,,,,
1725710447.701026,1725710447.701535,126.0,0.0,4254.487305,4259.358887,4258.333496,4296.794922,4217.307617,4260.0,4302.692383,4234.358887,4240.641113,4211.410156,4556.025879,4510.0,4379.615234,4445.256348,0.0,1.0,15.0,,,,0.0,4.0,4.0,4.0,4.0,4.0,4.0,4.0,4.0,4.0,4.0,4.0,4.0,4.0,4.0,100.0,,,,,,,,,,,,,,,,,,,,,,,,,,,,,,,,,,,,,,,,,,,,,,,,,,,,,,,,,,,,,,,,,,,,,,,,,,,,,,,,,,,,,,,,,,,,,,,,,,,,,,,,,,,,,,,,,,,,,,,,,,,,,,,,,,,
1725710447.70493,1725710447.705439,127.0,0.0,4253.846191,4259.487305,4254.358887,4295.0,4218.205078,4255.897461,4300.512695,4234.230957,4243.717773,4209.102539,4546.666504,4509.743652,4380.384766,4448.589844,0.0,1.0,15.0,,,,0.0,4.0,4.0,4.0,4.0,4.0,4.0,4.0,4.0,4.0,4.0,4.0,4.0,4.0,4.0,100.0,,,,,,,,,,,,,,,,,,,,,,,,,,,,,,,,,,,,,,,,,,,,,,,,,,,,,,,,,,,,,,,,,,,,,,,,,,,,,,,,,,,,,,,,,,,,,,,,,,,,,,,,,,,,,,,,,,,,,,,,,,,,,,,,,,,
1725710447.708835,1725710447.709443,128.0,0.0,4251.025879,4255.512695,4250.128418,4295.0,4218.205078,4252.05127,4298.077148,4233.461426,4245.897461,4206.282227,4537.436035,4508.974121,4382.307617,4451.025879,2705.0,1.0,15.0,,,,0.0,4.0,4.0,4.0,4.0,4.0,4.0,4.0,4.0,4.0,4.0,4.0,4.0,4.0,4.0,100.0,,,,,,,,,,,,,,,,,,,,,,,,,,,,,,,,,,,,,,,,,,,,,,,,,,,,,,,,0.0,0.0,1.0,0.0,1.0,0.0,,,,,,,,,,,,,,,,,,,,,,,,,,,,,,,,,,,,,,,,,,,,,,,,,,,,,,,,,,,,,,,,,,,,,,
1725710447.712739,1725710447.713347,129.0,0.0,4247.94873,4250.128418,4247.179688,4295.897461,4217.179688,4250.128418,4296.025879,4233.974121,4247.436035,4206.410156,4535.128418,4508.205078,4383.589844,4450.512695,2588.0,1.0,15.0,,,,0.0,4.0,4.0,4.0,4.0,4.0,4.0,4.0,4.0,4.0,4.0,4.0,4.0,4.0,4.0,100.0,,,,,,,,,,,,,,,,,,,,,,,,,,,,,,,,,,,,,,,,,,,,,,,,,,,,,,,,,,,,,,,,,,,,,,,,,,,,,,,,,,,,,,,,,,,,,,,,,,,,,,,,,,,,,,,,,,,,,,,,,,,,,,,,,,,
1725710447.716643,1725710447.717251,130.0,0.0,4246.538574,4246.666504,4246.410156,4296.282227,4215.769043,4250.384766,4295.128418,4236.922852,4248.717773,4210.384766,4540.512695,4508.333496,4382.692383,4447.692383,2513.0,1.0,15.0,,,,0.0,4.0,4.0,4.0,4.0,4.0,4.0,4.0,4.0,4.0,4.0,4.0,4.0,4.0,4.0,100.0,,,,,,,,,,,,,,,,,,,,,,,,,,,,,,,,,,,,,,,,,,,,,,,,,,,,,,,,,,,,,,,,,,,,,,,,,,,,,,,,,,,,,,,,,,,,,,,,,,,,,,,,,,,,,,,,,,,,,,,,,,,,,,,,,,,
1725710447.720547,1725710447.721155,131.0,0.0,4247.179688,4246.282227,4247.307617,4294.615234,4214.871582,4251.282227,4295.128418,4241.922852,4250.0,4215.769043,4549.102539,4509.871582,4380.256348,4445.0,2483.0,1.0,15.0,,,,0.0,4.0,4.0,4.0,4.0,4.0,4.0,4.0,4.0,4.0,4.0,4.0,4.0,4.0,4.0,100.0,,,,,,,,,,,,,,,,,,,,,,,,,,,,,,,,,,,,,,,,,,,,,,,,,,,,,,,,,,,,,,,,,,,,,,,,,,,,,,,,,,,,,,,,,,,,,,,,,,,,,,,,,,,,,,,,,,,,,,,,,,,,,,,,,,,
1725710447.724451,1725710447.725159,132.0,0.0,4248.846191,4247.563965,4248.589844,4290.897461,4214.743652,4251.538574,4295.384766,4246.282227,4251.025879,4219.102539,4555.897461,4512.436035,4378.333496,4444.230957,2453.0,1.0,15.0,,,,0.0,4.0,4.0,4.0,4.0,4.0,4.0,4.0,4.0,4.0,4.0,4.0,4.0,4.0,4.0,100.0,,,,,,,,,,,,,,,,,,,,,,,,,,,,,,,,,,,,,,,,,,,,,,,,,,,,,,,,,,,,,,,,,,,,,,,,,,,,,,,,,,,,,,,,,,,,,,,,,,,,,,,,,,,,,,,,,,,,,,,,,,,,,,,,,,,
1725710447.728355,1725710447.729063,133.0,0.0,4250.128418,4248.589844,4249.358887,4287.179688,4215.0,4250.897461,4295.384766,4247.436035,4251.153809,4219.102539,4558.461426,4514.615234,4378.717773,4445.769043,2411.0,1.0,15.0,,,,0.0,4.0,4.0,4.0,4.0,4.0,4.0,4.0,4.0,4.0,4.0,4.0,4.0,4.0,4.0,100.0,,,,,,,,,,,,,,,,,,,,,,,,,,,,,,,,,,,,,,,,,,,,,,,,,,,,,,,,,,,,,,,,,,,,,,,,,,,,,,,,,,,,,,,,,,,,,,,,,,,,,,,,,,,,,,,,,,,,,,,,,,,,,,,,,,,
1725710447.732259,1725710447.732967,134.0,0.0,4250.256348,4248.461426,4249.358887,4286.025879,4215.384766,4250.0,4294.871582,4245.128418,4250.512695,4216.538574,4557.94873,4515.0,4381.538574,4448.589844,2449.0,1.0,15.0,,,,0.0,4.0,4.0,4.0,4.0,4.0,4.0,4.0,4.0,4.0,4.0,4.0,4.0,4.0,4.0,100.0,,,,,,,,,,,,,,,,,,,,,,,,,,,,,,,,,,,,,,,,,,,,,,,,,,,,,,,,,,,,,,,,,,,,,,,,,,,,,,,,,,,,,,,,,,,,,,,,,,,,,,,,,,,,,,,,,,,,,,,,,,,,,,,,,,,
1725710447.736163,1725710447.736971,135.0,0.0,4249.487305,4248.077148,4249.230957,4288.205078,4215.256348,4250.0,4294.358887,4241.410156,4249.358887,4213.589844,4555.512695,4513.205078,4385.384766,4450.641113,2486.0,1.0,15.0,,,,0.0,4.0,4.0,4.0,4.0,4.0,4.0,4.0,4.0,4.0,4.0,4.0,4.0,4.0,4.0,100.0,,,,,,,,,,,,,,,,,,,,,,,,,,,,,,,,,,,,,,,,,,,,,,,,,,,,,,,,,,,,,,,,,,,,,,,,,,,,,,,,,,,,,,,,,,,,,,,,,,,,,,,,,,,,,,,,,,,,,,,,,,,,,,,,,,,
1725710447.740067,1725710447.740875,136.0,0.0,4248.846191,4248.461426,4249.358887,4292.692383,4214.871582,4250.512695,4294.358887,4237.692383,4247.94873,4212.05127,4551.282227,4510.128418,4388.333496,4451.025879,2474.0,1.0,15.0,,,,0.0,4.0,4.0,4.0,4.0,4.0,4.0,4.0,4.0,4.0,4.0,4.0,4.0,4.0,4.0,100.0,,,,,,,,,,,,,,,,,,,,,,,,,,,,,,,,,,,,,,,,,,,,,,,,,,,,,,,,0.0,0.0,1.0,0.0,1.0,0.0,,,,,,,,,,,,,,,,,,,,,,,,,,,,,,,,,,,,,,,,,,,,,,,,,,,,,,,,,,,,,,,,,,,,,,
1725710447.743971,1725710447.744779,137.0,0.0,4248.589844,4250.0,4249.615234,4296.794922,4214.487305,4251.282227,4295.256348,4233.974121,4247.05127,4213.205078,4545.641113,4507.179688,4389.102539,4449.615234,2560.0,1.0,15.0,,,,0.0,4.0,4.0,4.0,4.0,4.0,4.0,4.0,4.0,4.0,4.0,4.0,4.0,4.0,4.0,100.0,,,,,,,,,,,,,,,,,,,,,,,,,,,,,,,,,,,,,,,,,,,,,,,,,,,,,,,,,,,,,,,,,,,,,,,,,,,,,,,,,,,,,,,,,,,,,,,,,,,,,,,,,,,,,,,,,,,,,,,,,,,,,,,,,,,
1725710447.747876,1725710447.748684,138.0,0.0,4248.589844,4251.538574,4249.358887,4298.846191,4214.615234,4251.538574,4296.666504,4229.871582,4247.05127,4216.410156,4540.641113,4505.384766,4387.820313,4447.307617,2910.0,1.0,15.0,,,,0.0,4.0,4.0,4.0,4.0,4.0,4.0,4.0,4.0,4.0,4.0,4.0,4.0,4.0,4.0,100.0,,,,,,,,,,,,,,,,,,,,,,,,,,,,,,,,,,,,,,,,,,,,,,,,,,,,,,,,,,,,,,,,,,,,,,,,,,,,,,,,,,,,,,,,,,,,,,,,,,,,,,,,,,,,,,,,,,,,,,,,,,,,,,,,,,,
1725710447.75178,1725710447.752588,139.0,0.0,4248.333496,4251.538574,4248.461426,4298.589844,4215.128418,4252.05127,4297.94873,4226.153809,4248.333496,4219.102539,4538.717773,4505.256348,4385.384766,4445.384766,3152.0,1.0,15.0,,,,0.0,4.0,4.0,4.0,4.0,4.0,4.0,4.0,4.0,4.0,4.0,4.0,4.0,4.0,4.0,100.0,,,,,,,,,,,,,,,,,,,,,,,,,,,,,,,,,,,,,,,,,,,,,,,,,,,,,,,,,,,,,,,,,,,,,,,,,,,,,,,,,,,,,,,,,,,,,,,,,,,,,,,,,,,,,,,,,,,,,,,,,,,,,,,,,,,
1725710447.755684,1725710447.756392,140.0,0.0,4247.692383,4250.0,4247.692383,4297.563965,4215.769043,4253.717773,4298.205078,4223.589844,4249.743652,4218.846191,4540.256348,4506.282227,4383.205078,4444.871582,3426.0,1.0,15.0,,,,0.0,4.0,4.0,4.0,4.0,4.0,4.0,4.0,4.0,4.0,4.0,4.0,4.0,4.0,4.0,100.0,,,,,,,,,,,,,,,,,,,,,,,,,,,,,,,,,,,,,,,,,,,,,,,,,,,,,,,,,,,,,,,,,,,,,,,,,,,,,,,,,,,,,,,,,,,,,,,,,,,,,,,,,,,,,,,,,,,,,,,,,,,,,,,,,,,
1725710447.759588,1725710447.760296,141.0,0.0,4247.179688,4247.820313,4247.820313,4297.05127,4216.153809,4256.538574,4297.179688,4222.436035,4249.487305,4215.128418,4543.589844,4507.563965,4381.794922,4445.641113,3934.0,1.0,15.0,,,,0.0,4.0,4.0,4.0,4.0,4.0,4.0,4.0,4.0,4.0,4.0,4.0,4.0,4.0,4.0,100.0,,,,,,,,,,,,,,,,,,,,,,,,,,,,,,,,,,,,,,,,,,,,,,,,,,,,,,,,,,,,,,,,,,,,,,,,,,,,,,,,,,,,,,,,,,,,,,,,,,,,,,,,,,,,,,,,,,,,,,,,,,,,,,,,,,,
1725710447.763492,1725710447.7642,142.0,0.0,4247.179688,4246.666504,4248.717773,4297.436035,4216.153809,4259.615234,4295.0,4221.666504,4246.282227,4209.615234,4546.282227,4508.077148,4381.410156,4446.794922,2910.0,1.0,15.0,,,,0.0,4.0,4.0,4.0,4.0,4.0,4.0,4.0,4.0,4.0,4.0,4.0,4.0,4.0,4.0,100.0,,,,,,,,,,,,,,,,,,,,,,,,,,,,,,,,,,,,,,,,,,,,,,,,,,,,,,,,,,,,,,,,,,,,,,,,,,,,,,,,,,,,,,,,,,,,,,,,,,,,,,,,,,,,,,,,,,,,,,,,,,,,,,,,,,,
1725710447.767396,1725710447.768104,143.0,0.0,4247.563965,4247.307617,4249.487305,4297.94873,4216.025879,4261.025879,4293.077148,4220.256348,4240.512695,4205.0,4547.692383,4507.436035,4381.922852,4446.922852,3152.0,1.0,15.0,,,,0.0,4.0,4.0,4.0,4.0,4.0,4.0,4.0,4.0,4.0,4.0,4.0,4.0,4.0,4.0,100.0,,,,,,,,,,,,,,,,,,,,,,,,,,,,,,,,,,,,,,,,,,,,,,,,,,,,,,,,,,,,,,,,,,,,,,,,,,,,,,,,,,,,,,,,,,,,,,,,,,,,,,,,,,,,,,,,,,,,,,,,,,,,,,,,,,,
1725710447.7713,1725710447.771908,144.0,0.0,4248.717773,4249.743652,4249.487305,4297.436035,4216.153809,4260.256348,4292.563965,4218.846191,4234.743652,4203.333496,4548.205078,4505.769043,4382.692383,4445.512695,3426.0,1.0,15.0,,,,0.0,4.0,4.0,4.0,4.0,4.0,4.0,4.0,4.0,4.0,4.0,4.0,4.0,4.0,4.0,100.0,1.0,75.0,4.0,4.0,4.0,4.0,4.0,4.0,1.0,4.0,4.0,4.0,4.0,4.0,4.0,4.0,1.0,0.0,0.0,,,,,,,,,,,,,,,,,,,,,,,,,,,,,,,,,,,,,0.0,0.0,1.0,0.0,1024.0,0.0,1.443787,0.560531,0.307649,0.112087,0.072804,1.157647,0.907865,0.217819,0.195834,0.066323,1.254944,0.412435,0.14186,0.064962,0.040077,1.151198,0.833374,0.326646,0.222254,0.141191,0.686191,0.322332,0.134551,0.064956,0.054033,0.166159,0.346165,0.124235,0.051512,0.028113,5.880871,2.787312,0.711478,0.50971,0.216796,1.361474,2.283854,1.028616,0.266527,0.140704,1.283067,1.121205,0.733379,0.241637,0.13147,1.071947,0.865131,0.707267,0.297209,0.214785,2.611028,0.818859,0.988791,0.391993,0.409156,3.132901,1.003703,0.81493,0.3488,0.165213,2.581716,1.397488,0.954343,0.47775,0.1341,2.309226,1.065447,0.540012,0.229972,0.112895
1725710447.775204,1725710447.775812,145.0,0.0,4250.256348,4253.717773,4248.589844,4295.769043,4216.666504,4258.846191,4294.230957,4218.461426,4232.179688,4205.769043,4548.589844,4504.487305,4383.077148,4443.589844,3934.0,1.0,15.0,,,,0.0,4.0,4.0,4.0,4.0,4.0,4.0,4.0,4.0,4.0,4.0,4.0,4.0,4.0,4.0,100.0,,,,,,,,,,,,,,,,,,,,,,,,,,,,,,,,,,,,,,,,,,,,,,,,,,,,,,,,,,,,,,,,,,,,,,,,,,,,,,,,,,,,,,,,,,,,,,,,,,,,,,,,,,,,,,,,,,,,,,,,,,,,,,,,,,,
1725710447.779108,1725710447.779717,146.0,0.0,4251.922852,4257.820313,4247.692383,4294.487305,4217.307617,4257.94873,4296.666504,4220.384766,4234.230957,4211.410156,4548.589844,4504.871582,4382.692383,4442.436035,2910.0,1.0,15.0,,,,0.0,4.0,4.0,4.0,4.0,4.0,4.0,4.0,4.0,4.0,4.0,4.0,4.0,4.0,4.0,100.0,,,,,,,,,,,,,,,,,,,,,,,,,,,,,,,,,,,,,,,,,,,,,,,,,,,,,,,,,,,,,,,,,,,,,,,,,,,,,,,,,,,,,,,,,,,,,,,,,,,,,,,,,,,,,,,,,,,,,,,,,,,,,,,,,,,
1725710447.783013,1725710447.783621,147.0,0.0,4252.820313,4260.512695,4247.436035,4295.384766,4217.563965,4257.94873,4298.077148,4224.615234,4239.615234,4217.179688,4548.205078,4507.307617,4381.794922,4443.333496,3152.0,1.0,15.0,,,,0.0,4.0,4.0,4.0,4.0,4.0,4.0,4.0,4.0,4.0,4.0,4.0,4.0,4.0,4.0,100.0,,,,,,,,,,,,,,,,,,,,,,,,,,,,,,,,,,,,,,,,,,,,,,,,,,,,,,,,,,,,,,,,,,,,,,,,,,,,,,,,,,,,,,,,,,,,,,,,,,,,,,,,,,,,,,,,,,,,,,,,,,,,,,,,,,,
1725710447.786916,1725710447.787425,148.0,0.0,4252.436035,4260.512695,4248.205078,4298.205078,4217.436035,4257.436035,4297.692383,4229.871582,4245.641113,4220.128418,4547.436035,4510.128418,4381.282227,4446.282227,3426.0,1.0,15.0,,,,0.0,4.0,4.0,4.0,4.0,4.0,4.0,4.0,4.0,4.0,4.0,4.0,4.0,4.0,4.0,100.0,,,,,,,,,,,,,,,,,,,,,,,,,,,,,,,,,,,,,,,,,,,,,,,,,,,,,,,,,,,,,,,,,,,,,,,,,,,,,,,,,,,,,,,,,,,,,,,,,,,,,,,,,,,,,,,,,,,,,,,,,,,,,,,,,,,
1725710447.79082,1725710447.791329,149.0,0.0,4251.282227,4257.820313,4249.743652,4301.025879,4216.666504,4255.256348,4296.410156,4234.358887,4249.230957,4219.358887,4546.282227,4511.794922,4381.794922,4449.615234,3934.0,1.0,15.0,,,,0.0,4.0,4.0,4.0,4.0,4.0,4.0,4.0,4.0,4.0,4.0,4.0,4.0,4.0,4.0,100.0,,,,,,,,,,,,,,,,,,,,,,,,,,,,,,,,,,,,,,,,,,,,,,,,,,,,,,,,,,,,,,,,,,,,,,,,,,,,,,,,,,,,,,,,,,,,,,,,,,,,,,,,,,,,,,,,,,,,,,,,,,,,,,,,,,,
1725710447.794725,1725710447.795233,150.0,0.0,4250.128418,4253.589844,4250.897461,4301.538574,4215.641113,4251.538574,4296.025879,4236.538574,4249.743652,4216.282227,4545.384766,4511.538574,4383.333496,4451.538574,2910.0,1.0,15.0,,,,0.0,4.0,4.0,4.0,4.0,4.0,4.0,4.0,4.0,4.0,4.0,4.0,4.0,4.0,4.0,100.0,,,,,,,,,,,,,,,,,,,,,,,,,,,,,,,,,,,,,,,,,,,,,,,,,,,,,,,,,,,,,,,,,,,,,,,,,,,,,,,,,,,,,,,,,,,,,,,,,,,,,,,,,,,,,,,,,,,,,,,,,,,,,,,,,,,
1725710447.798629,1725710447.799137,151.0,0.0,4249.102539,4249.487305,4250.769043,4298.974121,4214.871582,4248.717773,4297.820313,4236.410156,4248.589844,4213.717773,4545.769043,4510.256348,4384.743652,4451.025879,3152.0,1.0,15.0,,,,0.0,4.0,4.0,4.0,4.0,4.0,4.0,4.0,4.0,4.0,4.0,4.0,4.0,4.0,4.0,100.0,,,,,,,,,,,,,,,,,,,,,,,,,,,,,,,,,,,,,,,,,,,,,,,,,,,,,,,,,,,,,,,,,,,,,,,,,,,,,,,,,,,,,,,,,,,,,,,,,,,,,,,,,,,,,,,,,,,,,,,,,,,,,,,,,,,
1725710447.802533,1725710447.802941,152.0,0.0,4248.333496,4246.666504,4249.487305,4294.743652,4214.358887,4248.589844,4301.153809,4235.128418,4247.94873,4213.205078,4548.333496,4510.256348,4384.871582,4448.846191,3426.0,1.0,15.0,,,,0.0,4.0,4.0,4.0,4.0,4.0,4.0,4.0,4.0,4.0,4.0,4.0,4.0,4.0,4.0,100.0,,,,,,,,,,,,,,,,,,,,,,,,,,,,,,,,,,,,,,,,,,,,,,,,,,,,,,,,0.0,0.0,1.0,0.0,1024.0,0.0,,,,,,,,,,,,,,,,,,,,,,,,,,,,,,,,,,,,,,,,,,,,,,,,,,,,,,,,,,,,,,,,,,,,,,
1725710447.806437,1725710447.806845,153.0,0.0,4247.692383,4245.769043,4247.94873,4291.410156,4214.230957,4252.05127,4303.846191,4234.615234,4248.333496,4214.487305,4551.922852,4512.563965,4383.717773,4446.922852,3934.0,1.0,15.0,,,,0.0,4.0,4.0,4.0,4.0,4.0,4.0,4.0,4.0,4.0,4.0,4.0,4.0,4.0,4.0,100.0,,,,,,,,,,,,,,,,,,,,,,,,,,,,,,,,,,,,,,,,,,,,,,,,,,,,,,,,,,,,,,,,,,,,,,,,,,,,,,,,,,,,,,,,,,,,,,,,,,,,,,,,,,,,,,,,,,,,,,,,,,,,,,,,,,,
1725710447.810341,1725710447.81075,154.0,0.0,4247.307617,4246.025879,4247.179688,4290.641113,4214.743652,4257.307617,4304.102539,4235.641113,4249.230957,4216.153809,4554.358887,4515.641113,4382.436035,4447.307617,2910.0,1.0,15.0,,,,0.0,4.0,4.0,4.0,4.0,4.0,4.0,4.0,4.0,4.0,4.0,4.0,4.0,4.0,4.0,100.0,,,,,,,,,,,,,,,,,,,,,,,,,,,,,,,,,,,,,,,,,,,,,,,,,,,,,,,,,,,,,,,,,,,,,,,,,,,,,,,,,,,,,,,,,,,,,,,,,,,,,,,,,,,,,,,,,,,,,,,,,,,,,,,,,,,
1725710447.814245,1725710447.814754,155.0,0.0,4247.307617,4246.410156,4247.692383,4292.307617,4215.641113,4262.179688,4302.05127,4237.05127,4249.358887,4216.922852,4553.717773,4516.922852,4382.179688,4449.743652,3152.0,1.0,15.0,,,,0.0,4.0,4.0,4.0,4.0,4.0,4.0,4.0,4.0,4.0,4.0,4.0,4.0,4.0,4.0,100.0,,,,,,,,,,,,,,,,,,,,,,,,,,,,,,,,,,,,,,,,,,,,,,,,,,,,,,,,,,,,,,,,,,,,,,,,,,,,,,,,,,,,,,,,,,,,,,,,,,,,,,,,,,,,,,,,,,,,,,,,,,,,,,,,,,,
1725710447.818149,1725710447.818658,156.0,0.0,4247.820313,4246.538574,4248.974121,4294.871582,4216.538574,4264.743652,4300.128418,4236.794922,4248.717773,4216.153809,4551.153809,4514.871582,4383.205078,4452.307617,3426.0,1.0,15.0,,,,0.0,4.0,4.0,4.0,4.0,4.0,4.0,4.0,4.0,4.0,4.0,4.0,4.0,4.0,4.0,100.0,,,,,,,,,,,,,,,,,,,,,,,,,,,,,,,,,,,,,,,,,,,,,,,,,,,,,,,,,,,,,,,,,,,,,,,,,,,,,,,,,,,,,,,,,,,,,,,,,,,,,,,,,,,,,,,,,,,,,,,,,,,,,,,,,,,
1725710447.822053,1725710447.822562,157.0,0.0,4248.717773,4246.282227,4250.256348,4296.666504,4217.307617,4265.128418,4300.384766,4234.358887,4247.692383,4214.358887,4549.743652,4511.410156,4384.615234,4452.563965,3934.0,1.0,15.0,,,,0.0,4.0,4.0,4.0,4.0,4.0,4.0,4.0,4.0,4.0,4.0,4.0,4.0,4.0,4.0,100.0,,,,,,,,,,,,,,,,,,,,,,,,,,,,,,,,,,,,,,,,,,,,,,,,,,,,,,,,,,,,,,,,,,,,,,,,,,,,,,,,,,,,,,,,,,,,,,,,,,,,,,,,,,,,,,,,,,,,,,,,,,,,,,,,,,,
1725710447.825957,1725710447.826466,158.0,0.0,4249.615234,4246.410156,4250.769043,4296.538574,4217.563965,4264.230957,4303.461426,4231.153809,4246.794922,4212.563965,4552.05127,4509.615234,4385.0,4450.512695,2910.0,1.0,15.0,,,,0.0,4.0,4.0,4.0,4.0,4.0,4.0,4.0,4.0,4.0,4.0,4.0,4.0,4.0,4.0,100.0,,,,,,,,,,,,,,,,,,,,,,,,,,,,,,,,,,,,,,,,,,,,,,,,,,,,,,,,,,,,,,,,,,,,,,,,,,,,,,,,,,,,,,,,,,,,,,,,,,,,,,,,,,,,,,,,,,,,,,,,,,,,,,,,,,,
1725710447.829862,1725710447.83047,159.0,0.0,4250.512695,4247.436035,4250.512695,4295.128418,4217.307617,4263.461426,4307.94873,4228.974121,4245.769043,4211.538574,4556.410156,4511.794922,4384.102539,4448.333496,3152.0,1.0,15.0,,,,0.0,4.0,4.0,4.0,4.0,4.0,4.0,4.0,4.0,4.0,4.0,4.0,4.0,4.0,4.0,100.0,,,,,,,,,,,,,,,,,,,,,,,,,,,,,,,,,,,,,,,,,,,,,,,,,,,,,,,,,,,,,,,,,,,,,,,,,,,,,,,,,,,,,,,,,,,,,,,,,,,,,,,,,,,,,,,,,,,,,,,,,,,,,,,,,,,
1725710447.833766,1725710447.834374,160.0,0.0,4251.282227,4249.358887,4249.743652,4293.717773,4216.794922,4262.692383,4311.410156,4228.589844,4244.230957,4212.307617,4558.717773,4516.666504,4382.692383,4448.589844,3426.0,1.0,15.0,,,,0.0,4.0,4.0,4.0,4.0,4.0,4.0,4.0,4.0,4.0,4.0,4.0,4.0,4.0,4.0,100.0,,,,,,,,,,,,,,,,,,,,,,,,,,,,,,,,,,,,,,,,,,,,,,,,,,,,,,,,0.0,0.0,1.0,0.0,1024.0,0.0,,,,,,,,,,,,,,,,,,,,,,,,,,,,,,,,,,,,,,,,,,,,,,,,,,,,,,,,,,,,,,,,,,,,,,
1725710447.83767,1725710447.838278,161.0,0.0,4251.538574,4250.897461,4249.230957,4293.205078,4216.410156,4261.922852,4312.692383,4229.487305,4241.538574,4214.743652,4555.769043,4520.512695,4382.436035,4452.05127,3934.0,1.0,15.0,,,,0.0,4.0,4.0,4.0,4.0,4.0,4.0,4.0,4.0,4.0,4.0,4.0,4.0,4.0,4.0,100.0,,,,,,,,,,,,,,,,,,,,,,,,,,,,,,,,,,,,,,,,,,,,,,,,,,,,,,,,,,,,,,,,,,,,,,,,,,,,,,,,,,,,,,,,,,,,,,,,,,,,,,,,,,,,,,,,,,,,,,,,,,,,,,,,,,,
1725710447.841574,1725710447.842282,162.0,0.0,4251.153809,4251.282227,4248.589844,4293.461426,4216.025879,4261.282227,4312.05127,4230.897461,4237.563965,4217.820313,4548.717773,4520.512695,4384.230957,4456.666504,2910.0,1.0,15.0,,,,0.0,4.0,4.0,4.0,4.0,4.0,4.0,4.0,4.0,4.0,4.0,4.0,4.0,4.0,4.0,100.0,,,,,,,,,,,,,,,,,,,,,,,,,,,,,,,,,,,,,,,,,,,,,,,,,,,,,,,,,,,,,,,,,,,,,,,,,,,,,,,,,,,,,,,,,,,,,,,,,,,,,,,,,,,,,,,,,,,,,,,,,,,,,,,,,,,
1725710447.845478,1725710447.846186,163.0,0.0,4250.256348,4250.256348,4247.692383,4293.846191,4215.897461,4261.410156,4310.897461,4232.179688,4232.692383,4219.743652,4541.666504,4516.410156,4387.563965,4459.743652,3152.0,1.0,15.0,,,,0.0,4.0,4.0,4.0,4.0,4.0,4.0,4.0,4.0,4.0,4.0,4.0,4.0,4.0,4.0,100.0,,,,,,,,,,,,,,,,,,,,,,,,,,,,,,,,,,,,,,,,,,,,,,,,,,,,,,,,,,,,,,,,,,,,,,,,,,,,,,,,,,,,,,,,,,,,,,,,,,,,,,,,,,,,,,,,,,,,,,,,,,,,,,,,,,,
1725710447.849382,1725710447.85009,164.0,0.0,4249.358887,4248.974121,4246.538574,4294.102539,4215.897461,4262.563965,4310.384766,4233.205078,4227.436035,4219.358887,4538.589844,4511.025879,4390.512695,4460.0,3426.0,1.0,15.0,,,,0.0,4.0,4.0,4.0,4.0,4.0,4.0,4.0,4.0,4.0,4.0,4.0,4.0,4.0,4.0,100.0,,,,,,,,,,,,,,,,,,,,,,,,,,,,,,,,,,,,,,,,,,,,,,,,,,,,,,,,,,,,,,,,,,,,,,,,,,,,,,,,,,,,,,,,,,,,,,,,,,,,,,,,,,,,,,,,,,,,,,,,,,,,,,,,,,,
1725710447.853286,1725710447.853994,165.0,0.0,4248.974121,4248.461426,4245.641113,4294.615234,4216.025879,4263.589844,4311.282227,4233.717773,4222.692383,4217.307617,4540.641113,4507.692383,4391.410156,4458.205078,3934.0,1.0,15.0,,,,0.0,4.0,4.0,4.0,4.0,4.0,4.0,4.0,4.0,4.0,4.0,4.0,4.0,4.0,4.0,100.0,,,,,,,,,,,,,,,,,,,,,,,,,,,,,,,,,,,,,,,,,,,,,,,,,,,,,,,,,,,,,,,,,,,,,,,,,,,,,,,,,,,,,,,,,,,,,,,,,,,,,,,,,,,,,,,,,,,,,,,,,,,,,,,,,,,
1725710447.85719,1725710447.857899,166.0,0.0,4249.358887,4249.102539,4245.512695,4295.256348,4216.153809,4262.94873,4312.820313,4233.974121,4218.974121,4215.512695,4545.897461,4507.94873,4389.487305,4456.282227,2910.0,1.0,15.0,,,,0.0,4.0,4.0,4.0,4.0,4.0,4.0,4.0,4.0,4.0,4.0,4.0,4.0,4.0,4.0,100.0,,,,,,,,,,,,,,,,,,,,,,,,,,,,,,,,,,,,,,,,,,,,,,,,,,,,,,,,,,,,,,,,,,,,,,,,,,,,,,,,,,,,,,,,,,,,,,,,,,,,,,,,,,,,,,,,,,,,,,,,,,,,,,,,,,,
1725710447.861094,1725710447.861703,167.0,0.0,4250.128418,4250.256348,4245.769043,4295.769043,4216.282227,4260.0,4313.717773,4234.230957,4217.05127,4215.128418,4550.256348,4510.256348,4386.025879,4455.128418,3152.0,1.0,15.0,,,,0.0,4.0,4.0,4.0,4.0,4.0,4.0,4.0,4.0,4.0,4.0,4.0,4.0,4.0,4.0,100.0,,,,,,,,,,,,,,,,,,,,,,,,,,,,,,,,,,,,,,,,,,,,,,,,,,,,,,,,,,,,,,,,,,,,,,,,,,,,,,,,,,,,,,,,,,,,,,,,,,,,,,,,,,,,,,,,,,,,,,,,,,,,,,,,,,,
1725710447.864998,1725710447.865607,168.0,0.0,4250.769043,4251.282227,4246.538574,4295.769043,4216.538574,4255.512695,4312.820313,4234.487305,4216.153809,4216.153809,4550.128418,4511.538574,4383.205078,4454.743652,3426.0,1.0,15.0,,,,0.0,4.0,4.0,4.0,4.0,4.0,4.0,4.0,4.0,4.0,4.0,4.0,4.0,4.0,4.0,100.0,,,,,,,,,,,,,,,,,,,,,,,,,,,,,,,,,,,,,,,,,,,,,,,,,,,,,,,,0.0,0.0,1.0,0.0,1024.0,0.0,,,,,,,,,,,,,,,,,,,,,,,,,,,,,,,,,,,,,,,,,,,,,,,,,,,,,,,,,,,,,,,,,,,,,,
1725710447.868903,1725710447.869511,169.0,0.0,4250.769043,4251.025879,4247.436035,4295.897461,4216.922852,4251.666504,4310.0,4234.102539,4215.256348,4217.436035,4544.871582,4510.128418,4382.436035,4453.461426,3934.0,1.0,15.0,,,,0.0,4.0,4.0,4.0,4.0,4.0,4.0,4.0,4.0,4.0,4.0,4.0,4.0,4.0,4.0,100.0,,,,,,,,,,,,,,,,,,,,,,,,,,,,,,,,,,,,,,,,,,,,,,,,,,,,,,,,,,,,,,,,,,,,,,,,,,,,,,,,,,,,,,,,,,,,,,,,,,,,,,,,,,,,,,,,,,,,,,,,,,,,,,,,,,,
1725710447.872807,1725710447.873415,170.0,0.0,4250.641113,4249.743652,4247.94873,4296.538574,4217.179688,4249.871582,4305.384766,4232.563965,4213.974121,4217.563965,4538.461426,4506.922852,4383.333496,4450.769043,2910.0,1.0,15.0,,,,0.0,4.0,4.0,4.0,4.0,4.0,4.0,4.0,4.0,4.0,4.0,4.0,4.0,4.0,4.0,100.0,,,,,,,,,,,,,,,,,,,,,,,,,,,,,,,,,,,,,,,,,,,,,,,,,,,,,,,,,,,,,,,,,,,,,,,,,,,,,,,,,,,,,,,,,,,,,,,,,,,,,,,,,,,,,,,,,,,,,,,,,,,,,,,,,,,
1725710447.876711,1725710447.877219,171.0,0.0,4250.641113,4248.717773,4247.94873,4297.692383,4216.794922,4250.0,4300.512695,4230.384766,4212.820313,4216.410156,4535.897461,4503.974121,4384.487305,4446.922852,3152.0,1.0,15.0,,,,0.0,4.0,4.0,4.0,4.0,4.0,4.0,4.0,4.0,4.0,4.0,4.0,4.0,4.0,4.0,100.0,,,,,,,,,,,,,,,,,,,,,,,,,,,,,,,,,,,,,,,,,,,,,,,,,,,,,,,,,,,,,,,,,,,,,,,,,,,,,,,,,,,,,,,,,,,,,,,,,,,,,,,,,,,,,,,,,,,,,,,,,,,,,,,,,,,
1725710447.880615,1725710447.881123,172.0,0.0,4250.641113,4248.974121,4247.05127,4298.205078,4216.025879,4250.769043,4296.666504,4228.717773,4212.820313,4215.128418,4538.717773,4502.563965,4384.102539,4443.461426,3426.0,1.0,15.0,,,,0.0,4.0,4.0,4.0,4.0,4.0,4.0,4.0,4.0,4.0,4.0,4.0,4.0,4.0,4.0,100.0,,,,,,,,,,,,,,,,,,,,,,,,,,,,,,,,,,,,,,,,,,,,,,,,,,,,,,,,,,,,,,,,,,,,,,,,,,,,,,,,,,,,,,,,,,,,,,,,,,,,,,,,,,,,,,,,,,,,,,,,,,,,,,,,,,,
1725710447.884519,1725710447.885027,173.0,0.0,4250.128418,4250.0,4245.769043,4297.436035,4215.128418,4251.410156,4294.487305,4228.205078,4213.846191,4215.256348,4542.692383,4502.692383,4381.282227,4441.922852,3934.0,1.0,15.0,,,,0.0,4.0,4.0,4.0,4.0,4.0,4.0,4.0,4.0,4.0,4.0,4.0,4.0,4.0,4.0,100.0,,,,,,,,,,,,,,,,,,,,,,,,,,,,,,,,,,,,,,,,,,,,,,,,,,,,,,,,,,,,,,,,,,,,,,,,,,,,,,,,,,,,,,,,,,,,,,,,,,,,,,,,,,,,,,,,,,,,,,,,,,,,,,,,,,,
1725710447.888423,1725710447.888932,174.0,0.0,4249.358887,4250.641113,4244.487305,4296.282227,4214.358887,4251.922852,4294.230957,4228.974121,4215.0,4216.922852,4542.820313,4503.205078,4377.179688,4442.563965,2910.0,1.0,15.0,,,,0.0,4.0,4.0,4.0,4.0,4.0,4.0,4.0,4.0,4.0,4.0,4.0,4.0,4.0,4.0,100.0,,,,,,,,,,,,,,,,,,,,,,,,,,,,,,,,,,,,,,,,,,,,,,,,,,,,,,,,,,,,,,,,,,,,,,,,,,,,,,,,,,,,,,,,,,,,,,,,,,,,,,,,,,,,,,,,,,,,,,,,,,,,,,,,,,,
1725710447.892327,1725710447.892736,175.0,0.0,4248.846191,4250.256348,4243.846191,4296.153809,4214.230957,4253.077148,4295.897461,4230.384766,4215.0,4218.333496,4538.333496,4503.974121,4374.358887,4444.487305,3152.0,1.0,15.0,,,,0.0,4.0,4.0,4.0,4.0,4.0,4.0,4.0,4.0,4.0,4.0,4.0,4.0,4.0,4.0,100.0,,,,,,,,,,,,,,,,,,,,,,,,,,,,,,,,,,,,,,,,,,,,,,,,,,,,,,,,,,,,,,,,,,,,,,,,,,,,,,,,,,,,,,,,,,,,,,,,,,,,,,,,,,,,,,,,,,,,,,,,,,,,,,,,,,,
1725710447.896231,1725710447.89664,176.0,0.0,4249.743652,4249.487305,4243.974121,4297.94873,4214.487305,4255.641113,4298.333496,4231.794922,4212.820313,4217.820313,4533.589844,4505.0,4375.256348,4446.410156,3426.0,1.0,15.0,,,,0.0,4.0,4.0,4.0,4.0,4.0,4.0,4.0,4.0,4.0,4.0,4.0,4.0,4.0,4.0,100.0,,,,,,,,,,,,,,,,,1.0,0.0,0.0,,,,,,,,,,,,,,,,,,,,,,,,,,,,,,,,,,,,,0.0,0.0,1.0,0.0,1024.0,0.002813,1.265492,0.713354,0.283008,0.122571,0.081666,1.229428,1.229755,0.23415,0.170314,0.07053,1.074552,0.492989,0.155918,0.067648,0.041297,1.140896,0.909496,0.36817,0.249782,0.14622,0.61476,0.380096,0.160483,0.0785,0.050204,0.143198,0.373829,0.129244,0.062327,0.032499,5.942763,3.510157,0.848433,0.53863,0.229008,1.137902,1.947977,1.081223,0.332135,0.153341,1.120749,0.944809,0.714302,0.300287,0.138091,1.114972,0.852517,0.77099,0.366611,0.211461,2.536209,0.952049,0.885497,0.421914,0.407444,2.739256,1.105935,0.88051,0.398127,0.15239,2.816702,1.765604,1.11221,0.487564,0.130862,2.154149,1.275278,0.620747,0.246974,0.113273
1725710447.900135,1725710447.900544,177.0,0.0,4251.922852,4249.871582,4245.128418,4300.897461,4215.128418,4258.717773,4300.128418,4232.692383,4207.692383,4214.871582,4533.333496,4506.410156,4380.0,4447.05127,3934.0,1.0,15.0,,,,0.0,4.0,4.0,4.0,4.0,4.0,4.0,4.0,4.0,4.0,4.0,4.0,4.0,4.0,4.0,100.0,,,,,,,,,,,,,,,,,,,,,,,,,,,,,,,,,,,,,,,,,,,,,,,,,,,,,,,,,,,,,,,,,,,,,,,,,,,,,,,,,,,,,,,,,,,,,,,,,,,,,,,,,,,,,,,,,,,,,,,,,,,,,,,,,,,
1725710447.90404,1725710447.904448,178.0,0.0,4254.487305,4252.05127,4246.922852,4303.077148,4215.897461,4261.153809,4300.384766,4232.563965,4201.538574,4211.282227,4538.589844,4507.436035,4386.025879,4446.282227,2910.0,1.0,15.0,,,,0.0,4.0,4.0,4.0,4.0,4.0,4.0,4.0,4.0,4.0,4.0,4.0,4.0,4.0,4.0,100.0,,,,,,,,,,,,,,,,,,,,,,,,,,,,,,,,,,,,,,,,,,,,,,,,,,,,,,,,,,,,,,,,,,,,,,,,,,,,,,,,,,,,,,,,,,,,,,,,,,,,,,,,,,,,,,,,,,,,,,,,,,,,,,,,,,,
1725710447.907944,1725710447.908252,179.0,0.0,4255.769043,4255.128418,4247.820313,4302.436035,4216.153809,4262.307617,4299.615234,4231.410156,4197.436035,4209.487305,4545.0,4507.05127,4389.871582,4444.743652,3152.0,1.0,15.0,,,,0.0,4.0,4.0,4.0,4.0,4.0,4.0,4.0,4.0,4.0,4.0,4.0,4.0,4.0,4.0,100.0,,,,,,,,,,,,,,,,,,,,,,,,,,,,,,,,,,,,,,,,,,,,,,,,,,,,,,,,,,,,,,,,,,,,,,,,,,,,,,,,,,,,,,,,,,,,,,,,,,,,,,,,,,,,,,,,,,,,,,,,,,,,,,,,,,,
1725710447.911848,1725710447.912156,180.0,0.0,4255.0,4257.179688,4247.563965,4298.846191,4216.153809,4261.922852,4298.846191,4230.256348,4197.563965,4210.897461,4547.692383,4505.769043,4389.743652,4443.205078,3426.0,1.0,15.0,,,,0.0,4.0,4.0,4.0,4.0,4.0,4.0,4.0,4.0,4.0,4.0,4.0,4.0,4.0,4.0,100.0,,,,,,,,,,,,,,,,,,,,,,,,,,,,,,,,,,,,,,,,,,,,,,,,,,,,,,,,,,,,,,,,,,,,,,,,,,,,,,,,,,,,,,,,,,,,,,,,,,,,,,,,,,,,,,,,,,,,,,,,,,,,,,,,,,,
1725710447.915752,1725710447.91606,181.0,0.0,4252.563965,4257.179688,4247.05127,4294.230957,4215.897461,4261.410156,4298.461426,4230.641113,4201.666504,4214.487305,4545.384766,4504.743652,4386.794922,4442.563965,3934.0,1.0,15.0,,,,0.0,4.0,4.0,4.0,4.0,4.0,4.0,4.0,4.0,4.0,4.0,4.0,4.0,4.0,4.0,100.0,,,,,,,,,,,,,,,,,,,,,,,,,,,,,,,,,,,,,,,,,,,,,,,,,,,,,,,,,,,,,,,,,,,,,,,,,,,,,,,,,,,,,,,,,,,,,,,,,,,,,,,,,,,,,,,,,,,,,,,,,,,,,,,,,,,
1725710447.919656,1725710447.920064,182.0,0.0,4250.128418,4255.256348,4246.922852,4291.282227,4215.769043,4261.794922,4297.820313,4233.846191,4207.05127,4218.461426,4540.769043,4505.256348,4383.205078,4442.563965,2910.0,1.0,15.0,,,,0.0,4.0,4.0,4.0,4.0,4.0,4.0,4.0,4.0,4.0,4.0,4.0,4.0,4.0,4.0,100.0,,,,,,,,,,,,,,,,,,,,,,,,,,,,,,,,,,,,,,,,,,,,,,,,,,,,,,,,,,,,,,,,,,,,,,,,,,,,,,,,,,,,,,,,,,,,,,,,,,,,,,,,,,,,,,,,,,,,,,,,,,,,,,,,,,,
1725710447.92356,1725710447.923969,183.0,0.0,4249.102539,4252.436035,4246.794922,4291.538574,4215.769043,4262.94873,4295.641113,4238.589844,4210.641113,4220.897461,4538.205078,4506.794922,4380.897461,4442.179688,3152.0,1.0,15.0,,,,0.0,4.0,4.0,4.0,4.0,4.0,4.0,4.0,4.0,4.0,4.0,4.0,4.0,4.0,4.0,100.0,,,,,,,,,,,,,,,,,,,,,,,,,,,,,,,,,,,,,,,,,,,,,,,,,,,,,,,,,,,,,,,,,,,,,,,,,,,,,,,,,,,,,,,,,,,,,,,,,,,,,,,,,,,,,,,,,,,,,,,,,,,,,,,,,,,
1725710447.927464,1725710447.927873,184.0,0.0,4249.102539,4249.743652,4245.128418,4294.102539,4215.897461,4264.102539,4291.410156,4242.307617,4210.769043,4220.897461,4539.487305,4507.05127,4380.128418,4439.871582,3426.0,1.0,15.0,,,,0.0,4.0,4.0,4.0,4.0,4.0,4.0,4.0,4.0,4.0,4.0,4.0,4.0,4.0,4.0,100.0,,,,,,,,,,,,,,,,,,,,,,,,,,,,,,,,,,,,,,,,,,,,,,,,,,,,,,,,0.0,0.0,1.0,0.0,1024.0,0.002813,,,,,,,,,,,,,,,,,,,,,,,,,,,,,,,,,,,,,,,,,,,,,,,,,,,,,,,,,,,,,,,,,,,,,,
1725710447.931368,1725710447.931777,185.0,0.0,4248.589844,4247.307617,4242.05127,4296.153809,4215.769043,4264.230957,4285.769043,4242.563965,4207.94873,4218.717773,4542.307617,4504.102539,4379.871582,4435.641113,3934.0,1.0,15.0,,,,0.0,4.0,4.0,4.0,4.0,4.0,4.0,4.0,4.0,4.0,4.0,4.0,4.0,4.0,4.0,100.0,,,,,,,,,,,,,,,,,,,,,,,,,,,,,,,,,,,,,,,,,,,,,,,,,,,,,,,,,,,,,,,,,,,,,,,,,,,,,,,,,,,,,,,,,,,,,,,,,,,,,,,,,,,,,,,,,,,,,,,,,,,,,,,,,,,
1725710447.935272,1725710447.935781,186.0,0.0,4246.538574,4245.384766,4238.846191,4295.512695,4215.384766,4263.461426,4280.0,4238.974121,4204.230957,4215.769043,4542.436035,4498.589844,4378.461426,4430.769043,2910.0,1.0,15.0,,,,0.0,4.0,4.0,4.0,4.0,4.0,4.0,4.0,4.0,4.0,4.0,4.0,4.0,4.0,4.0,100.0,,,,,,,,,,,,,,,,,,,,,,,,,,,,,,,,,,,,,,,,,,,,,,,,,,,,,,,,,,,,,,,,,,,,,,,,,,,,,,,,,,,,,,,,,,,,,,,,,,,,,,,,,,,,,,,,,,,,,,,,,,,,,,,,,,,
1725710447.939176,1725710447.939685,187.0,0.0,4243.589844,4244.230957,4237.563965,4292.692383,4214.871582,4262.307617,4275.641113,4233.717773,4201.538574,4212.563965,4537.179688,4492.692383,4375.769043,4427.179688,3152.0,1.0,15.0,,,,0.0,4.0,4.0,4.0,4.0,4.0,4.0,4.0,4.0,4.0,4.0,4.0,4.0,4.0,4.0,100.0,,,,,,,,,,,,,,,,,,,,,,,,,,,,,,,,,,,,,,,,,,,,,,,,,,,,,,,,,,,,,,,,,,,,,,,,,,,,,,,,,,,,,,,,,,,,,,,,,,,,,,,,,,,,,,,,,,,,,,,,,,,,,,,,,,,
1725710447.943081,1725710447.943589,188.0,0.0,4241.410156,4244.230957,4238.333496,4290.0,4214.358887,4261.794922,4274.487305,4230.0,4200.384766,4209.871582,4528.077148,4488.717773,4372.94873,4425.897461,3426.0,1.0,15.0,,,,0.0,4.0,4.0,4.0,4.0,4.0,4.0,4.0,4.0,4.0,4.0,4.0,4.0,4.0,4.0,100.0,,,,,,,,,,,,,,,,,,,,,,,,,,,,,,,,,,,,,,,,,,,,,,,,,,,,,,,,,,,,,,,,,,,,,,,,,,,,,,,,,,,,,,,,,,,,,,,,,,,,,,,,,,,,,,,,,,,,,,,,,,,,,,,,,,,
1725710447.946985,1725710447.947593,189.0,0.0,4241.153809,4245.769043,4239.871582,4289.615234,4214.230957,4261.794922,4277.179688,4229.230957,4200.384766,4208.333496,4520.128418,4487.692383,4371.025879,4426.794922,3934.0,1.0,15.0,,,,0.0,4.0,4.0,4.0,4.0,4.0,4.0,4.0,4.0,4.0,4.0,4.0,4.0,4.0,4.0,100.0,,,,,,,,,,,,,,,,,,,,,,,,,,,,,,,,,,,,,,,,,,,,,,,,,,,,,,,,,,,,,,,,,,,,,,,,,,,,,,,,,,,,,,,,,,,,,,,,,,,,,,,,,,,,,,,,,,,,,,,,,,,,,,,,,,,
1725710447.950889,1725710447.951497,190.0,0.0,4242.563965,4247.94873,4240.256348,4291.666504,4214.358887,4262.179688,4282.692383,4230.897461,4200.641113,4209.230957,4517.94873,4488.846191,4370.512695,4429.102539,2910.0,1.0,15.0,,,,0.0,4.0,4.0,4.0,4.0,4.0,4.0,4.0,4.0,4.0,4.0,4.0,4.0,4.0,4.0,100.0,,,,,,,,,,,,,,,,,,,,,,,,,,,,,,,,,,,,,,,,,,,,,,,,,,,,,,,,,,,,,,,,,,,,,,,,,,,,,,,,,,,,,,,,,,,,,,,,,,,,,,,,,,,,,,,,,,,,,,,,,,,,,,,,,,,
1725710447.954793,1725710447.955401,191.0,0.0,4243.974121,4250.0,4239.230957,4294.615234,4215.0,4262.94873,4289.102539,4232.563965,4200.641113,4212.563965,4522.179688,4491.153809,4371.153809,4431.538574,3152.0,1.0,15.0,,,,0.0,4.0,4.0,4.0,4.0,4.0,4.0,4.0,4.0,4.0,4.0,4.0,4.0,4.0,4.0,100.0,,,,,,,,,,,,,,,,,,,,,,,,,,,,,,,,,,,,,,,,,,,,,,,,,,,,,,,,,,,,,,,,,,,,,,,,,,,,,,,,,,,,,,,,,,,,,,,,,,,,,,,,,,,,,,,,,,,,,,,,,,,,,,,,,,,
1725710447.958697,1725710447.959305,192.0,0.0,4244.230957,4250.769043,4237.820313,4296.410156,4215.897461,4263.717773,4294.871582,4232.307617,4200.128418,4216.410156,4530.0,4493.717773,4372.436035,4433.974121,3426.0,1.0,15.0,,,,0.0,4.0,4.0,4.0,4.0,4.0,4.0,4.0,4.0,4.0,4.0,4.0,4.0,4.0,4.0,100.0,,,,,,,,,,,,,,,,,,,,,,,,,,,,,,,,,,,,,,,,,,,,,,,,,,,,,,,,0.0,0.0,1.0,0.0,1024.0,0.002813,,,,,,,,,,,,,,,,,,,,,,,,,,,,,,,,,,,,,,,,,,,,,,,,,,,,,,,,,,,,,,,,,,,,,,
1725710447.962601,1725710447.963209,193.0,0.0,4243.461426,4250.0,4237.692383,4296.282227,4216.922852,4264.358887,4299.102539,4230.512695,4199.230957,4217.307617,4536.922852,4496.794922,4373.846191,4436.666504,3934.0,1.0,15.0,,,,0.0,4.0,4.0,4.0,4.0,4.0,4.0,4.0,4.0,4.0,4.0,4.0,4.0,4.0,4.0,100.0,,,,,,,,,,,,,,,,,,,,,,,,,,,,,,,,,,,,,,,,,,,,,,,,,,,,,,,,,,,,,,,,,,,,,,,,,,,,,,,,,,,,,,,,,,,,,,,,,,,,,,,,,,,,,,,,,,,,,,,,,,,,,,,,,,,
1725710447.966505,1725710447.967014,194.0,0.0,4243.461426,4248.461426,4240.0,4295.0,4217.820313,4265.0,4302.563965,4229.230957,4198.461426,4213.717773,4540.0,4500.256348,4374.743652,4439.743652,2910.0,1.0,15.0,,,,0.0,4.0,4.0,4.0,4.0,4.0,4.0,4.0,4.0,4.0,4.0,4.0,4.0,4.0,4.0,100.0,,,,,,,,,,,,,,,,,,,,,,,,,,,,,,,,,,,,,,,,,,,,,,,,,,,,,,,,,,,,,,,,,,,,,,,,,,,,,,,,,,,,,,,,,,,,,,,,,,,,,,,,,,,,,,,,,,,,,,,,,,,,,,,,,,,
1725710447.970409,1725710447.970918,195.0,0.0,4245.0,4247.563965,4244.102539,4293.974121,4218.333496,4265.641113,4306.153809,4229.615234,4198.205078,4207.179688,4539.615234,4503.589844,4374.615234,4443.077148,3152.0,1.0,15.0,,,,0.0,4.0,4.0,4.0,4.0,4.0,4.0,4.0,4.0,4.0,4.0,4.0,4.0,4.0,4.0,100.0,,,,,,,,,,,,,,,,,,,,,,,,,,,,,,,,,,,,,,,,,,,,,,,,,,,,,,,,,,,,,,,,,,,,,,,,,,,,,,,,,,,,,,,,,,,,,,,,,,,,,,,,,,,,,,,,,,,,,,,,,,,,,,,,,,,
1725710447.974313,1725710447.974822,196.0,0.0,4247.563965,4247.94873,4248.717773,4293.846191,4218.461426,4266.025879,4310.0,4231.153809,4198.589844,4202.179688,4537.563965,4505.641113,4373.717773,4445.384766,3426.0,1.0,15.0,,,,0.0,4.0,4.0,4.0,4.0,4.0,4.0,4.0,4.0,4.0,4.0,4.0,4.0,4.0,4.0,100.0,,,,,,,,,,,,,,,,,,,,,,,,,,,,,,,,,,,,,,,,,,,,,,,,,,,,,,,,,,,,,,,,,,,,,,,,,,,,,,,,,,,,,,,,,,,,,,,,,,,,,,,,,,,,,,,,,,,,,,,,,,,,,,,,,,,
1725710447.978217,1725710447.978726,197.0,0.0,4250.0,4248.846191,4251.282227,4294.487305,4218.589844,4265.769043,4312.563965,4232.436035,4198.974121,4201.922852,4536.153809,4506.410156,4372.692383,4445.641113,3934.0,1.0,15.0,,,,0.0,4.0,4.0,4.0,4.0,4.0,4.0,4.0,4.0,4.0,4.0,4.0,4.0,4.0,4.0,100.0,,,,,,,,,,,,,,,,,,,,,,,,,,,,,,,,,,,,,,,,,,,,,,,,,,,,,,,,,,,,,,,,,,,,,,,,,,,,,,,,,,,,,,,,,,,,,,,,,,,,,,,,,,,,,,,,,,,,,,,,,,,,,,,,,,,
1725710447.982122,1725710447.98253,198.0,0.0,4250.769043,4249.102539,4251.025879,4295.0,4218.717773,4264.743652,4312.563965,4231.794922,4199.358887,4206.922852,4536.153809,4507.436035,4372.692383,4444.615234,2910.0,1.0,15.0,,,,0.0,4.0,4.0,4.0,4.0,4.0,4.0,4.0,4.0,4.0,4.0,4.0,4.0,4.0,4.0,100.0,,,,,,,,,,,,,,,,,,,,,,,,,,,,,,,,,,,,,,,,,,,,,,,,,,,,,,,,,,,,,,,,,,,,,,,,,,,,,,,,,,,,,,,,,,,,,,,,,,,,,,,,,,,,,,,,,,,,,,,,,,,,,,,,,,,
1725710447.986026,1725710447.986434,199.0,0.0,4249.743652,4248.333496,4248.974121,4294.230957,4218.846191,4263.589844,4310.256348,4229.358887,4199.871582,4214.743652,4537.436035,4510.128418,4374.358887,4443.846191,3152.0,1.0,15.0,,,,0.0,4.0,4.0,4.0,4.0,4.0,4.0,4.0,4.0,4.0,4.0,4.0,4.0,4.0,4.0,100.0,,,,,,,,,,,,,,,,,,,,,,,,,,,,,,,,,,,,,,,,,,,,,,,,,,,,,,,,,,,,,,,,,,,,,,,,,,,,,,,,,,,,,,,,,,,,,,,,,,,,,,,,,,,,,,,,,,,,,,,,,,,,,,,,,,,
1725710447.98993,1725710447.990338,200.0,0.0,4248.205078,4247.05127,4247.94873,4293.077148,4218.717773,4262.94873,4306.666504,4226.666504,4200.769043,4222.05127,4539.230957,4515.128418,4377.692383,4445.512695,3426.0,1.0,15.0,,,,0.0,4.0,4.0,4.0,4.0,4.0,4.0,4.0,4.0,4.0,4.0,4.0,4.0,4.0,4.0,100.0,,,,,,,,,,,,,,,,,,,,,,,,,,,,,,,,,,,,,,,,,,,,,,,,,,,,,,,,0.0,0.0,1.0,0.0,1024.0,0.002813,,,,,,,,,,,,,,,,,,,,,,,,,,,,,,,,,,,,,,,,,,,,,,,,,,,,,,,,,,,,,,,,,,,,,,
1725710447.993834,1725710447.994242,201.0,0.0,4247.563965,4245.769043,4250.0,4293.205078,4218.333496,4263.333496,4303.461426,4225.897461,4202.05127,4226.922852,4540.769043,4520.769043,4381.538574,4450.0,3934.0,1.0,15.0,,,,0.0,4.0,4.0,4.0,4.0,4.0,4.0,4.0,4.0,4.0,4.0,4.0,4.0,4.0,4.0,100.0,,,,,,,,,,,,,,,,,,,,,,,,,,,,,,,,,,,,,,,,,,,,,,,,,,,,,,,,,,,,,,,,,,,,,,,,,,,,,,,,,,,,,,,,,,,,,,,,,,,,,,,,,,,,,,,,,,,,,,,,,,,,,,,,,,,
1725710447.997738,1725710447.998047,202.0,0.0,4248.846191,4245.384766,4254.102539,4295.256348,4217.563965,4264.358887,4302.563965,4228.077148,4203.461426,4229.102539,4541.794922,4525.128418,4384.487305,4455.769043,2910.0,1.0,15.0,,,,0.0,4.0,4.0,4.0,4.0,4.0,4.0,4.0,4.0,4.0,4.0,4.0,4.0,4.0,4.0,100.0,,,,,,,,,,,,,,,,,,,,,,,,,,,,,,,,,,,,,,,,,,,,,,,,,,,,,,,,,,,,,,,,,,,,,,,,,,,,,,,,,,,,,,,,,,,,,,,,,,,,,,,,,,,,,,,,,,,,,,,,,,,,,,,,,,,
1725710448.001642,1725710448.001951,203.0,0.0,4251.794922,4246.410156,4257.563965,4297.563965,4216.666504,4265.0,4304.230957,4233.333496,4204.871582,4229.102539,4542.563965,4527.179688,4386.153809,4460.128418,3152.0,1.0,15.0,,,,0.0,4.0,4.0,4.0,4.0,4.0,4.0,4.0,4.0,4.0,4.0,4.0,4.0,4.0,4.0,100.0,,,,,,,,,,,,,,,,,,,,,,,,,,,,,,,,,,,,,,,,,,,,,,,,,,,,,,,,,,,,,,,,,,,,,,,,,,,,,,,,,,,,,,,,,,,,,,,,,,,,,,,,,,,,,,,,,,,,,,,,,,,,,,,,,,,
1725710448.005546,1725710448.005855,204.0,0.0,4254.487305,4248.333496,4258.333496,4297.307617,4215.769043,4264.358887,4307.179688,4239.615234,4205.512695,4227.179688,4543.205078,4527.179688,4386.282227,4460.897461,3426.0,1.0,15.0,,,,0.0,4.0,4.0,4.0,4.0,4.0,4.0,4.0,4.0,4.0,4.0,4.0,4.0,4.0,4.0,100.0,,,,,,,,,,,,,,,,,,,,,,,,,,,,,,,,,,,,,,,,,,,,,,,,,,,,,,,,,,,,,,,,,,,,,,,,,,,,,,,,,,,,,,,,,,,,,,,,,,,,,,,,,,,,,,,,,,,,,,,,,,,,,,,,,,,
1725710448.00945,1725710448.009759,205.0,0.0,4254.743652,4250.0,4256.282227,4293.589844,4214.615234,4262.436035,4309.487305,4244.230957,4205.0,4224.102539,4542.94873,4526.153809,4384.871582,4457.436035,3934.0,1.0,15.0,,,,0.0,4.0,4.0,4.0,4.0,4.0,4.0,4.0,4.0,4.0,4.0,4.0,4.0,4.0,4.0,100.0,,,,,,,,,,,,,,,,,,,,,,,,,,,,,,,,,,,,,,,,,,,,,,,,,,,,,,,,,,,,,,,,,,,,,,,,,,,,,,,,,,,,,,,,,,,,,,,,,,,,,,,,,,,,,,,,,,,,,,,,,,,,,,,,,,,
1725710448.013354,1725710448.013563,206.0,0.0,4252.05127,4249.487305,4252.820313,4288.205078,4213.077148,4260.256348,4310.0,4244.615234,4203.461426,4220.641113,4541.410156,4524.102539,4381.666504,4451.410156,2910.0,1.0,15.0,,,,0.0,4.0,4.0,4.0,4.0,4.0,4.0,4.0,4.0,4.0,4.0,4.0,4.0,4.0,4.0,100.0,,,,,,,,,,,,,,,,,,,,,,,,,,,,,,,,,,,,,,,,,,,,,,,,,,,,,,,,,,,,,,,,,,,,,,,,,,,,,,,,,,,,,,,,,,,,,,,,,,,,,,,,,,,,,,,,,,,,,,,,,,,,,,,,,,,
1725710448.017258,1725710448.017467,207.0,0.0,4248.461426,4246.153809,4249.487305,4284.102539,4211.538574,4258.846191,4308.974121,4240.897461,4201.666504,4217.94873,4538.974121,4520.512695,4377.05127,4446.153809,3152.0,1.0,15.0,,,,0.0,4.0,4.0,4.0,4.0,4.0,4.0,4.0,4.0,4.0,4.0,4.0,4.0,4.0,4.0,100.0,,,,,,,,,,,,,,,,,,,,,,,,,,,,,,,,,,,,,,,,,,,,,,,,,,,,,,,,,,,,,,,,,,,,,,,,,,,,,,,,,,,,,,,,,,,,,,,,,,,,,,,,,,,,,,,,,,,,,,,,,,,,,,,,,,,
1725710448.021162,1725710448.021371,208.0,0.0,4246.025879,4240.769043,4247.307617,4283.974121,4210.897461,4258.974121,4306.922852,4235.512695,4200.897461,4216.410156,4537.94873,4515.384766,4371.538574,4443.846191,3426.0,1.0,15.0,,,,0.0,4.0,4.0,4.0,4.0,4.0,4.0,4.0,4.0,4.0,4.0,4.0,4.0,4.0,4.0,100.0,,,,,,,,,,,,,,,,,1.0,0.0,0.0,,,,,,,,,,,,,,,,,,,,,,,,,,,,,,,,,,,,,0.0,0.0,1.0,0.0,2048.0,0.076062,1.197718,0.911347,0.263501,0.13783,0.091991,1.423968,1.598172,0.282678,0.156752,0.080199,0.998337,0.615543,0.185613,0.077077,0.042546,1.25201,0.97372,0.410548,0.273267,0.143601,0.568534,0.42688,0.188957,0.08962,0.044487,0.151622,0.385678,0.140376,0.072387,0.03741,5.77499,4.186977,0.918793,0.561533,0.22773,0.951418,1.696748,1.275919,0.386774,0.162847,0.987878,0.837574,0.827794,0.356131,0.14088,1.242248,0.882272,0.899791,0.448827,0.20186,2.710294,1.163989,0.928705,0.492622,0.403182,2.566848,1.353765,1.032651,0.431725,0.139703,3.310512,2.162118,1.301227,0.505663,0.128769,2.22923,1.589201,0.74109,0.26597,0.115697
1725710448.025067,1725710448.025375,209.0,0.0,4245.769043,4234.871582,4246.794922,4287.820313,4211.538574,4260.384766,4304.358887,4232.179688,4201.153809,4215.897461,4539.487305,4510.128418,4366.922852,4444.487305,3934.0,1.0,15.0,,,,0.0,4.0,4.0,4.0,4.0,4.0,4.0,4.0,4.0,4.0,4.0,4.0,4.0,4.0,4.0,100.0,,,,,,,,,,,,,,,,,,,,,,,,,,,,,,,,,,,,,,,,,,,,,,,,,,,,,,,,,,,,,,,,,,,,,,,,,,,,,,,,,,,,,,,,,,,,,,,,,,,,,,,,,,,,,,,,,,,,,,,,,,,,,,,,,,,
1725710448.028971,1725710448.02928,210.0,0.0,4246.538574,4230.384766,4247.179688,4293.846191,4213.077148,4262.05127,4302.179688,4233.333496,4202.05127,4215.769043,4541.922852,4507.05127,4364.230957,4445.641113,2910.0,1.0,15.0,,,,0.0,4.0,4.0,4.0,4.0,4.0,4.0,4.0,4.0,4.0,4.0,4.0,4.0,4.0,4.0,100.0,,,,,,,,,,,,,,,,,,,,,,,,,,,,,,,,,,,,,,,,,,,,,,,,,,,,,,,,,,,,,,,,,,,,,,,,,,,,,,,,,,,,,,,,,,,,,,,,,,,,,,,,,,,,,,,,,,,,,,,,,,,,,,,,,,,
1725710448.032875,1725710448.033184,211.0,0.0,4246.153809,4228.846191,4247.307617,4298.461426,4214.487305,4263.077148,4301.410156,4238.461426,4202.692383,4215.512695,4541.794922,4506.794922,4363.846191,4444.102539,3152.0,1.0,15.0,,,,0.0,4.0,4.0,4.0,4.0,4.0,4.0,4.0,4.0,4.0,4.0,4.0,4.0,4.0,4.0,100.0,,,,,,,,,,,,,,,,,,,,,,,,,,,,,,,,,,,,,,,,,,,,,,,,,,,,,,,,,,,,,,,,,,,,,,,,,,,,,,,,,,,,,,,,,,,,,,,,,,,,,,,,,,,,,,,,,,,,,,,,,,,,,,,,,,,
1725710448.036779,1725710448.037188,212.0,0.0,4243.461426,4230.641113,4245.769043,4298.461426,4214.743652,4263.077148,4302.563965,4243.589844,4202.94873,4214.871582,4536.794922,4507.820313,4365.384766,4439.358887,3426.0,1.0,15.0,,,,0.0,4.0,4.0,4.0,4.0,4.0,4.0,4.0,4.0,4.0,4.0,4.0,4.0,4.0,4.0,100.0,,,,,,,,,,,,,,,,,,,,,,,,,,,,,,,,,,,,,,,,,,,,,,,,,,,,,,,,,,,,,,,,,,,,,,,,,,,,,,,,,,,,,,,,,,,,,,,,,,,,,,,,,,,,,,,,,,,,,,,,,,,,,,,,,,,
1725710448.040683,1725710448.041092,213.0,0.0,4239.230957,4234.487305,4243.077148,4293.589844,4213.974121,4262.307617,4305.0,4244.102539,4202.563965,4214.487305,4527.563965,4507.307617,4367.307617,4433.205078,3934.0,1.0,15.0,,,,0.0,4.0,4.0,4.0,4.0,4.0,4.0,4.0,4.0,4.0,4.0,4.0,4.0,4.0,4.0,100.0,,,,,,,,,,,,,,,,,,,,,,,,,,,,,,,,,,,,,,,,,,,,,,,,,,,,,,,,,,,,,,,,,,,,,,,,,,,,,,,,,,,,,,,,,,,,,,,,,,,,,,,,,,,,,,,,,,,,,,,,,,,,,,,,,,,
1725710448.044587,1725710448.044996,214.0,0.0,4235.384766,4237.94873,4240.897461,4286.794922,4213.077148,4261.410156,4307.307617,4237.820313,4201.153809,4214.487305,4517.307617,4503.077148,4368.205078,4428.461426,2910.0,1.0,15.0,,,,0.0,4.0,4.0,4.0,4.0,4.0,4.0,4.0,4.0,4.0,4.0,4.0,4.0,4.0,4.0,100.0,,,,,,,,,,,,,,,,,,,,,,,,,,,,,,,,,,,,,,,,,,,,,,,,,,,,,,,,,,,,,,,,,,,,,,,,,,,,,,,,,,,,,,,,,,,,,,,,,,,,,,,,,,,,,,,,,,,,,,,,,,,,,,,,,,,
1725710448.048491,1725710448.0489,215.0,0.0,4233.461426,4238.974121,4240.512695,4282.436035,4212.94873,4260.512695,4308.717773,4227.94873,4198.974121,4213.846191,4510.128418,4496.025879,4367.563965,4426.410156,3152.0,1.0,15.0,,,,0.0,4.0,4.0,4.0,4.0,4.0,4.0,4.0,4.0,4.0,4.0,4.0,4.0,4.0,4.0,100.0,,,,,,,,,,,,,,,,,,,,,,,,,,,,,,,,,,,,,,,,,,,,,,,,,,,,,,,,,,,,,,,,,,,,,,,,,,,,,,,,,,,,,,,,,,,,,,,,,,,,,,,,,,,,,,,,,,,,,,,,,,,,,,,,,,,
1725710448.052395,1725710448.052904,216.0,0.0,4233.333496,4237.94873,4241.538574,4282.692383,4214.358887,4260.0,4309.487305,4219.871582,4196.282227,4210.897461,4508.974121,4488.974121,4365.769043,4426.410156,3426.0,1.0,15.0,,,,0.0,4.0,4.0,4.0,4.0,4.0,4.0,4.0,4.0,4.0,4.0,4.0,4.0,4.0,4.0,100.0,,,,,,,,,,,,,,,,,,,,,,,,,,,,,,,,,,,,,,,,,,,,,,,,,,,,,,,,0.0,0.0,1.0,0.0,2048.0,0.076062,,,,,,,,,,,,,,,,,,,,,,,,,,,,,,,,,,,,,,,,,,,,,,,,,,,,,,,,,,,,,,,,,,,,,,
1725710448.056299,1725710448.056808,217.0,0.0,4233.589844,4236.410156,4242.820313,4286.666504,4216.538574,4259.743652,4311.282227,4217.94873,4193.589844,4205.769043,4514.487305,4485.256348,4364.230957,4427.179688,3934.0,1.0,15.0,,,,0.0,4.0,4.0,4.0,4.0,4.0,4.0,4.0,4.0,4.0,4.0,4.0,4.0,4.0,4.0,100.0,,,,,,,,,,,,,,,,,,,,,,,,,,,,,,,,,,,,,,,,,,,,,,,,,,,,,,,,,,,,,,,,,,,,,,,,,,,,,,,,,,,,,,,,,,,,,,,,,,,,,,,,,,,,,,,,,,,,,,,,,,,,,,,,,,,
1725710448.060203,1725710448.060712,218.0,0.0,4233.846191,4236.538574,4243.461426,4291.282227,4218.333496,4259.743652,4315.384766,4222.307617,4191.153809,4200.897461,4524.358887,4485.769043,4363.717773,4428.077148,2910.0,1.0,15.0,,,,0.0,4.0,4.0,4.0,4.0,4.0,4.0,4.0,4.0,4.0,4.0,4.0,4.0,4.0,4.0,100.0,,,,,,,,,,,,,,,,,,,,,,,,,,,,,,,,,,,,,,,,,,,,,,,,,,,,,,,,,,,,,,,,,,,,,,,,,,,,,,,,,,,,,,,,,,,,,,,,,,,,,,,,,,,,,,,,,,,,,,,,,,,,,,,,,,,
1725710448.064108,1725710448.064616,219.0,0.0,4234.230957,4239.102539,4243.205078,4293.846191,4218.717773,4260.128418,4322.05127,4228.974121,4188.974121,4199.487305,4533.589844,4488.589844,4364.230957,4428.717773,3152.0,1.0,15.0,,,,0.0,4.0,4.0,4.0,4.0,4.0,4.0,4.0,4.0,4.0,4.0,4.0,4.0,4.0,4.0,100.0,,,,,,,,,,,,,,,,,,,,,,,,,,,,,,,,,,,,,,,,,,,,,,,,,,,,,,,,,,,,,,,,,,,,,,,,,,,,,,,,,,,,,,,,,,,,,,,,,,,,,,,,,,,,,,,,,,,,,,,,,,,,,,,,,,,
1725710448.068012,1725710448.06852,220.0,0.0,4235.897461,4242.94873,4241.538574,4293.846191,4217.692383,4260.769043,4330.128418,4233.717773,4187.563965,4202.692383,4538.077148,4491.153809,4365.256348,4428.974121,3426.0,1.0,15.0,,,,0.0,4.0,4.0,4.0,4.0,4.0,4.0,4.0,4.0,4.0,4.0,4.0,4.0,4.0,4.0,100.0,,,,,,,,,,,,,,,,,,,,,,,,,,,,,,,,,,,,,,,,,,,,,,,,,,,,,,,,,,,,,,,,,,,,,,,,,,,,,,,,,,,,,,,,,,,,,,,,,,,,,,,,,,,,,,,,,,,,,,,,,,,,,,,,,,,
1725710448.071916,1725710448.072325,221.0,0.0,4239.358887,4246.282227,4238.589844,4292.820313,4216.282227,4261.410156,4337.563965,4234.358887,4187.179688,4208.461426,4535.897461,4491.922852,4366.282227,4428.974121,3934.0,1.0,15.0,,,,0.0,4.0,4.0,4.0,4.0,4.0,4.0,4.0,4.0,4.0,4.0,4.0,4.0,4.0,4.0,100.0,,,,,,,,,,,,,,,,,,,,,,,,,,,,,,,,,,,,,,,,,,,,,,,,,,,,,,,,,,,,,,,,,,,,,,,,,,,,,,,,,,,,,,,,,,,,,,,,,,,,,,,,,,,,,,,,,,,,,,,,,,,,,,,,,,,
1725710448.07582,1725710448.076229,222.0,0.0,4243.589844,4247.820313,4234.743652,4292.94873,4215.512695,4261.794922,4342.436035,4231.282227,4188.205078,4213.333496,4529.487305,4491.666504,4366.538574,4428.717773,2910.0,1.0,15.0,,,,0.0,4.0,4.0,4.0,4.0,4.0,4.0,4.0,4.0,4.0,4.0,4.0,4.0,4.0,4.0,100.0,,,,,,,,,,,,,,,,,,,,,,,,,,,,,,,,,,,,,,,,,,,,,,,,,,,,,,,,,,,,,,,,,,,,,,,,,,,,,,,,,,,,,,,,,,,,,,,,,,,,,,,,,,,,,,,,,,,,,,,,,,,,,,,,,,,
1725710448.079724,1725710448.080133,223.0,0.0,4246.794922,4247.563965,4232.436035,4294.615234,4216.025879,4261.538574,4344.743652,4227.692383,4190.769043,4215.384766,4523.333496,4491.922852,4365.897461,4428.974121,3152.0,1.0,15.0,,,,0.0,4.0,4.0,4.0,4.0,4.0,4.0,4.0,4.0,4.0,4.0,4.0,4.0,4.0,4.0,100.0,,,,,,,,,,,,,,,,,,,,,,,,,,,,,,,,,,,,,,,,,,,,,,,,,,,,,,,,,,,,,,,,,,,,,,,,,,,,,,,,,,,,,,,,,,,,,,,,,,,,,,,,,,,,,,,,,,,,,,,,,,,,,,,,,,,
1725710448.083628,1725710448.084037,224.0,0.0,4247.692383,4246.666504,4233.333496,4297.436035,4217.307617,4261.025879,4346.153809,4227.05127,4194.615234,4214.871582,4520.897461,4494.615234,4365.128418,4430.769043,3426.0,1.0,15.0,,,,0.0,4.0,4.0,4.0,4.0,4.0,4.0,4.0,4.0,4.0,4.0,4.0,4.0,4.0,4.0,100.0,,,,,,,,,,,,,,,,,,,,,,,,,,,,,,,,,,,,,,,,,,,,,,,,,,,,,,,,0.0,0.0,1.0,0.0,2048.0,0.076062,,,,,,,,,,,,,,,,,,,,,,,,,,,,,,,,,,,,,,,,,,,,,,,,,,,,,,,,,,,,,,,,,,,,,,
1725710448.087532,1725710448.087841,225.0,0.0,4246.794922,4246.153809,4237.563965,4299.743652,4217.94873,4260.512695,4348.333496,4230.641113,4198.846191,4213.589844,4523.589844,4499.615234,4365.512695,4434.230957,3934.0,1.0,15.0,,,,0.0,4.0,4.0,4.0,4.0,4.0,4.0,4.0,4.0,4.0,4.0,4.0,4.0,4.0,4.0,100.0,,,,,,,,,,,,,,,,,,,,,,,,,,,,,,,,,,,,,,,,,,,,,,,,,,,,,,,,,,,,,,,,,,,,,,,,,,,,,,,,,,,,,,,,,,,,,,,,,,,,,,,,,,,,,,,,,,,,,,,,,,,,,,,,,,,
1725710448.091436,1725710448.091745,226.0,0.0,4245.769043,4246.538574,4242.692383,4299.871582,4217.307617,4260.384766,4351.538574,4237.05127,4202.05127,4213.333496,4530.641113,4505.769043,4367.94873,4439.102539,2910.0,1.0,15.0,,,,0.0,4.0,4.0,4.0,4.0,4.0,4.0,4.0,4.0,4.0,4.0,4.0,4.0,4.0,4.0,100.0,,,,,,,,,,,,,,,,,,,,,,,,,,,,,,,,,,,,,,,,,,,,,,,,,,,,,,,,,,,,,,,,,,,,,,,,,,,,,,,,,,,,,,,,,,,,,,,,,,,,,,,,,,,,,,,,,,,,,,,,,,,,,,,,,,,
1725710448.09534,1725710448.095649,227.0,0.0,4246.153809,4247.179688,4246.153809,4297.692383,4215.769043,4260.769043,4354.743652,4242.563965,4203.717773,4215.128418,4539.615234,4510.897461,4372.179688,4444.102539,3152.0,1.0,15.0,,,,0.0,4.0,4.0,4.0,4.0,4.0,4.0,4.0,4.0,4.0,4.0,4.0,4.0,4.0,4.0,100.0,,,,,,,,,,,,,,,,,,,,,,,,,,,,,,,,,,,,,,,,,,,,,,,,,,,,,,,,,,,,,,,,,,,,,,,,,,,,,,,,,,,,,,,,,,,,,,,,,,,,,,,,,,,,,,,,,,,,,,,,,,,,,,,,,,,
1725710448.099244,1725710448.099553,228.0,0.0,4247.563965,4247.436035,4246.538574,4295.256348,4214.743652,4261.282227,4356.922852,4243.974121,4203.974121,4218.333496,4546.282227,4513.461426,4376.922852,4447.563965,3426.0,1.0,15.0,,,,0.0,4.0,4.0,4.0,4.0,4.0,4.0,4.0,4.0,4.0,4.0,4.0,4.0,4.0,4.0,100.0,,,,,,,,,,,,,,,,,,,,,,,,,,,,,,,,,,,,,,,,,,,,,,,,,,,,,,,,,,,,,,,,,,,,,,,,,,,,,,,,,,,,,,,,,,,,,,,,,,,,,,,,,,,,,,,,,,,,,,,,,,,,,,,,,,,
1725710448.103149,1725710448.103358,229.0,0.0,4248.461426,4247.179688,4244.871582,4294.871582,4214.871582,4261.922852,4357.94873,4240.384766,4203.461426,4221.153809,4547.179688,4512.94873,4380.512695,4448.461426,3934.0,1.0,15.0,,,,0.0,4.0,4.0,4.0,4.0,4.0,4.0,4.0,4.0,4.0,4.0,4.0,4.0,4.0,4.0,100.0,,,,,,,,,,,,,,,,,,,,,,,,,,,,,,,,,,,,,,,,,,,,,,,,,,,,,,,,,,,,,,,,,,,,,,,,,,,,,,,,,,,,,,,,,,,,,,,,,,,,,,,,,,,,,,,,,,,,,,,,,,,,,,,,,,,
1725710448.107053,1725710448.107262,230.0,0.0,4247.94873,4247.179688,4242.94873,4296.922852,4216.538574,4262.436035,4358.846191,4234.487305,4202.563965,4222.05127,4541.538574,4510.641113,4381.794922,4447.307617,2910.0,1.0,15.0,,,,0.0,4.0,4.0,4.0,4.0,4.0,4.0,4.0,4.0,4.0,4.0,4.0,4.0,4.0,4.0,100.0,,,,,,,,,,,,,,,,,,,,,,,,,,,,,,,,,,,,,,,,,,,,,,,,,,,,,,,,,,,,,,,,,,,,,,,,,,,,,,,,,,,,,,,,,,,,,,,,,,,,,,,,,,,,,,,,,,,,,,,,,,,,,,,,,,,
1725710448.110957,1725710448.111166,231.0,0.0,4246.666504,4248.333496,4242.05127,4299.615234,4218.846191,4262.563965,4360.512695,4229.487305,4201.410156,4220.897461,4532.692383,4507.94873,4380.769043,4445.384766,3152.0,1.0,15.0,,,,0.0,4.0,4.0,4.0,4.0,4.0,4.0,4.0,4.0,4.0,4.0,4.0,4.0,4.0,4.0,100.0,,,,,,,,,,,,,,,,,,,,,,,,,,,,,,,,,,,,,,,,,,,,,,,,,,,,,,,,,,,,,,,,,,,,,,,,,,,,,,,,,,,,,,,,,,,,,,,,,,,,,,,,,,,,,,,,,,,,,,,,,,,,,,,,,,,
1725710448.114861,1725710448.11507,232.0,0.0,4245.641113,4250.128418,4242.179688,4301.282227,4220.256348,4262.307617,4363.333496,4227.436035,4200.128418,4217.94873,4526.538574,4506.153809,4378.974121,4444.102539,3426.0,1.0,15.0,,,,0.0,4.0,4.0,4.0,4.0,4.0,4.0,4.0,4.0,4.0,4.0,4.0,4.0,4.0,4.0,100.0,,,,,,,,,,,,,,,,,,,,,,,,,,,,,,,,,,,,,,,,,,,,,,,,,,,,,,,,0.0,0.0,1.0,0.0,2048.0,0.076062,,,,,,,,,,,,,,,,,,,,,,,,,,,,,,,,,,,,,,,,,,,,,,,,,,,,,,,,,,,,,,,,,,,,,,
1725710448.118765,1725710448.118874,233.0,0.0,4245.641113,4251.410156,4242.94873,4301.538574,4220.0,4261.538574,4366.666504,4228.205078,4198.461426,4215.0,4526.282227,4505.897461,4378.077148,4443.717773,3934.0,1.0,15.0,,,,0.0,4.0,4.0,4.0,4.0,4.0,4.0,4.0,4.0,4.0,4.0,4.0,4.0,4.0,4.0,100.0,,,,,,,,,,,,,,,,,,,,,,,,,,,,,,,,,,,,,,,,,,,,,,,,,,,,,,,,,,,,,,,,,,,,,,,,,,,,,,,,,,,,,,,,,,,,,,,,,,,,,,,,,,,,,,,,,,,,,,,,,,,,,,,,,,,
1725710448.122669,1725710448.122778,234.0,0.0,4246.153809,4251.025879,4243.589844,4301.153809,4218.589844,4260.769043,4370.0,4230.384766,4197.179688,4213.461426,4531.282227,4506.666504,4378.717773,4443.846191,2910.0,1.0,15.0,,,,0.0,4.0,4.0,4.0,4.0,4.0,4.0,4.0,4.0,4.0,4.0,4.0,4.0,4.0,4.0,100.0,,,,,,,,,,,,,,,,,,,,,,,,,,,,,,,,,,,,,,,,,,,,,,,,,,,,,,,,,,,,,,,,,,,,,,,,,,,,,,,,,,,,,,,,,,,,,,,,,,,,,,,,,,,,,,,,,,,,,,,,,,,,,,,,,,,
1725710448.126573,1725710448.126682,235.0,0.0,4246.538574,4249.615234,4244.102539,4300.512695,4216.922852,4260.512695,4372.820313,4231.922852,4196.794922,4214.102539,4538.205078,4507.820313,4379.871582,4444.487305,3152.0,1.0,15.0,,,,0.0,4.0,4.0,4.0,4.0,4.0,4.0,4.0,4.0,4.0,4.0,4.0,4.0,4.0,4.0,100.0,,,,,,,,,,,,,,,,,,,,,,,,,,,,,,,,,,,,,,,,,,,,,,,,,,,,,,,,,,,,,,,,,,,,,,,,,,,,,,,,,,,,,,,,,,,,,,,,,,,,,,,,,,,,,,,,,,,,,,,,,,,,,,,,,,,
1725710448.130477,1725710448.130686,236.0,0.0,4246.410156,4248.333496,4244.487305,4299.615234,4216.410156,4261.282227,4374.743652,4232.05127,4197.692383,4216.666504,4543.589844,4508.717773,4379.743652,4445.384766,3426.0,1.0,15.0,,,,0.0,4.0,4.0,4.0,4.0,4.0,4.0,4.0,4.0,4.0,4.0,4.0,4.0,4.0,4.0,100.0,,,,,,,,,,,,,,,,,,,,,,,,,,,,,,,,,,,,,,,,,,,,,,,,,,,,,,,,,,,,,,,,,,,,,,,,,,,,,,,,,,,,,,,,,,,,,,,,,,,,,,,,,,,,,,,,,,,,,,,,,,,,,,,,,,,
1725710448.134381,1725710448.13459,237.0,0.0,4246.025879,4248.077148,4245.128418,4298.846191,4217.179688,4262.692383,4375.769043,4231.025879,4198.717773,4219.871582,4544.743652,4508.846191,4377.692383,4446.153809,3934.0,1.0,15.0,,,,0.0,4.0,4.0,4.0,4.0,4.0,4.0,4.0,4.0,4.0,4.0,4.0,4.0,4.0,4.0,100.0,,,,,,,,,,,,,,,,,,,,,,,,,,,,,,,,,,,,,,,,,,,,,,,,,,,,,,,,,,,,,,,,,,,,,,,,,,,,,,,,,,,,,,,,,,,,,,,,,,,,,,,,,,,,,,,,,,,,,,,,,,,,,,,,,,,
1725710448.138286,1725710448.138495,238.0,0.0,4246.025879,4248.717773,4246.153809,4298.461426,4218.461426,4263.717773,4376.153809,4230.128418,4198.974121,4222.179688,4541.282227,4508.461426,4374.487305,4446.025879,2910.0,1.0,15.0,,,,0.0,4.0,4.0,4.0,4.0,4.0,4.0,4.0,4.0,4.0,4.0,4.0,4.0,4.0,4.0,100.0,,,,,,,,,,,,,,,,,,,,,,,,,,,,,,,,,,,,,,,,,,,,,,,,,,,,,,,,,,,,,,,,,,,,,,,,,,,,,,,,,,,,,,,,,,,,,,,,,,,,,,,,,,,,,,,,,,,,,,,,,,,,,,,,,,,
1725710448.14219,1725710448.142499,239.0,0.0,4246.538574,4249.743652,4247.05127,4299.358887,4219.102539,4263.205078,4377.05127,4230.384766,4198.589844,4222.820313,4535.256348,4507.692383,4371.922852,4445.128418,3152.0,1.0,15.0,,,,0.0,4.0,4.0,4.0,4.0,4.0,4.0,4.0,4.0,4.0,4.0,4.0,4.0,4.0,4.0,100.0,,,,,,,,,,,,,,,,,,,,,,,,,,,,,,,,,,,,,,,,,,,,,,,,,,,,,,,,,,,,,,,,,,,,,,,,,,,,,,,,,,,,,,,,,,,,,,,,,,,,,,,,,,,,,,,,,,,,,,,,,,,,,,,,,,,
1725710448.146094,1725710448.146403,240.0,0.0,4247.820313,4251.025879,4247.307617,4301.282227,4219.230957,4261.794922,4379.358887,4231.410156,4198.077148,4221.794922,4531.153809,4507.563965,4371.922852,4444.487305,3426.0,1.0,15.0,,,,0.0,4.0,4.0,4.0,4.0,4.0,4.0,4.0,4.0,4.0,4.0,4.0,4.0,4.0,4.0,100.0,,,,,,,,,,,,,,,,,1.0,0.0,0.0,,,,,,,,,,,,,,,,,,,,,,,,,,,,,,,,,,,,,0.0,0.0,1.0,0.0,2048.0,0.00298,1.257108,1.095482,0.245395,0.149021,0.100309,1.673923,1.894978,0.338099,0.155532,0.094284,1.045028,0.741811,0.218383,0.08874,0.042735,1.438227,0.997794,0.426776,0.278151,0.131957,0.554077,0.450728,0.209568,0.094362,0.038643,0.18869,0.375683,0.162333,0.079356,0.041139,5.284502,4.570867,0.903343,0.551851,0.210241,0.803323,1.497728,1.496338,0.410532,0.165687,0.891995,0.766145,0.959499,0.387091,0.138145,1.342878,0.892899,1.00177,0.510348,0.190743,2.937618,1.362797,1.013694,0.570859,0.402104,2.563993,1.683854,1.177926,0.429431,0.129093,3.827546,2.41625,1.406208,0.51091,0.126763,2.447201,1.909969,0.832088,0.273615,0.119315
1725710448.149998,1725710448.150307,241.0,0.0,4250.0,4252.563965,4246.794922,4303.333496,4219.230957,4261.410156,4382.692383,4231.794922,4197.563965,4220.256348,4532.563965,4508.846191,4374.871582,4445.128418,3934.0,1.0,15.0,,,,0.0,4.0,4.0,4.0,4.0,4.0,4.0,4.0,4.0,4.0,4.0,4.0,4.0,4.0,4.0,100.0,,,,,,,,,,,,,,,,,,,,,,,,,,,,,,,,,,,,,,,,,,,,,,,,,,,,,,,,,,,,,,,,,,,,,,,,,,,,,,,,,,,,,,,,,,,,,,,,,,,,,,,,,,,,,,,,,,,,,,,,,,,,,,,,,,,
1725710448.153902,1725710448.154211,242.0,0.0,4252.436035,4253.589844,4246.410156,4304.871582,4219.743652,4262.563965,4385.897461,4231.025879,4196.922852,4219.358887,4539.230957,4511.410156,4379.358887,4447.307617,2910.0,1.0,15.0,,,,0.0,4.0,4.0,4.0,4.0,4.0,4.0,4.0,4.0,4.0,4.0,4.0,4.0,4.0,4.0,100.0,,,,,,,,,,,,,,,,,,,,,,,,,,,,,,,,,,,,,,,,,,,,,,,,,,,,,,,,,,,,,,,,,,,,,,,,,,,,,,,,,,,,,,,,,,,,,,,,,,,,,,,,,,,,,,,,,,,,,,,,,,,,,,,,,,,
1725710448.157806,1725710448.158215,243.0,0.0,4253.589844,4253.589844,4247.05127,4305.256348,4220.384766,4264.230957,4387.307617,4230.128418,4196.666504,4219.358887,4547.179688,4513.846191,4383.077148,4450.128418,3152.0,1.0,15.0,,,,0.0,4.0,4.0,4.0,4.0,4.0,4.0,4.0,4.0,4.0,4.0,4.0,4.0,4.0,4.0,100.0,,,,,,,,,,,,,,,,,,,,,,,,,,,,,,,,,,,,,,,,,,,,,,,,,,,,,,,,,,,,,,,,,,,,,,,,,,,,,,,,,,,,,,,,,,,,,,,,,,,,,,,,,,,,,,,,,,,,,,,,,,,,,,,,,,,
1725710448.16171,1725710448.162119,244.0,0.0,4253.077148,4252.436035,4248.846191,4305.0,4220.384766,4263.846191,4386.282227,4230.0,4197.436035,4219.743652,4551.282227,4514.871582,4384.230957,4451.666504,3426.0,1.0,15.0,,,,0.0,4.0,4.0,4.0,4.0,4.0,4.0,4.0,4.0,4.0,4.0,4.0,4.0,4.0,4.0,100.0,,,,,,,,,,,,,,,,,,,,,,,,,,,,,,,,,,,,,,,,,,,,,,,,,,,,,,,,,,,,,,,,,,,,,,,,,,,,,,,,,,,,,,,,,,,,,,,,,,,,,,,,,,,,,,,,,,,,,,,,,,,,,,,,,,,
1725710448.165614,1725710448.166023,245.0,0.0,4251.410156,4250.256348,4250.384766,4304.102539,4219.102539,4260.641113,4383.077148,4230.641113,4198.974121,4219.615234,4548.461426,4513.974121,4382.692383,4450.641113,3934.0,1.0,15.0,,,,0.0,4.0,4.0,4.0,4.0,4.0,4.0,4.0,4.0,4.0,4.0,4.0,4.0,4.0,4.0,100.0,,,,,,,,,,,,,,,,,,,,,,,,,,,,,,,,,,,,,,,,,,,,,,,,,,,,,,,,,,,,,,,,,,,,,,,,,,,,,,,,,,,,,,,,,,,,,,,,,,,,,,,,,,,,,,,,,,,,,,,,,,,,,,,,,,,
1725710448.169518,1725710448.169927,246.0,0.0,4250.0,4248.589844,4249.615234,4302.820313,4217.307617,4255.384766,4378.461426,4231.410156,4199.871582,4218.846191,4540.384766,4511.282227,4379.743652,4447.563965,2910.0,1.0,15.0,,,,0.0,4.0,4.0,4.0,4.0,4.0,4.0,4.0,4.0,4.0,4.0,4.0,4.0,4.0,4.0,100.0,,,,,,,,,,,,,,,,,,,,,,,,,,,,,,,,,,,,,,,,,,,,,,,,,,,,,,,,,,,,,,,,,,,,,,,,,,,,,,,,,,,,,,,,,,,,,,,,,,,,,,,,,,,,,,,,,,,,,,,,,,,,,,,,,,,
1725710448.173422,1725710448.173831,247.0,0.0,4248.974121,4248.205078,4245.769043,4300.769043,4216.282227,4250.769043,4374.102539,4231.538574,4198.333496,4217.692383,4531.025879,4508.077148,4376.410156,4443.461426,3152.0,1.0,15.0,,,,0.0,4.0,4.0,4.0,4.0,4.0,4.0,4.0,4.0,4.0,4.0,4.0,4.0,4.0,4.0,100.0,,,,,,,,,,,,,,,,,,,,,,,,,,,,,,,,,,,,,,,,,,,,,,,,,,,,,,,,,,,,,,,,,,,,,,,,,,,,,,,,,,,,,,,,,,,,,,,,,,,,,,,,,,,,,,,,,,,,,,,,,,,,,,,,,,,
1725710448.177327,1725710448.177635,248.0,0.0,4247.563965,4248.333496,4239.871582,4298.205078,4216.922852,4249.615234,4370.384766,4231.282227,4194.487305,4216.666504,4524.102539,4505.256348,4373.461426,4439.743652,3426.0,1.0,15.0,,,,0.0,4.0,4.0,4.0,4.0,4.0,4.0,4.0,4.0,4.0,4.0,4.0,4.0,4.0,4.0,100.0,,,,,,,,,,,,,,,,,,,,,,,,,,,,,,,,,,,,,,,,,,,,,,,,,,,,,,,,0.0,0.0,1.0,0.0,2048.0,0.00298,,,,,,,,,,,,,,,,,,,,,,,,,,,,,,,,,,,,,,,,,,,,,,,,,,,,,,,,,,,,,,,,,,,,,,
1725710448.181231,1725710448.18154,249.0,0.0,4245.128418,4247.307617,4234.871582,4295.897461,4217.94873,4252.692383,4367.05127,4230.897461,4189.487305,4215.256348,4521.025879,4503.589844,4370.512695,4436.410156,3934.0,1.0,15.0,,,,0.0,4.0,4.0,4.0,4.0,4.0,4.0,4.0,4.0,4.0,4.0,4.0,4.0,4.0,4.0,100.0,,,,,,,,,,,,,,,,,,,,,,,,,,,,,,,,,,,,,,,,,,,,,,,,,,,,,,,,,,,,,,,,,,,,,,,,,,,,,,,,,,,,,,,,,,,,,,,,,,,,,,,,,,,,,,,,,,,,,,,,,,,,,,,,,,,
1725710448.185135,1725710448.185444,250.0,0.0,4241.794922,4243.077148,4232.692383,4294.230957,4217.563965,4258.205078,4363.333496,4230.641113,4185.769043,4211.794922,4520.897461,4501.794922,4366.922852,4433.077148,2910.0,1.0,15.0,,,,0.0,4.0,4.0,4.0,4.0,4.0,4.0,4.0,4.0,4.0,4.0,4.0,4.0,4.0,4.0,100.0,,,,,,,,,,,,,,,,,,,,,,,,,,,,,,,,,,,,,,,,,,,,,,,,,,,,,,,,,,,,,,,,,,,,,,,,,,,,,,,,,,,,,,,,,,,,,,,,,,,,,,,,,,,,,,,,,,,,,,,,,,,,,,,,,,,
1725710448.189039,1725710448.189348,251.0,0.0,4238.077148,4235.256348,4233.333496,4293.205078,4214.487305,4262.692383,4358.589844,4230.384766,4183.974121,4205.256348,4521.025879,4497.820313,4361.922852,4428.461426,3152.0,1.0,15.0,,,,0.0,4.0,4.0,4.0,4.0,4.0,4.0,4.0,4.0,4.0,4.0,4.0,4.0,4.0,4.0,100.0,,,,,,,,,,,,,,,,,,,,,,,,,,,,,,,,,,,,,,,,,,,,,,,,,,,,,,,,,,,,,,,,,,,,,,,,,,,,,,,,,,,,,,,,,,,,,,,,,,,,,,,,,,,,,,,,,,,,,,,,,,,,,,,,,,,
1725710448.192943,1725710448.193152,252.0,0.0,4233.717773,4226.153809,4234.102539,4291.153809,4209.358887,4263.461426,4353.077148,4229.615234,4183.461426,4195.641113,4518.205078,4490.512695,4355.0,4421.794922,3426.0,1.0,15.0,,,,0.0,4.0,4.0,4.0,4.0,4.0,4.0,4.0,4.0,4.0,4.0,4.0,4.0,4.0,4.0,100.0,,,,,,,,,,,,,,,,,,,,,,,,,,,,,,,,,,,,,,,,,,,,,,,,,,,,,,,,,,,,,,,,,,,,,,,,,,,,,,,,,,,,,,,,,,,,,,,,,,,,,,,,,,,,,,,,,,,,,,,,,,,,,,,,,,,
1725710448.196847,1725710448.197056,253.0,0.0,4228.205078,4218.717773,4231.666504,4286.153809,4203.589844,4260.641113,4347.179688,4228.077148,4183.077148,4185.512695,4511.282227,4480.769043,4346.410156,4414.102539,3934.0,1.0,15.0,,,,0.0,4.0,4.0,4.0,4.0,4.0,4.0,4.0,4.0,4.0,4.0,4.0,4.0,4.0,4.0,100.0,,,,,,,,,,,,,,,,,,,,,,,,,,,,,,,,,,,,,,,,,,,,,,,,,,,,,,,,,,,,,,,,,,,,,,,,,,,,,,,,,,,,,,,,,,,,,,,,,,,,,,,,,,,,,,,,,,,,,,,,,,,,,,,,,,,
1725710448.200751,1725710448.20096,254.0,0.0,4222.05127,4214.102539,4225.128418,4277.94873,4198.461426,4256.666504,4342.307617,4227.179688,4183.077148,4179.230957,4502.820313,4472.563965,4337.692383,4407.820313,2910.0,1.0,15.0,,,,0.0,4.0,4.0,4.0,4.0,4.0,4.0,4.0,4.0,4.0,4.0,4.0,4.0,4.0,4.0,100.0,,,,,,,,,,,,,,,,,,,,,,,,,,,,,,,,,,,,,,,,,,,,,,,,,,,,,,,,,,,,,,,,,,,,,,,,,,,,,,,,,,,,,,,,,,,,,,,,,,,,,,,,,,,,,,,,,,,,,,,,,,,,,,,,,,,
1725710448.204655,1725710448.204964,255.0,0.0,4216.410156,4212.05127,4217.307617,4269.102539,4195.641113,4254.487305,4340.0,4228.846191,4185.128418,4180.384766,4498.077148,4470.384766,4331.666504,4406.025879,15.0,1.0,15.0,,,,0.0,4.0,4.0,4.0,4.0,4.0,4.0,4.0,4.0,4.0,4.0,4.0,4.0,4.0,4.0,100.0,,,,,,,,,,,,,,,,,,,,,,,,,,,,,,,,,,,,,,,,,,,,,,,,,,,,,,,,,,,,,,,,,,,,,,,,,,,,,,,,,,,,,,,,,,,,,,,,,,,,,,,,,,,,,,,,,,,,,,,,,,,,,,,,,,,
1725710448.208559,1725710448.208868,0.0,0.0,4213.333496,4211.410156,4213.333496,4263.846191,4195.512695,4255.641113,4341.025879,4234.487305,4191.025879,4189.615234,4501.153809,4476.794922,4331.538574,4409.615234,2705.0,1.0,15.0,,,,0.0,4.0,4.0,4.0,4.0,4.0,4.0,4.0,4.0,4.0,4.0,4.0,4.0,4.0,4.0,100.0,,,,,,,,,,,,,,,,,,,,,,,,,,,,,,,,,,,,,,,,,,,,,,,,,,,,,,,,0.0,0.0,1.0,0.0,2048.0,0.00298,,,,,,,,,,,,,,,,,,,,,,,,,,,,,,,,,,,,,,,,,,,,,,,,,,,,,,,,,,,,,,,,,,,,,,
1725710448.212464,1725710448.212772,1.0,0.0,4214.358887,4212.436035,4216.153809,4265.384766,4198.333496,4259.487305,4344.487305,4243.077148,4200.769043,4203.846191,4512.05127,4490.256348,4339.102539,4417.179688,2588.0,1.0,15.0,,,,0.0,4.0,4.0,4.0,4.0,4.0,4.0,4.0,4.0,4.0,4.0,4.0,4.0,4.0,4.0,100.0,,,,,,,,,,,,,,,,,,,,,,,,,,,,,,,,,,,,,,,,,,,,,,,,,,,,,,,,,,,,,,,,,,,,,,,,,,,,,,,,,,,,,,,,,,,,,,,,,,,,,,,,,,,,,,,,,,,,,,,,,,,,,,,,,,,
1725710448.216368,1725710448.216677,2.0,0.0,4220.0,4215.641113,4224.871582,4273.333496,4203.205078,4263.461426,4348.333496,4251.922852,4212.05127,4218.205078,4527.692383,4506.538574,4352.94873,4426.922852,2513.0,1.0,15.0,,,,0.0,4.0,4.0,4.0,4.0,4.0,4.0,4.0,4.0,4.0,4.0,4.0,4.0,4.0,4.0,100.0,,,,,,,,,,,,,,,,,,,,,,,,,,,,,,,,,,,,,,,,,,,,,,,,,,,,,,,,,,,,,,,,,,,,,,,,,,,,,,,,,,,,,,,,,,,,,,,,,,,,,,,,,,,,,,,,,,,,,,,,,,,,,,,,,,,
1725710448.220271,1725710448.220681,3.0,0.0,4228.974121,4220.897461,4234.230957,4284.358887,4208.589844,4265.641113,4350.769043,4257.436035,4221.153809,4229.230957,4543.333496,4520.128418,4369.230957,4437.307617,2483.0,1.0,15.0,,,,0.0,4.0,4.0,4.0,4.0,4.0,4.0,4.0,4.0,4.0,4.0,4.0,4.0,4.0,4.0,100.0,,,,,,,,,,,,,,,,,,,,,,,,,,,,,,,,,,,,,,,,,,,,,,,,,,,,,,,,,,,,,,,,,,,,,,,,,,,,,,,,,,,,,,,,,,,,,,,,,,,,,,,,,,,,,,,,,,,,,,,,,,,,,,,,,,,
1725710448.224176,1725710448.224585,4.0,0.0,4238.589844,4226.922852,4239.615234,4293.717773,4212.820313,4265.641113,4350.641113,4258.077148,4224.743652,4235.512695,4555.128418,4527.436035,4383.846191,4447.307617,2453.0,1.0,15.0,,,,0.0,4.0,4.0,4.0,4.0,4.0,4.0,4.0,4.0,4.0,4.0,4.0,4.0,4.0,4.0,100.0,,,,,,,,,,,,,,,,,,,,,,,,,,,,,,,,,,,,,,,,,,,,,,,,,,,,,,,,,,,,,,,,,,,,,,,,,,,,,,,,,,,,,,,,,,,,,,,,,,,,,,,,,,,,,,,,,,,,,,,,,,,,,,,,,,,
1725710448.22808,1725710448.228489,5.0,0.0,4246.025879,4231.794922,4239.102539,4298.077148,4215.128418,4264.487305,4347.820313,4255.0,4222.692383,4237.692383,4561.025879,4528.205078,4394.102539,4455.897461,2413.0,1.0,15.0,,,,0.0,4.0,4.0,4.0,4.0,4.0,4.0,4.0,4.0,4.0,4.0,4.0,4.0,4.0,4.0,100.0,,,,,,,,,,,,,,,,,,,,,,,,,,,,,,,,,,,,,,,,,,,,,,,,,,,,,,,,,,,,,,,,,,,,,,,,,,,,,,,,,,,,,,,,,,,,,,,,,,,,,,,,,,,,,,,,,,,,,,,,,,,,,,,,,,,
1725710448.231984,1725710448.232393,6.0,0.0,4249.615234,4234.230957,4235.512695,4297.692383,4215.256348,4262.820313,4343.589844,4250.897461,4218.077148,4237.563965,4561.410156,4525.384766,4399.102539,4461.538574,2454.0,1.0,15.0,,,,0.0,4.0,4.0,4.0,4.0,4.0,4.0,4.0,4.0,4.0,4.0,4.0,4.0,4.0,4.0,100.0,,,,,,,,,,,,,,,,,,,,,,,,,,,,,,,,,,,,,,,,,,,,,,,,,,,,,,,,,,,,,,,,,,,,,,,,,,,,,,,,,,,,,,,,,,,,,,,,,,,,,,,,,,,,,,,,,,,,,,,,,,,,,,,,,,,
1725710448.235888,1725710448.236197,7.0,0.0,4249.871582,4235.128418,4233.333496,4295.512695,4214.230957,4261.538574,4339.230957,4248.077148,4214.871582,4236.538574,4559.487305,4522.94873,4399.487305,4462.820313,2486.0,1.0,15.0,,,,0.0,4.0,4.0,4.0,4.0,4.0,4.0,4.0,4.0,4.0,4.0,4.0,4.0,4.0,4.0,100.0,,,,,,,,,,,,,,,,,,,,,,,,,,,,,,,,,,,,,,,,,,,,,,,,,,,,,,,,,,,,,,,,,,,,,,,,,,,,,,,,,,,,,,,,,,,,,,,,,,,,,,,,,,,,,,,,,,,,,,,,,,,,,,,,,,,
1725710448.239792,1725710448.240101,8.0,0.0,4248.974121,4236.153809,4235.256348,4294.743652,4213.717773,4260.769043,4335.769043,4247.436035,4215.0,4235.769043,4557.436035,4523.077148,4396.410156,4459.230957,2474.0,1.0,15.0,,,,0.0,4.0,4.0,4.0,4.0,4.0,4.0,4.0,4.0,4.0,4.0,4.0,4.0,4.0,4.0,100.0,,,,,,,,,,,,,,,,,,,,,,,,,,,,,,,,,,,,,,,,,,,,,,,,,,,,,,,,0.0,0.0,1.0,0.0,2048.0,0.00298,,,,,,,,,,,,,,,,,,,,,,,,,,,,,,,,,,,,,,,,,,,,,,,,,,,,,,,,,,,,,,,,,,,,,,
1725710448.243696,1725710448.244005,9.0,0.0,4248.589844,4239.102539,4240.512695,4296.666504,4214.358887,4260.512695,4333.589844,4248.205078,4216.922852,4235.256348,4555.897461,4524.615234,4391.410156,4452.692383,2561.0,1.0,15.0,,,,0.0,4.0,4.0,4.0,4.0,4.0,4.0,4.0,4.0,4.0,4.0,4.0,4.0,4.0,4.0,100.0,,,,,,,,,,,,,,,,,,,,,,,,,,,,,,,,,,,,,,,,,,,,,,,,,,,,,,,,,,,,,,,,,,,,,,,,,,,,,,,,,,,,,,,,,,,,,,,,,,,,,,,,,,,,,,,,,,,,,,,,,,,,,,,,,,,
1725710448.2476,1725710448.248009,10.0,0.0,4248.974121,4243.846191,4246.282227,4300.769043,4215.641113,4260.384766,4332.692383,4249.358887,4217.436035,4234.615234,4554.102539,4524.487305,4386.410156,4446.410156,2910.0,1.0,15.0,,,,0.0,4.0,4.0,4.0,4.0,4.0,4.0,4.0,4.0,4.0,4.0,4.0,4.0,4.0,4.0,100.0,,,,,,,,,,,,,,,,,,,,,,,,,,,,,,,,,,,,,,,,,,,,,,,,,,,,,,,,,,,,,,,,,,,,,,,,,,,,,,,,,,,,,,,,,,,,,,,,,,,,,,,,,,,,,,,,,,,,,,,,,,,,,,,,,,,
1725710448.251504,1725710448.251913,11.0,0.0,4249.230957,4248.589844,4249.358887,4304.743652,4216.794922,4260.256348,4333.205078,4250.128418,4214.871582,4233.205078,4552.05127,4521.025879,4383.461426,4443.589844,3152.0,1.0,15.0,,,,0.0,4.0,4.0,4.0,4.0,4.0,4.0,4.0,4.0,4.0,4.0,4.0,4.0,4.0,4.0,100.0,,,,,,,,,,,,,,,,,,,,,,,,,,,,,,,,,,,,,,,,,,,,,,,,,,,,,,,,,,,,,,,,,,,,,,,,,,,,,,,,,,,,,,,,,,,,,,,,,,,,,,,,,,,,,,,,,,,,,,,,,,,,,,,,,,,
1725710448.255408,1725710448.255817,12.0,0.0,4248.974121,4251.794922,4248.461426,4306.410156,4216.666504,4260.0,4335.256348,4249.487305,4210.256348,4230.384766,4551.282227,4516.153809,4384.743652,4445.384766,3426.0,1.0,15.0,,,,0.0,4.0,4.0,4.0,4.0,4.0,4.0,4.0,4.0,4.0,4.0,4.0,4.0,4.0,4.0,100.0,,,,,,,,,,,,,,,,,,,,,,,,,,,,,,,,,,,,,,,,,,,,,,,,,,,,,,,,,,,,,,,,,,,,,,,,,,,,,,,,,,,,,,,,,,,,,,,,,,,,,,,,,,,,,,,,,,,,,,,,,,,,,,,,,,,
1725710448.259313,1725710448.259722,13.0,0.0,4248.461426,4252.436035,4244.615234,4305.256348,4215.897461,4259.615234,4338.589844,4246.922852,4205.769043,4226.025879,4552.94873,4511.922852,4391.025879,4449.615234,3931.0,1.0,15.0,,,,0.0,4.0,4.0,4.0,4.0,4.0,4.0,4.0,4.0,4.0,4.0,4.0,4.0,4.0,4.0,100.0,,,,,,,,,,,,,,,,,,,,,,,,,,,,,,,,,,,,,,,,,,,,,,,,,,,,,,,,,,,,,,,,,,,,,,,,,,,,,,,,,,,,,,,,,,,,,,,,,,,,,,,,,,,,,,,,,,,,,,,,,,,,,,,,,,,
1725710448.263217,1725710448.263726,14.0,0.0,4247.94873,4251.282227,4239.615234,4302.307617,4215.512695,4258.717773,4341.794922,4242.05127,4202.436035,4220.641113,4555.897461,4509.615234,4399.487305,4451.922852,2910.0,1.0,15.0,,,,0.0,4.0,4.0,4.0,4.0,4.0,4.0,4.0,4.0,4.0,4.0,4.0,4.0,4.0,4.0,100.0,,,,,,,,,,,,,,,,,,,,,,,,,,,,,,,,,,,,,,,,,,,,,,,,,,,,,,,,,,,,,,,,,,,,,,,,,,,,,,,,,,,,,,,,,,,,,,,,,,,,,,,,,,,,,,,,,,,,,,,,,,,,,,,,,,,
1725710448.267121,1725710448.26763,15.0,0.0,4247.179688,4249.358887,4235.256348,4298.717773,4215.897461,4257.179688,4343.717773,4236.025879,4200.256348,4215.897461,4555.897461,4507.94873,4404.102539,4449.487305,3152.0,1.0,15.0,,,,0.0,4.0,4.0,4.0,4.0,4.0,4.0,4.0,4.0,4.0,4.0,4.0,4.0,4.0,4.0,100.0,,,,,,,,,,,,,,,,,,,,,,,,,,,,,,,,,,,,,,,,,,,,,,,,,,,,,,,,,,,,,,,,,,,,,,,,,,,,,,,,,,,,,,,,,,,,,,,,,,,,,,,,,,,,,,,,,,,,,,,,,,,,,,,,,,,
1725710448.271025,1725710448.271534,16.0,0.0,4246.153809,4248.077148,4232.692383,4295.897461,4216.922852,4255.384766,4343.333496,4230.512695,4198.205078,4212.820313,4549.102539,4505.641113,4399.871582,4442.94873,3426.0,1.0,15.0,,,,0.0,4.0,4.0,4.0,4.0,4.0,4.0,4.0,4.0,4.0,4.0,4.0,4.0,4.0,4.0,100.0,1.0,75.0,4.0,4.0,4.0,4.0,4.0,4.0,1.0,4.0,4.0,4.0,4.0,4.0,4.0,4.0,1.0,0.0,0.0,,,,,,,,,,,,,,,,,,,,,,,,,,,,,,,,,,,,,0.0,0.0,1.0,0.0,1.0,0.0,1.377426,1.208679,0.225647,0.149845,0.102783,1.85909,2.011683,0.37944,0.16333,0.109409,1.155741,0.833359,0.240454,0.097996,0.041497,1.608732,0.963862,0.40356,0.258651,0.114731,0.565308,0.442185,0.213578,0.090245,0.033965,0.25678,0.343004,0.197698,0.08204,0.042447,4.746928,4.473433,0.816923,0.502713,0.179512,0.675387,1.352329,1.638432,0.392641,0.161044,0.828503,0.725477,1.016704,0.381861,0.129974,1.334334,0.85099,1.00772,0.523377,0.181687,3.010445,1.479823,1.045157,0.620951,0.408367,2.608427,2.027521,1.228053,0.385144,0.121252,4.090904,2.414304,1.360431,0.486414,0.123042,2.664405,2.142105,0.845657,0.261506,0.122227
1725710448.274929,1725710448.275438,17.0,0.0,4245.0,4247.436035,4232.05127,4295.128418,4217.307617,4254.230957,4341.410156,4227.05127,4196.025879,4212.05127,4536.538574,4502.179688,4387.307617,4436.538574,3931.0,1.0,15.0,,,,0.0,4.0,4.0,4.0,4.0,4.0,4.0,4.0,4.0,4.0,4.0,4.0,4.0,4.0,4.0,100.0,,,,,,,,,,,,,,,,,,,,,,,,,,,,,,,,,,,,,,,,,,,,,,,,,,,,,,,,,,,,,,,,,,,,,,,,,,,,,,,,,,,,,,,,,,,,,,,,,,,,,,,,,,,,,,,,,,,,,,,,,,,,,,,,,,,
1725710448.278833,1725710448.279342,18.0,0.0,4244.615234,4247.307617,4232.820313,4296.410156,4216.666504,4254.358887,4340.0,4226.794922,4193.974121,4213.077148,4524.487305,4498.846191,4373.333496,4433.846191,2910.0,1.0,15.0,,,,0.0,4.0,4.0,4.0,4.0,4.0,4.0,4.0,4.0,4.0,4.0,4.0,4.0,4.0,4.0,100.0,,,,,,,,,,,,,,,,,,,,,,,,,,,,,,,,,,,,,,,,,,,,,,,,,,,,,,,,,,,,,,,,,,,,,,,,,,,,,,,,,,,,,,,,,,,,,,,,,,,,,,,,,,,,,,,,,,,,,,,,,,,,,,,,,,,
1725710448.282737,1725710448.283146,19.0,0.0,4245.0,4247.436035,4233.717773,4298.717773,4215.641113,4255.0,4340.128418,4228.589844,4193.205078,4215.128418,4520.256348,4497.563965,4366.538574,4435.769043,3152.0,1.0,15.0,,,,0.0,4.0,4.0,4.0,4.0,4.0,4.0,4.0,4.0,4.0,4.0,4.0,4.0,4.0,4.0,100.0,,,,,,,,,,,,,,,,,,,,,,,,,,,,,,,,,,,,,,,,,,,,,,,,,,,,,,,,,,,,,,,,,,,,,,,,,,,,,,,,,,,,,,,,,,,,,,,,,,,,,,,,,,,,,,,,,,,,,,,,,,,,,,,,,,,
1725710448.286641,1725710448.28705,20.0,0.0,4245.641113,4247.820313,4233.846191,4300.256348,4215.0,4255.256348,4341.794922,4231.025879,4194.487305,4217.307617,4526.666504,4499.615234,4371.025879,4440.0,3426.0,1.0,15.0,,,,0.0,4.0,4.0,4.0,4.0,4.0,4.0,4.0,4.0,4.0,4.0,4.0,4.0,4.0,4.0,100.0,,,,,,,,,,,,,,,,,,,,,,,,,,,,,,,,,,,,,,,,,,,,,,,,,,,,,,,,,,,,,,,,,,,,,,,,,,,,,,,,,,,,,,,,,,,,,,,,,,,,,,,,,,,,,,,,,,,,,,,,,,,,,,,,,,,
1725710448.290545,1725710448.290954,21.0,0.0,4246.410156,4248.077148,4233.461426,4300.0,4215.0,4254.102539,4343.717773,4232.307617,4197.436035,4218.717773,4540.512695,4504.358887,4383.846191,4444.102539,3931.0,1.0,15.0,,,,0.0,4.0,4.0,4.0,4.0,4.0,4.0,4.0,4.0,4.0,4.0,4.0,4.0,4.0,4.0,100.0,,,,,,,,,,,,,,,,,,,,,,,,,,,,,,,,,,,,,,,,,,,,,,,,,,,,,,,,,,,,,,,,,,,,,,,,,,,,,,,,,,,,,,,,,,,,,,,,,,,,,,,,,,,,,,,,,,,,,,,,,,,,,,,,,,,
1725710448.294449,1725710448.294859,22.0,0.0,4247.179688,4247.94873,4233.333496,4298.589844,4215.0,4252.05127,4344.615234,4232.563965,4200.128418,4219.230957,4554.358887,4509.358887,4397.692383,4447.179688,2910.0,1.0,15.0,,,,0.0,4.0,4.0,4.0,4.0,4.0,4.0,4.0,4.0,4.0,4.0,4.0,4.0,4.0,4.0,100.0,,,,,,,,,,,,,,,,,,,,,,,,,,,,,,,,,,,,,,,,,,,,,,,,,,,,,,,,,,,,,,,,,,,,,,,,,,,,,,,,,,,,,,,,,,,,,,,,,,,,,,,,,,,,,,,,,,,,,,,,,,,,,,,,,,,
1725710448.298354,1725710448.298663,23.0,0.0,4247.820313,4247.179688,4234.102539,4298.077148,4214.743652,4250.384766,4344.230957,4232.179688,4200.897461,4218.974121,4561.410156,4512.307617,4405.641113,4449.615234,3152.0,1.0,15.0,,,,0.0,4.0,4.0,4.0,4.0,4.0,4.0,4.0,4.0,4.0,4.0,4.0,4.0,4.0,4.0,100.0,,,,,,,,,,,,,,,,,,,,,,,,,,,,,,,,,,,,,,,,,,,,,,,,,,,,,,,,,,,,,,,,,,,,,,,,,,,,,,,,,,,,,,,,,,,,,,,,,,,,,,,,,,,,,,,,,,,,,,,,,,,,,,,,,,,
1725710448.302258,1725710448.302567,24.0,0.0,4248.589844,4246.922852,4235.0,4300.0,4214.743652,4250.0,4342.820313,4231.794922,4199.358887,4217.94873,4559.358887,4511.666504,4405.128418,4452.436035,3426.0,1.0,15.0,,,,0.0,4.0,4.0,4.0,4.0,4.0,4.0,4.0,4.0,4.0,4.0,4.0,4.0,4.0,4.0,100.0,,,,,,,,,,,,,,,,,,,,,,,,,,,,,,,,,,,,,,,,,,,,,,,,,,,,,,,,0.0,0.0,1.0,0.0,1.0,0.0,,,,,,,,,,,,,,,,,,,,,,,,,,,,,,,,,,,,,,,,,,,,,,,,,,,,,,,,,,,,,,,,,,,,,,
1725710448.306162,1725710448.306471,25.0,0.0,4249.102539,4247.692383,4235.512695,4303.974121,4214.871582,4250.769043,4341.282227,4231.410156,4196.794922,4216.538574,4550.769043,4508.846191,4398.717773,4455.384766,3931.0,1.0,15.0,,,,0.0,4.0,4.0,4.0,4.0,4.0,4.0,4.0,4.0,4.0,4.0,4.0,4.0,4.0,4.0,100.0,,,,,,,,,,,,,,,,,,,,,,,,,,,,,,,,,,,,,,,,,,,,,,,,,,,,,,,,,,,,,,,,,,,,,,,,,,,,,,,,,,,,,,,,,,,,,,,,,,,,,,,,,,,,,,,,,,,,,,,,,,,,,,,,,,,
1725710448.310066,1725710448.310375,26.0,0.0,4249.871582,4249.487305,4235.641113,4308.461426,4215.128418,4251.410156,4340.0,4230.512695,4194.743652,4215.128418,4541.922852,4506.538574,4392.05127,4457.820313,2910.0,1.0,15.0,,,,0.0,4.0,4.0,4.0,4.0,4.0,4.0,4.0,4.0,4.0,4.0,4.0,4.0,4.0,4.0,100.0,,,,,,,,,,,,,,,,,,,,,,,,,,,,,,,,,,,,,,,,,,,,,,,,,,,,,,,,,,,,,,,,,,,,,,,,,,,,,,,,,,,,,,,,,,,,,,,,,,,,,,,,,,,,,,,,,,,,,,,,,,,,,,,,,,,
1725710448.31397,1725710448.314179,27.0,0.0,4250.641113,4251.282227,4236.410156,4311.025879,4215.128418,4251.794922,4339.615234,4229.615234,4194.743652,4214.871582,4538.205078,4507.436035,4388.717773,4458.717773,3152.0,1.0,15.0,,,,0.0,4.0,4.0,4.0,4.0,4.0,4.0,4.0,4.0,4.0,4.0,4.0,4.0,4.0,4.0,100.0,,,,,,,,,,,,,,,,,,,,,,,,,,,,,,,,,,,,,,,,,,,,,,,,,,,,,,,,,,,,,,,,,,,,,,,,,,,,,,,,,,,,,,,,,,,,,,,,,,,,,,,,,,,,,,,,,,,,,,,,,,,,,,,,,,,
1725710448.317874,1725710448.318083,28.0,0.0,4251.282227,4251.922852,4238.461426,4311.025879,4214.871582,4251.666504,4340.128418,4229.230957,4196.666504,4215.641113,4540.128418,4511.794922,4388.717773,4458.333496,3426.0,1.0,15.0,,,,0.0,4.0,4.0,4.0,4.0,4.0,4.0,4.0,4.0,4.0,4.0,4.0,4.0,4.0,4.0,100.0,,,,,,,,,,,,,,,,,,,,,,,,,,,,,,,,,,,,,,,,,,,,,,,,,,,,,,,,,,,,,,,,,,,,,,,,,,,,,,,,,,,,,,,,,,,,,,,,,,,,,,,,,,,,,,,,,,,,,,,,,,,,,,,,,,,
1725710448.321778,1725710448.321987,29.0,0.0,4251.538574,4251.538574,4241.410156,4309.358887,4214.615234,4251.410156,4341.410156,4230.256348,4199.871582,4217.307617,4543.846191,4517.820313,4389.615234,4457.307617,3931.0,1.0,15.0,,,,0.0,4.0,4.0,4.0,4.0,4.0,4.0,4.0,4.0,4.0,4.0,4.0,4.0,4.0,4.0,100.0,,,,,,,,,,,,,,,,,,,,,,,,,,,,,,,,,,,,,,,,,,,,,,,,,,,,,,,,,,,,,,,,,,,,,,,,,,,,,,,,,,,,,,,,,,,,,,,,,,,,,,,,,,,,,,,,,,,,,,,,,,,,,,,,,,,
1725710448.325682,1725710448.325792,30.0,0.0,4251.153809,4250.512695,4244.615234,4308.077148,4215.0,4250.897461,4342.179688,4232.436035,4203.846191,4219.230957,4545.256348,4522.94873,4389.615234,4456.538574,2910.0,1.0,15.0,,,,0.0,4.0,4.0,4.0,4.0,4.0,4.0,4.0,4.0,4.0,4.0,4.0,4.0,4.0,4.0,100.0,,,,,,,,,,,,,,,,,,,,,,,,,,,,,,,,,,,,,,,,,,,,,,,,,,,,,,,,,,,,,,,,,,,,,,,,,,,,,,,,,,,,,,,,,,,,,,,,,,,,,,,,,,,,,,,,,,,,,,,,,,,,,,,,,,,
1725710448.329586,1725710448.329696,31.0,0.0,4250.512695,4249.743652,4246.922852,4308.846191,4216.025879,4250.641113,4341.410156,4234.871582,4208.333496,4220.384766,4543.333496,4525.897461,4389.615234,4456.666504,3152.0,1.0,15.0,,,,0.0,4.0,4.0,4.0,4.0,4.0,4.0,4.0,4.0,4.0,4.0,4.0,4.0,4.0,4.0,100.0,,,,,,,,,,,,,,,,,,,,,,,,,,,,,,,,,,,,,,,,,,,,,,,,,,,,,,,,,,,,,,,,,,,,,,,,,,,,,,,,,,,,,,,,,,,,,,,,,,,,,,,,,,,,,,,,,,,,,,,,,,,,,,,,,,,
1725710448.33349,1725710448.3336,32.0,0.0,4249.871582,4249.615234,4247.436035,4311.410156,4217.179688,4250.769043,4339.230957,4236.410156,4212.05127,4220.0,4540.512695,4526.410156,4391.410156,4457.820313,0.0,1.0,15.0,,,,0.0,4.0,4.0,4.0,4.0,4.0,4.0,4.0,4.0,4.0,4.0,4.0,4.0,4.0,4.0,100.0,,,,,,,,,,,,,,,,,,,,,,,,,,,,,,,,,,,,,,,,,,,,,,,,,,,,,,,,0.0,0.0,1.0,0.0,1.0,0.0,,,,,,,,,,,,,,,,,,,,,,,,,,,,,,,,,,,,,,,,,,,,,,,,,,,,,,,,,,,,,,,,,,,,,,
1725710448.337395,1725710448.337504,33.0,0.0,4249.871582,4250.128418,4246.794922,4313.974121,4217.307617,4251.922852,4336.410156,4236.538574,4213.205078,4217.820313,4539.871582,4524.871582,4394.871582,4459.487305,0.0,1.0,15.0,,,,0.0,4.0,4.0,4.0,4.0,4.0,4.0,4.0,4.0,4.0,4.0,4.0,4.0,4.0,4.0,100.0,,,,,,,,,,,,,,,,,,,,,,,,,,,,,,,,,,,,,,,,,,,,,,,,,,,,,,,,,,,,,,,,,,,,,,,,,,,,,,,,,,,,,,,,,,,,,,,,,,,,,,,,,,,,,,,,,,,,,,,,,,,,,,,,,,,
1725710448.341299,1725710448.341308,34.0,0.0,4250.512695,4250.256348,4246.025879,4314.615234,4216.153809,4253.974121,4334.487305,4235.897461,4211.538574,4215.897461,4543.205078,4522.563965,4397.94873,4460.512695,0.0,1.0,15.0,,,,0.0,4.0,4.0,4.0,4.0,4.0,4.0,4.0,4.0,4.0,4.0,4.0,4.0,4.0,4.0,100.0,,,,,,,,,,,,,,,,,,,,,,,,,,,,,,,,,,,,,,,,,,,,,,,,,,,,,,,,,,,,,,,,,,,,,,,,,,,,,,,,,,,,,,,,,,,,,,,,,,,,,,,,,,,,,,,,,,,,,,,,,,,,,,,,,,,
1725710448.345203,1725710448.345212,35.0,0.0,4251.282227,4249.615234,4246.153809,4312.820313,4214.871582,4256.025879,4334.102539,4235.512695,4209.102539,4216.153809,4549.487305,4521.666504,4398.205078,4460.384766,0.0,1.0,15.0,,,,0.0,4.0,4.0,4.0,4.0,4.0,4.0,4.0,4.0,4.0,4.0,4.0,4.0,4.0,4.0,100.0,,,,,,,,,,,,,,,,,,,,,,,,,,,,,,,,,,,,,,,,,,,,,,,,,,,,,,,,,,,,,,,,,,,,,,,,,,,,,,,,,,,,,,,,,,,,,,,,,,,,,,,,,,,,,,,,,,,,,,,,,,,,,,,,,,,
1725710448.349107,1725710448.349116,36.0,0.0,4251.794922,4248.717773,4247.179688,4310.384766,4215.0,4256.666504,4334.358887,4235.897461,4208.333496,4219.102539,4555.384766,4523.461426,4395.641113,4458.461426,0.0,1.0,15.0,,,,0.0,4.0,4.0,4.0,4.0,4.0,4.0,4.0,4.0,4.0,4.0,4.0,4.0,4.0,4.0,100.0,,,,,,,,,,,,,,,,,,,,,,,,,,,,,,,,,,,,,,,,,,,,,,,,,,,,,,,,,,,,,,,,,,,,,,,,,,,,,,,,,,,,,,,,,,,,,,,,,,,,,,,,,,,,,,,,,,,,,,,,,,,,,,,,,,,
1725710448.353011,1725710448.35312,37.0,0.0,4251.410156,4248.077148,4248.077148,4309.743652,4216.025879,4255.384766,4333.974121,4236.794922,4211.025879,4223.205078,4558.077148,4525.897461,4392.05127,4455.0,0.0,1.0,15.0,,,,0.0,4.0,4.0,4.0,4.0,4.0,4.0,4.0,4.0,4.0,4.0,4.0,4.0,4.0,4.0,100.0,,,,,,,,,,,,,,,,,,,,,,,,,,,,,,,,,,,,,,,,,,,,,,,,,,,,,,,,,,,,,,,,,,,,,,,,,,,,,,,,,,,,,,,,,,,,,,,,,,,,,,,,,,,,,,,,,,,,,,,,,,,,,,,,,,,
1725710448.356915,1725710448.357024,38.0,0.0,4250.128418,4248.333496,4248.077148,4311.410156,4216.410156,4252.820313,4332.307617,4237.563965,4215.0,4226.282227,4556.153809,4525.769043,4389.487305,4450.769043,0.0,1.0,15.0,,,,0.0,4.0,4.0,4.0,4.0,4.0,4.0,4.0,4.0,4.0,4.0,4.0,4.0,4.0,4.0,100.0,,,,,,,,,,,,,,,,,,,,,,,,,,,,,,,,,,,,,,,,,,,,,,,,,,,,,,,,,,,,,,,,,,,,,,,,,,,,,,,,,,,,,,,,,,,,,,,,,,,,,,,,,,,,,,,,,,,,,,,,,,,,,,,,,,,
1725710448.360819,1725710448.360929,39.0,0.0,4248.461426,4248.589844,4247.436035,4313.589844,4214.615234,4250.384766,4329.358887,4237.563965,4216.794922,4226.282227,4550.641113,4521.794922,4388.077148,4447.05127,0.0,1.0,15.0,,,,0.0,4.0,4.0,4.0,4.0,4.0,4.0,4.0,4.0,4.0,4.0,4.0,4.0,4.0,4.0,100.0,,,,,,,,,,,,,,,,,,,,,,,,,,,,,,,,,,,,,,,,,,,,,,,,,,,,,,,,,,,,,,,,,,,,,,,,,,,,,,,,,,,,,,,,,,,,,,,,,,,,,,,,,,,,,,,,,,,,,,,,,,,,,,,,,,,
1725710448.364723,1725710448.364833,40.0,0.0,4246.922852,4247.436035,4246.410156,4313.205078,4210.384766,4249.230957,4325.769043,4236.282227,4213.974121,4223.077148,4544.615234,4515.641113,4387.307617,4445.0,0.0,1.0,15.0,,,,0.0,4.0,4.0,4.0,4.0,4.0,4.0,4.0,4.0,4.0,4.0,4.0,4.0,4.0,4.0,100.0,,,,,,,,,,,,,,,,,,,,,,,,,,,,,,,,,,,,,,,,,,,,,,,,,,,,,,,,0.0,0.0,1.0,0.0,1.0,0.0,,,,,,,,,,,,,,,,,,,,,,,,,,,,,,,,,,,,,,,,,,,,,,,,,,,,,,,,,,,,,,,,,,,,,,
1725710448.368627,1725710448.368837,41.0,0.0,4246.153809,4244.230957,4245.897461,4309.102539,4204.871582,4249.358887,4322.436035,4234.615234,4207.563965,4218.846191,4540.512695,4510.769043,4386.282227,4445.0,0.0,1.0,15.0,,,,0.0,4.0,4.0,4.0,4.0,4.0,4.0,4.0,4.0,4.0,4.0,4.0,4.0,4.0,4.0,100.0,,,,,,,,,,,,,,,,,,,,,,,,,,,,,,,,,,,,,,,,,,,,,,,,,,,,,,,,,,,,,,,,,,,,,,,,,,,,,,,,,,,,,,,,,,,,,,,,,,,,,,,,,,,,,,,,,,,,,,,,,,,,,,,,,,,
1725710448.372532,1725710448.372741,42.0,0.0,4246.282227,4239.743652,4245.897461,4303.205078,4200.0,4250.128418,4319.871582,4233.205078,4201.666504,4216.153809,4539.102539,4509.230957,4384.358887,4445.897461,0.0,1.0,15.0,,,,0.0,4.0,4.0,4.0,4.0,4.0,4.0,4.0,4.0,4.0,4.0,4.0,4.0,4.0,4.0,100.0,,,,,,,,,,,,,,,,,,,,,,,,,,,,,,,,,,,,,,,,,,,,,,,,,,,,,,,,,,,,,,,,,,,,,,,,,,,,,,,,,,,,,,,,,,,,,,,,,,,,,,,,,,,,,,,,,,,,,,,,,,,,,,,,,,,
1725710448.376436,1725710448.376645,43.0,0.0,4246.922852,4235.769043,4246.282227,4298.333496,4197.820313,4250.384766,4317.820313,4232.820313,4199.871582,4216.282227,4539.230957,4510.384766,4381.922852,4446.282227,0.0,1.0,15.0,,,,0.0,4.0,4.0,4.0,4.0,4.0,4.0,4.0,4.0,4.0,4.0,4.0,4.0,4.0,4.0,100.0,,,,,,,,,,,,,,,,,,,,,,,,,,,,,,,,,,,,,,,,,,,,,,,,,,,,,,,,,,,,,,,,,,,,,,,,,,,,,,,,,,,,,,,,,,,,,,,,,,,,,,,,,,,,,,,,,,,,,,,,,,,,,,,,,,,
1725710448.38034,1725710448.380549,44.0,0.0,4247.820313,4234.102539,4246.538574,4296.922852,4199.358887,4250.256348,4315.769043,4233.846191,4202.820313,4218.461426,4540.128418,4512.307617,4379.871582,4445.641113,0.0,1.0,15.0,,,,0.0,4.0,4.0,4.0,4.0,4.0,4.0,4.0,4.0,4.0,4.0,4.0,4.0,4.0,4.0,100.0,,,,,,,,,,,,,,,,,,,,,,,,,,,,,,,,,,,,,,,,,,,,,,,,,,,,,,,,,,,,,,,,,,,,,,,,,,,,,,,,,,,,,,,,,,,,,,,,,,,,,,,,,,,,,,,,,,,,,,,,,,,,,,,,,,,
1725710448.384244,1725710448.384453,45.0,0.0,4248.846191,4234.615234,4246.666504,4298.461426,4203.205078,4250.256348,4313.333496,4235.384766,4207.820313,4220.641113,4541.025879,4514.230957,4379.615234,4444.615234,0.0,1.0,15.0,,,,0.0,4.0,4.0,4.0,4.0,4.0,4.0,4.0,4.0,4.0,4.0,4.0,4.0,4.0,4.0,100.0,,,,,,,,,,,,,,,,,,,,,,,,,,,,,,,,,,,,,,,,,,,,,,,,,,,,,,,,,,,,,,,,,,,,,,,,,,,,,,,,,,,,,,,,,,,,,,,,,,,,,,,,,,,,,,,,,,,,,,,,,,,,,,,,,,,
1725710448.388148,1725710448.388257,46.0,0.0,4249.743652,4235.641113,4246.666504,4300.384766,4206.410156,4250.897461,4310.128418,4236.922852,4210.897461,4221.153809,4541.410156,4515.641113,4382.179688,4444.615234,0.0,1.0,15.0,,,,0.0,4.0,4.0,4.0,4.0,4.0,4.0,4.0,4.0,4.0,4.0,4.0,4.0,4.0,4.0,100.0,,,,,,,,,,,,,,,,,,,,,,,,,,,,,,,,,,,,,,,,,,,,,,,,,,,,,,,,,,,,,,,,,,,,,,,,,,,,,,,,,,,,,,,,,,,,,,,,,,,,,,,,,,,,,,,,,,,,,,,,,,,,,,,,,,,
1725710448.392052,1725710448.392161,47.0,0.0,4249.871582,4235.128418,4246.538574,4300.0,4207.179688,4251.666504,4306.153809,4237.563965,4210.0,4220.0,4540.897461,4516.666504,4386.282227,4446.153809,0.0,1.0,15.0,,,,0.0,4.0,4.0,4.0,4.0,4.0,4.0,4.0,4.0,4.0,4.0,4.0,4.0,4.0,4.0,100.0,,,,,,,,,,,,,,,,,,,,,,,,,,,,,,,,,,,,,,,,,,,,,,,,,,,,,,,,,,,,,,,,,,,,,,,,,,,,,,,,,,,,,,,,,,,,,,,,,,,,,,,,,,,,,,,,,,,,,,,,,,,,,,,,,,,
1725710448.395956,1725710448.396066,48.0,0.0,4248.333496,4232.820313,4246.025879,4296.922852,4205.641113,4251.538574,4302.05127,4236.922852,4206.025879,4218.077148,4539.230957,4516.922852,4389.358887,4448.205078,0.0,1.0,15.0,,,,0.0,4.0,4.0,4.0,4.0,4.0,4.0,4.0,4.0,4.0,4.0,4.0,4.0,4.0,4.0,100.0,,,,,,,,,,,,,,,,,1.0,0.0,0.0,,,,,,,,,,,,,,,,,,,,,,,,,,,,,,,,,,,,,0.0,0.0,1.0,0.0,1.0,0.0,1.481326,1.231921,0.213111,0.138537,0.09727,1.929194,1.923047,0.396292,0.175275,0.120912,1.258517,0.870947,0.248771,0.102482,0.039995,1.68351,0.877286,0.346777,0.220784,0.098467,0.56951,0.402481,0.198718,0.077822,0.030682,0.326367,0.292457,0.245674,0.080389,0.041354,4.165291,3.904202,0.704224,0.428582,0.142427,0.558744,1.297324,1.651393,0.340464,0.15272,0.808742,0.746252,0.97316,0.346701,0.117565,1.190521,0.779882,0.919686,0.483233,0.176592,2.807762,1.516005,1.002146,0.62406,0.423537,2.594504,2.341201,1.15801,0.310751,0.116271,3.952158,2.175087,1.18658,0.432845,0.116606,2.785442,2.242965,0.782477,0.231664,0.122423
1725710448.39986,1725710448.39997,49.0,0.0,4245.0,4230.0,4245.384766,4292.820313,4203.974121,4250.769043,4298.461426,4235.641113,4201.153809,4216.666504,4537.692383,4515.897461,4389.102539,4448.974121,0.0,1.0,15.0,,,,0.0,4.0,4.0,4.0,4.0,4.0,4.0,4.0,4.0,4.0,4.0,4.0,4.0,4.0,4.0,100.0,,,,,,,,,,,,,,,,,,,,,,,,,,,,,,,,,,,,,,,,,,,,,,,,,,,,,,,,,,,,,,,,,,,,,,,,,,,,,,,,,,,,,,,,,,,,,,,,,,,,,,,,,,,,,,,,,,,,,,,,,,,,,,,,,,,
1725710448.403764,1725710448.403774,50.0,0.0,4241.282227,4228.461426,4245.128418,4290.641113,4204.358887,4250.897461,4296.666504,4234.230957,4198.077148,4216.153809,4538.717773,4513.077148,4385.256348,4446.666504,0.0,1.0,15.0,,,,0.0,4.0,4.0,4.0,4.0,4.0,4.0,4.0,4.0,4.0,4.0,4.0,4.0,4.0,4.0,100.0,,,,,,,,,,,,,,,,,,,,,,,,,,,,,,,,,,,,,,,,,,,,,,,,,,,,,,,,,,,,,,,,,,,,,,,,,,,,,,,,,,,,,,,,,,,,,,,,,,,,,,,,,,,,,,,,,,,,,,,,,,,,,,,,,,,
1725710448.407668,1725710448.407678,51.0,0.0,4239.230957,4229.102539,4245.512695,4291.794922,4207.436035,4253.461426,4297.436035,4233.205078,4198.333496,4216.666504,4543.846191,4509.230957,4380.256348,4441.922852,0.0,1.0,15.0,,,,0.0,4.0,4.0,4.0,4.0,4.0,4.0,4.0,4.0,4.0,4.0,4.0,4.0,4.0,4.0,100.0,,,,,,,,,,,,,,,,,,,,,,,,,,,,,,,,,,,,,,,,,,,,,,,,,,,,,,,,,,,,,,,,,,,,,,,,,,,,,,,,,,,,,,,,,,,,,,,,,,,,,,,,,,,,,,,,,,,,,,,,,,,,,,,,,,,
1725710448.411573,1725710448.411582,52.0,0.0,4240.384766,4231.282227,4246.538574,4295.0,4212.179688,4257.692383,4299.871582,4233.077148,4201.538574,4217.692383,4551.538574,4506.410156,4376.794922,4437.05127,0.0,1.0,15.0,,,,0.0,4.0,4.0,4.0,4.0,4.0,4.0,4.0,4.0,4.0,4.0,4.0,4.0,4.0,4.0,100.0,,,,,,,,,,,,,,,,,,,,,,,,,,,,,,,,,,,,,,,,,,,,,,,,,,,,,,,,,,,,,,,,,,,,,,,,,,,,,,,,,,,,,,,,,,,,,,,,,,,,,,,,,,,,,,,,,,,,,,,,,,,,,,,,,,,
1725710448.415477,1725710448.415586,53.0,0.0,4243.589844,4233.974121,4247.692383,4297.692383,4216.282227,4261.410156,4301.922852,4233.461426,4205.256348,4218.589844,4557.692383,4506.666504,4376.410156,4434.358887,0.0,1.0,15.0,,,,0.0,4.0,4.0,4.0,4.0,4.0,4.0,4.0,4.0,4.0,4.0,4.0,4.0,4.0,4.0,100.0,,,,,,,,,,,,,,,,,,,,,,,,,,,,,,,,,,,,,,,,,,,,,,,,,,,,,,,,,,,,,,,,,,,,,,,,,,,,,,,,,,,,,,,,,,,,,,,,,,,,,,,,,,,,,,,,,,,,,,,,,,,,,,,,,,,
1725710448.419381,1725710448.41949,54.0,0.0,4246.410156,4235.897461,4248.461426,4297.692383,4218.461426,4262.436035,4301.666504,4234.102539,4205.769043,4218.205078,4558.589844,4509.230957,4378.461426,4434.487305,0.0,1.0,15.0,,,,0.0,4.0,4.0,4.0,4.0,4.0,4.0,4.0,4.0,4.0,4.0,4.0,4.0,4.0,4.0,100.0,,,,,,,,,,,,,,,,,,,,,,,,,,,,,,,,,,,,,,,,,,,,,,,,,,,,,,,,,,,,,,,,,,,,,,,,,,,,,,,,,,,,,,,,,,,,,,,,,,,,,,,,,,,,,,,,,,,,,,,,,,,,,,,,,,,
1725710448.423285,1725710448.423394,55.0,0.0,4246.153809,4236.282227,4248.846191,4295.512695,4217.820313,4260.384766,4298.846191,4234.358887,4201.538574,4215.256348,4553.333496,4510.897461,4380.0,4436.153809,0.0,1.0,15.0,,,,0.0,4.0,4.0,4.0,4.0,4.0,4.0,4.0,4.0,4.0,4.0,4.0,4.0,4.0,4.0,100.0,,,,,,,,,,,,,,,,,,,,,,,,,,,,,,,,,,,,,,,,,,,,,,,,,,,,,,,,,,,,,,,,,,,,,,,,,,,,,,,,,,,,,,,,,,,,,,,,,,,,,,,,,,,,,,,,,,,,,,,,,,,,,,,,,,,
1725710448.427189,1725710448.427298,56.0,0.0,4242.563965,4235.512695,4248.589844,4293.333496,4215.641113,4255.897461,4295.512695,4233.717773,4193.846191,4210.128418,4545.0,4508.589844,4378.846191,4437.436035,0.0,1.0,15.0,,,,0.0,4.0,4.0,4.0,4.0,4.0,4.0,4.0,4.0,4.0,4.0,4.0,4.0,4.0,4.0,100.0,,,,,,,,,,,,,,,,,,,,,,,,,,,,,,,,,,,,,,,,,,,,,,,,,,,,,,,,0.0,0.0,1.0,0.0,1.0,0.0,,,,,,,,,,,,,,,,,,,,,,,,,,,,,,,,,,,,,,,,,,,,,,,,,,,,,,,,,,,,,,,,,,,,,,
1725710448.431093,1725710448.431103,57.0,0.0,4237.307617,4233.846191,4248.077148,4292.94873,4213.717773,4251.410156,4293.717773,4232.05127,4187.05127,4205.0,4538.461426,4502.563965,4375.256348,4436.794922,0.0,1.0,15.0,,,,0.0,4.0,4.0,4.0,4.0,4.0,4.0,4.0,4.0,4.0,4.0,4.0,4.0,4.0,4.0,100.0,,,,,,,,,,,,,,,,,,,,,,,,,,,,,,,,,,,,,,,,,,,,,,,,,,,,,,,,,,,,,,,,,,,,,,,,,,,,,,,,,,,,,,,,,,,,,,,,,,,,,,,,,,,,,,,,,,,,,,,,,,,,,,,,,,,
1725710448.434997,1725710448.435007,58.0,0.0,4233.461426,4232.05127,4247.692383,4293.717773,4213.717773,4248.974121,4293.846191,4230.128418,4185.384766,4202.05127,4536.282227,4496.922852,4371.282227,4433.974121,0.0,1.0,15.0,,,,0.0,4.0,4.0,4.0,4.0,4.0,4.0,4.0,4.0,4.0,4.0,4.0,4.0,4.0,4.0,100.0,,,,,,,,,,,,,,,,,,,,,,,,,,,,,,,,,,,,,,,,,,,,,,,,,,,,,,,,,,,,,,,,,,,,,,,,,,,,,,,,,,,,,,,,,,,,,,,,,,,,,,,,,,,,,,,,,,,,,,,,,,,,,,,,,,,
1725710448.438901,1725710448.438911,59.0,0.0,4232.692383,4230.769043,4247.05127,4294.230957,4215.512695,4249.230957,4293.974121,4229.358887,4189.358887,4202.307617,4537.05127,4495.512695,4369.615234,4430.512695,0.0,1.0,15.0,,,,0.0,4.0,4.0,4.0,4.0,4.0,4.0,4.0,4.0,4.0,4.0,4.0,4.0,4.0,4.0,100.0,,,,,,,,,,,,,,,,,,,,,,,,,,,,,,,,,,,,,,,,,,,,,,,,,,,,,,,,,,,,,,,,,,,,,,,,,,,,,,,,,,,,,,,,,,,,,,,,,,,,,,,,,,,,,,,,,,,,,,,,,,,,,,,,,,,
1725710448.442805,1725710448.442815,60.0,0.0,4234.615234,4230.512695,4245.897461,4293.974121,4216.794922,4251.153809,4292.307617,4230.256348,4195.641113,4203.974121,4537.179688,4498.846191,4370.384766,4427.94873,0.0,1.0,15.0,,,,0.0,4.0,4.0,4.0,4.0,4.0,4.0,4.0,4.0,4.0,4.0,4.0,4.0,4.0,4.0,100.0,,,,,,,,,,,,,,,,,,,,,,,,,,,,,,,,,,,,,,,,,,,,,,,,,,,,,,,,,,,,,,,,,,,,,,,,,,,,,,,,,,,,,,,,,,,,,,,,,,,,,,,,,,,,,,,,,,,,,,,,,,,,,,,,,,,
1725710448.446709,1725710448.446619,61.0,0.0,4237.179688,4231.538574,4245.0,4294.230957,4215.512695,4253.077148,4288.205078,4231.666504,4199.871582,4204.743652,4534.615234,4502.820313,4371.410156,4427.179688,0.0,1.0,15.0,,,,0.0,4.0,4.0,4.0,4.0,4.0,4.0,4.0,4.0,4.0,4.0,4.0,4.0,4.0,4.0,100.0,,,,,,,,,,,,,,,,,,,,,,,,,,,,,,,,,,,,,,,,,,,,,,,,,,,,,,,,,,,,,,,,,,,,,,,,,,,,,,,,,,,,,,,,,,,,,,,,,,,,,,,,,,,,,,,,,,,,,,,,,,,,,,,,,,,
