Timestamp,OriginalTimestamp,EEG.Counter,EEG.Interpolated,EEG.AF3,EEG.F7,EEG.F3,EEG.FC5,EEG.T7,EEG.P7,EEG.O1,EEG.O2,EEG.P8,EEG.T8,EEG.FC6,EEG.F4,EEG.F8,EEG.AF4,EEG.RawCq,EEG.Battery,EEG.BatteryPercent,MarkerIndex,MarkerType,MarkerValueInt,EEG.MarkerHardware,CQ.AF3,CQ.F7,CQ.F3,CQ.FC5,CQ.T7,CQ.P7,CQ.O1,CQ.O2,CQ.P8,CQ.T8,CQ.FC6,CQ.F4,CQ.F8,CQ.AF4,CQ.Overall,EQ.SampleRateQuality,EQ.OVERALL,EQ.AF3,EQ.F7,EQ.F3,EQ.FC5,EQ.T7,EQ.P7,EQ.O1,EQ.O2,EQ.P8,EQ.T8,EQ.FC6,EQ.F4,EQ.F8,EQ.AF4,MC.Action,MC.ActionPower,MC.IsActive,PM.Attention.IsActive,PM.Attention.Scaled,PM.Attention.Raw,PM.Attention.Min,PM.Attention.Max,PM.Engagement.IsActive,PM.Engagement.Scaled,PM.Engagement.Raw,PM.Engagement.Min,PM.Engagement.Max,PM.Excitement.IsActive,PM.Excitement.Scaled,PM.Excitement.Raw,PM.Excitement.Min,PM.Excitement.Max,PM.LongTermExcitement,PM.Stress.IsActive,PM.Stress.Scaled,PM.Stress.Raw,PM.Stress.Min,PM.Stress.Max,PM.Relaxation.IsActive,PM.Relaxation.Scaled,PM.Relaxation.Raw,PM.Relaxation.Min,PM.Relaxation.Max,PM.Interest.IsActive,PM.Interest.Scaled,PM.Interest.Raw,PM.Interest.Min,PM.Interest.Max,PM.Focus.IsActive,PM.Focus.Scaled,PM.Focus.Raw,PM.Focus.Min,PM.Focus.Max,FE.BlinkWink,FE.HorizontalEyesDirection,FE.UpperFaceAction,FE.UpperFaceActionPower,FE.LowerFaceAction,FE.LowerFaceActionPower,POW.AF3.Theta,POW.AF3.Alpha,POW.AF3.BetaL,POW.AF3.BetaH,POW.AF3.Gamma,POW.F7.Theta,POW.F7.Alpha,POW.F7.BetaL,POW.F7.BetaH,POW.F7.Gamma,POW.F3.Theta,POW.F3.Alpha,POW.F3.BetaL,POW.F3.BetaH,POW.F3.Gamma,POW.FC5.Theta,POW.FC5.Alpha,POW.FC5.BetaL,POW.FC5.BetaH,POW.FC5.Gamma,POW.T7.Theta,POW.T7.Alpha,POW.T7.BetaL,POW.T7.BetaH,POW.T7.Gamma,POW.P7.Theta,POW.P7.Alpha,POW.P7.BetaL,POW.P7.BetaH,POW.P7.Gamma,POW.O1.Theta,POW.O1.Alpha,POW.O1.BetaL,POW.O1.BetaH,POW.O1.Gamma,POW.O2.Theta,POW.O2.Alpha,POW.O2.BetaL,POW.O2.BetaH,POW.O2.Gamma,POW.P8.Theta,POW.P8.Alpha,POW.P8.BetaL,POW.P8.BetaH,POW.P8.Gamma,POW.T8.Theta,POW.T8.Alpha,POW.T8.BetaL,POW.T8.BetaH,POW.T8.Gamma,POW.FC6.Theta,POW.FC6.Alpha,POW.FC6.BetaL,POW.FC6.BetaH,POW.FC6.Gamma,POW.F4.Theta,POW.F4.Alpha,POW.F4.BetaL,POW.F4.BetaH,POW.F4.Gamma,POW.F8.Theta,POW.F8.Alpha,POW.F8.BetaL,POW.F8.BetaH,POW.F8.Gamma,POW.AF4.Theta,POW.AF4.Alpha,POW.AF4.BetaL,POW.AF4.BetaH,POW.AF4.Gamma
1725618214.603488,1725618214.603926,151.0,0.0,4242.436035,4229.743652,4276.666504,4277.563965,4202.692383,4218.974121,4216.025879,4216.538574,4216.538574,4217.820313,4526.410156,4518.077148,4375.641113,4443.333496,3061.0,2.0,35.0,7.0,1.0,1.0,0.0,4.0,4.0,4.0,4.0,4.0,4.0,4.0,4.0,4.0,4.0,4.0,4.0,4.0,4.0,100.0,,,,,,,,,,,,,,,,,,,,,,,,,,,,,,,,,,,,,,,,,,,,,,,,,,,,,,,,,,,,,,,,,,,,,,,,,,,,,,,,,,,,,,,,,,,,,,,,,,,,,,,,,,,,,,,,,,,,,,,,,,,,,,,,,,,
1725618214.607392,1725618214.60783,152.0,0.0,4245.384766,4229.487305,4275.769043,4276.794922,4202.563965,4219.230957,4215.641113,4215.0,4215.512695,4217.307617,4524.871582,4518.846191,4376.666504,4444.358887,3430.0,2.0,35.0,,,,0.0,4.0,4.0,4.0,4.0,4.0,4.0,4.0,4.0,4.0,4.0,4.0,4.0,4.0,4.0,100.0,,,,,,,,,,,,,,,,,,,,,,,,,,,,,,,,,,,,,,,,,,,,,,,,,,,,,,,,,,,,,,,,,,,,,,,,,,,,,,,,,,,,,,,,,,,,,,,,,,,,,,,,,,,,,,,,,,,,,,,,,,,,,,,,,,,
1725618214.611296,1725618214.611834,153.0,0.0,4247.05127,4229.102539,4275.641113,4276.666504,4202.436035,4220.0,4215.769043,4215.512695,4215.769043,4215.128418,4523.974121,4522.307617,4377.692383,4445.769043,3881.0,2.0,35.0,,,,0.0,4.0,4.0,4.0,4.0,4.0,4.0,4.0,4.0,4.0,4.0,4.0,4.0,4.0,4.0,100.0,,,,,,,,,,,,,,,,,,,,,,,,,,,,,,,,,,,,,,,,,,,,,,,,,,,,,,,,,,,,,,,,,,,,,,,,,,,,,,,,,,,,,,,,,,,,,,,,,,,,,,,,,,,,,,,,,,,,,,,,,,,,,,,,,,,
1725618214.6152,1725618214.615738,154.0,0.0,4247.563965,4229.102539,4277.05127,4276.666504,4202.307617,4220.641113,4216.282227,4218.333496,4216.922852,4211.410156,4524.487305,4527.436035,4378.333496,4447.820313,2900.0,2.0,35.0,,,,0.0,4.0,4.0,4.0,4.0,4.0,4.0,4.0,4.0,4.0,4.0,4.0,4.0,4.0,4.0,100.0,,,,,,,,,,,,,,,,,,,,,,,,,,,,,,,,,,,,,,,,,,,,,,,,,,,,,,,,0.0,0.0,1.0,0.0,1.0,0.0,,,,,,,,,,,,,,,,,,,,,,,,,,,,,,,,,,,,,,,,,,,,,,,,,,,,,,,,,,,,,,,,,,,,,,
1725618214.619105,1725618214.619642,155.0,0.0,4247.307617,4229.102539,4279.487305,4276.538574,4202.179688,4220.897461,4216.538574,4221.025879,4217.563965,4206.666504,4525.128418,4531.538574,4377.820313,4449.615234,3061.0,2.0,35.0,,,,0.0,4.0,4.0,4.0,4.0,4.0,4.0,4.0,4.0,4.0,4.0,4.0,4.0,4.0,4.0,100.0,,,,,,,,,,,,,,,,,,,,,,,,,,,,,,,,,,,,,,,,,,,,,,,,,,,,,,,,,,,,,,,,,,,,,,,,,,,,,,,,,,,,,,,,,,,,,,,,,,,,,,,,,,,,,,,,,,,,,,,,,,,,,,,,,,,
1725618214.623009,1725618214.623546,156.0,0.0,4247.05127,4229.230957,4281.666504,4276.025879,4201.794922,4220.384766,4216.025879,4220.384766,4216.153809,4202.307617,4524.743652,4532.05127,4374.743652,4449.743652,3430.0,2.0,35.0,,,,0.0,4.0,4.0,4.0,4.0,4.0,4.0,4.0,4.0,4.0,4.0,4.0,4.0,4.0,4.0,100.0,,,,,,,,,,,,,,,,,,,,,,,,,,,,,,,,,,,,,,,,,,,,,,,,,,,,,,,,,,,,,,,,,,,,,,,,,,,,,,,,,,,,,,,,,,,,,,,,,,,,,,,,,,,,,,,,,,,,,,,,,,,,,,,,,,,
1725618214.626913,1725618214.627451,157.0,0.0,4246.922852,4229.358887,4282.179688,4275.256348,4201.282227,4219.102539,4214.743652,4215.256348,4212.820313,4199.743652,4522.820313,4528.589844,4369.358887,4447.692383,3881.0,2.0,35.0,,,,0.0,4.0,4.0,4.0,4.0,4.0,4.0,4.0,4.0,4.0,4.0,4.0,4.0,4.0,4.0,100.0,,,,,,,,,,,,,,,,,,,,,,,,,,,,,,,,,,,,,,,,,,,,,,,,,,,,,,,,,,,,,,,,,,,,,,,,,,,,,,,,,,,,,,,,,,,,,,,,,,,,,,,,,,,,,,,,,,,,,,,,,,,,,,,,,,,
1725618214.630817,1725618214.631255,158.0,0.0,4247.436035,4229.871582,4281.025879,4275.128418,4200.641113,4217.179688,4213.333496,4207.820313,4209.487305,4199.487305,4520.256348,4523.974121,4363.974121,4444.358887,2900.0,2.0,35.0,,,,0.0,4.0,4.0,4.0,4.0,4.0,4.0,4.0,4.0,4.0,4.0,4.0,4.0,4.0,4.0,100.0,,,,,,,,,,,,,,,,,,,,,,,,,,,,,,,,,,,,,,,,,,,,,,,,,,,,,,,,,,,,,,,,,,,,,,,,,,,,,,,,,,,,,,,,,,,,,,,,,,,,,,,,,,,,,,,,,,,,,,,,,,,,,,,,,,,
1725618214.634721,1725618214.635159,159.0,0.0,4248.589844,4230.641113,4279.358887,4275.769043,4200.128418,4215.512695,4212.692383,4202.436035,4208.205078,4200.769043,4518.333496,4521.666504,4361.538574,4442.179688,3061.0,2.0,35.0,,,,0.0,4.0,4.0,4.0,4.0,4.0,4.0,4.0,4.0,4.0,4.0,4.0,4.0,4.0,4.0,100.0,,,,,,,,,,,,,,,,,,,,,,,,,,,,,,,,,,,,,,,,,,,,,,,,,,,,,,,,,,,,,,,,,,,,,,,,,,,,,,,,,,,,,,,,,,,,,,,,,,,,,,,,,,,,,,,,,,,,,,,,,,,,,,,,,,,
1725618214.638625,1725618214.639063,160.0,0.0,4250.641113,4231.153809,4278.461426,4276.794922,4200.128418,4215.384766,4213.461426,4202.307617,4210.0,4201.794922,4518.589844,4523.717773,4363.717773,4442.94873,3430.0,2.0,35.0,,,,0.0,4.0,4.0,4.0,4.0,4.0,4.0,4.0,4.0,4.0,4.0,4.0,4.0,4.0,4.0,100.0,,,,,,,,,,,,,,,,,,,,,,,,,,,,,,,,,,,,,,,,,,,,,,,,,,,,,,,,,,,,,,,,,,,,,,,,,,,,,,,,,,,,,,,,,,,,,,,,,,,,,,,,,,,,,,,,,,,,,,,,,,,,,,,,,,,
1725618214.642529,1725618214.643067,161.0,0.0,4253.717773,4230.769043,4279.358887,4277.563965,4200.897461,4217.436035,4215.0,4207.563965,4213.589844,4201.153809,4521.025879,4529.358887,4369.871582,4447.179688,3881.0,2.0,35.0,,,,0.0,4.0,4.0,4.0,4.0,4.0,4.0,4.0,4.0,4.0,4.0,4.0,4.0,4.0,4.0,100.0,,,,,,,,,,,,,,,,,,,,,,,,,,,,,,,,,,,,,,,,,,,,,,,,,,,,,,,,,,,,,,,,,,,,,,,,,,,,,,,,,,,,,,,,,,,,,,,,,,,,,,,,,,,,,,,,,,,,,,,,,,,,,,,,,,,
1725618214.646433,1725618214.646971,162.0,0.0,4257.05127,4229.743652,4282.563965,4278.333496,4202.179688,4221.282227,4216.538574,4214.487305,4216.666504,4199.358887,4524.871582,4535.769043,4376.666504,4453.846191,2900.0,2.0,35.0,,,,0.0,4.0,4.0,4.0,4.0,4.0,4.0,4.0,4.0,4.0,4.0,4.0,4.0,4.0,4.0,100.0,,,,,,,,,,,,,,,,,1.0,0.0,0.0,,,,,,,,,,,,,,,,,,,,,,,,,,,,,,,,,,,,,0.0,0.0,1.0,0.0,1.0,0.0,2.905838,1.533989,0.798924,0.331383,0.078678,2.586462,1.36254,0.574476,0.249715,0.143172,2.718822,1.058145,0.678922,0.328178,0.082284,1.49297,0.746711,0.452596,0.231504,0.033938,0.686247,0.320586,0.300057,0.226375,0.038629,0.27833,0.224995,0.449534,0.073461,0.079284,0.50391,0.309364,0.186266,0.141303,0.044466,1.433413,1.956806,0.618474,0.709656,0.266277,1.209857,2.363783,1.022707,0.454575,0.125811,2.571563,1.940158,1.347942,0.386655,0.209448,3.007538,2.010534,1.656153,0.690201,0.234101,3.544467,2.82166,1.976369,0.877792,0.223177,3.007969,2.313255,1.317134,0.646838,0.180575,3.851886,1.881937,1.187206,0.479683,0.122289
1725618214.650337,1725618214.650875,163.0,0.0,4260.641113,4229.743652,4287.692383,4279.615234,4203.333496,4225.256348,4217.436035,4218.974121,4217.563965,4198.461426,4528.589844,4540.641113,4381.025879,4461.153809,3061.0,2.0,35.0,,,,0.0,4.0,4.0,4.0,4.0,4.0,4.0,4.0,4.0,4.0,4.0,4.0,4.0,4.0,4.0,100.0,,,,,,,,,,,,,,,,,,,,,,,,,,,,,,,,,,,,,,,,,,,,,,,,,,,,,,,,,,,,,,,,,,,,,,,,,,,,,,,,,,,,,,,,,,,,,,,,,,,,,,,,,,,,,,,,,,,,,,,,,,,,,,,,,,,
1725618214.654241,1725618214.654879,164.0,0.0,4263.846191,4232.563965,4293.077148,4282.563965,4203.974121,4227.94873,4217.820313,4219.487305,4216.538574,4200.512695,4531.666504,4543.589844,4381.794922,4467.436035,3430.0,2.0,35.0,,,,0.0,4.0,4.0,4.0,4.0,4.0,4.0,4.0,4.0,4.0,4.0,4.0,4.0,4.0,4.0,100.0,,,,,,,,,,,,,,,,,,,,,,,,,,,,,,,,,,,,,,,,,,,,,,,,,,,,,,,,,,,,,,,,,,,,,,,,,,,,,,,,,,,,,,,,,,,,,,,,,,,,,,,,,,,,,,,,,,,,,,,,,,,,,,,,,,,
1725618214.658146,1725618214.658783,165.0,0.0,4266.666504,4238.205078,4297.563965,4287.307617,4205.128418,4228.461426,4217.94873,4218.589844,4215.128418,4205.384766,4533.974121,4546.153809,4381.025879,4471.538574,3881.0,2.0,35.0,,,,0.0,4.0,4.0,4.0,4.0,4.0,4.0,4.0,4.0,4.0,4.0,4.0,4.0,4.0,4.0,100.0,,,,,,,,,,,,,,,,,,,,,,,,,,,,,,,,,,,,,,,,,,,,,,,,,,,,,,,,,,,,,,,,,,,,,,,,,,,,,,,,,,,,,,,,,,,,,,,,,,,,,,,,,,,,,,,,,,,,,,,,,,,,,,,,,,,
1725618214.66205,1725618214.662687,166.0,0.0,4268.717773,4244.358887,4300.128418,4292.692383,4208.077148,4228.461426,4218.333496,4220.256348,4215.0,4211.410156,4535.769043,4550.0,4381.794922,4473.333496,2900.0,2.0,35.0,,,,0.0,4.0,4.0,4.0,4.0,4.0,4.0,4.0,4.0,4.0,4.0,4.0,4.0,4.0,4.0,100.0,,,,,,,,,,,,,,,,,,,,,,,,,,,,,,,,,,,,,,,,,,,,,,,,,,,,,,,,,,,,,,,,,,,,,,,,,,,,,,,,,,,,,,,,,,,,,,,,,,,,,,,,,,,,,,,,,,,,,,,,,,,,,,,,,,,
1725618214.665954,1725618214.666591,167.0,0.0,4269.871582,4247.820313,4301.025879,4296.922852,4212.94873,4229.871582,4218.846191,4226.025879,4216.794922,4215.897461,4537.692383,4555.512695,4385.512695,4473.717773,3061.0,2.0,35.0,,,,0.0,4.0,4.0,4.0,4.0,4.0,4.0,4.0,4.0,4.0,4.0,4.0,4.0,4.0,4.0,100.0,,,,,,,,,,,,,,,,,,,,,,,,,,,,,,,,,,,,,,,,,,,,,,,,,,,,,,,,,,,,,,,,,,,,,,,,,,,,,,,,,,,,,,,,,,,,,,,,,,,,,,,,,,,,,,,,,,,,,,,,,,,,,,,,,,,
1725618214.669858,1725618214.670595,168.0,0.0,4269.615234,4246.153809,4300.897461,4298.717773,4217.563965,4232.436035,4219.358887,4233.205078,4219.358887,4217.94873,4539.615234,4560.769043,4391.025879,4473.974121,3430.0,2.0,35.0,,,,0.0,4.0,4.0,4.0,4.0,4.0,4.0,4.0,4.0,4.0,4.0,4.0,4.0,4.0,4.0,100.0,,,,,,,,,,,,,,,,,,,,,,,,,,,,,,,,,,,,,,,,,,,,,,,,,,,,,,,,,,,,,,,,,,,,,,,,,,,,,,,,,,,,,,,,,,,,,,,,,,,,,,,,,,,,,,,,,,,,,,,,,,,,,,,,,,,
1725618214.673762,1725618214.6745,169.0,0.0,4268.333496,4240.641113,4300.256348,4297.94873,4219.102539,4234.230957,4219.102539,4236.153809,4221.153809,4218.077148,4541.538574,4562.436035,4395.0,4474.487305,3881.0,2.0,35.0,,,,0.0,4.0,4.0,4.0,4.0,4.0,4.0,4.0,4.0,4.0,4.0,4.0,4.0,4.0,4.0,100.0,,,,,,,,,,,,,,,,,,,,,,,,,,,,,,,,,,,,,,,,,,,,,,,,,,,,,,,,,,,,,,,,,,,,,,,,,,,,,,,,,,,,,,,,,,,,,,,,,,,,,,,,,,,,,,,,,,,,,,,,,,,,,,,,,,,
1725618214.677666,1725618214.678404,170.0,0.0,4267.563965,4234.615234,4299.615234,4295.512695,4216.025879,4232.820313,4218.333496,4232.179688,4221.153809,4217.820313,4542.563965,4559.615234,4394.871582,4474.871582,2900.0,2.0,35.0,,,,0.0,4.0,4.0,4.0,4.0,4.0,4.0,4.0,4.0,4.0,4.0,4.0,4.0,4.0,4.0,100.0,,,,,,,,,,,,,,,,,,,,,,,,,,,,,,,,,,,,,,,,,,,,,,,,,,,,,,,,0.0,0.0,1.0,0.0,1.0,0.0,,,,,,,,,,,,,,,,,,,,,,,,,,,,,,,,,,,,,,,,,,,,,,,,,,,,,,,,,,,,,,,,,,,,,,
1725618214.68157,1725618214.682308,171.0,0.0,4268.461426,4232.05127,4298.846191,4293.077148,4209.871582,4228.333496,4217.436035,4224.230957,4219.743652,4218.333496,4542.179688,4555.128418,4391.153809,4475.0,3061.0,2.0,35.0,,,,0.0,4.0,4.0,4.0,4.0,4.0,4.0,4.0,4.0,4.0,4.0,4.0,4.0,4.0,4.0,100.0,,,,,,,,,,,,,,,,,,,,,,,,,,,,,,,,,,,,,,,,,,,,,,,,,,,,,,,,,,,,,,,,,,,,,,,,,,,,,,,,,,,,,,,,,,,,,,,,,,,,,,,,,,,,,,,,,,,,,,,,,,,,,,,,,,,
1725618214.685474,1725618214.686212,172.0,0.0,4271.282227,4234.615234,4298.461426,4291.922852,4203.846191,4223.077148,4217.179688,4218.846191,4218.461426,4219.487305,4540.384766,4553.205078,4387.563965,4474.871582,3430.0,2.0,35.0,,,,0.0,4.0,4.0,4.0,4.0,4.0,4.0,4.0,4.0,4.0,4.0,4.0,4.0,4.0,4.0,100.0,,,,,,,,,,,,,,,,,,,,,,,,,,,,,,,,,,,,,,,,,,,,,,,,,,,,,,,,,,,,,,,,,,,,,,,,,,,,,,,,,,,,,,,,,,,,,,,,,,,,,,,,,,,,,,,,,,,,,,,,,,,,,,,,,,,
1725618214.689378,1725618214.690016,173.0,0.0,4274.358887,4241.153809,4298.333496,4292.307617,4200.897461,4219.871582,4217.692383,4220.769043,4217.94873,4220.128418,4537.820313,4555.128418,4387.179688,4475.256348,3881.0,2.0,35.0,,,,0.0,4.0,4.0,4.0,4.0,4.0,4.0,4.0,4.0,4.0,4.0,4.0,4.0,4.0,4.0,100.0,,,,,,,,,,,,,,,,,,,,,,,,,,,,,,,,,,,,,,,,,,,,,,,,,,,,,,,,,,,,,,,,,,,,,,,,,,,,,,,,,,,,,,,,,,,,,,,,,,,,,,,,,,,,,,,,,,,,,,,,,,,,,,,,,,,
1725618214.693282,1725618214.69392,174.0,0.0,4276.025879,4248.205078,4298.461426,4293.589844,4201.666504,4220.128418,4218.333496,4227.94873,4218.077148,4219.487305,4536.025879,4558.589844,4390.0,4476.538574,2900.0,2.0,35.0,,,,0.0,4.0,4.0,4.0,4.0,4.0,4.0,4.0,4.0,4.0,4.0,4.0,4.0,4.0,4.0,100.0,,,,,,,,,,,,,,,,,,,,,,,,,,,,,,,,,,,,,,,,,,,,,,,,,,,,,,,,,,,,,,,,,,,,,,,,,,,,,,,,,,,,,,,,,,,,,,,,,,,,,,,,,,,,,,,,,,,,,,,,,,,,,,,,,,,
1725618214.697187,1725618214.697824,175.0,0.0,4274.743652,4252.436035,4298.461426,4294.615234,4204.871582,4223.077148,4218.846191,4234.102539,4218.461426,4217.692383,4536.025879,4559.358887,4392.692383,4477.436035,3061.0,2.0,35.0,,,,0.0,4.0,4.0,4.0,4.0,4.0,4.0,4.0,4.0,4.0,4.0,4.0,4.0,4.0,4.0,100.0,,,,,,,,,,,,,,,,,,,,,,,,,,,,,,,,,,,,,,,,,,,,,,,,,,,,,,,,,,,,,,,,,,,,,,,,,,,,,,,,,,,,,,,,,,,,,,,,,,,,,,,,,,,,,,,,,,,,,,,,,,,,,,,,,,,
1725618214.701091,1725618214.701728,176.0,0.0,4270.769043,4252.179688,4298.333496,4294.358887,4207.820313,4226.025879,4218.846191,4234.615234,4218.974121,4215.897461,4538.077148,4555.256348,4392.436035,4476.666504,3430.0,2.0,35.0,,,,0.0,4.0,4.0,4.0,4.0,4.0,4.0,4.0,4.0,4.0,4.0,4.0,4.0,4.0,4.0,100.0,,,,,,,,,,,,,,,,,,,,,,,,,,,,,,,,,,,,,,,,,,,,,,,,,,,,,,,,,,,,,,,,,,,,,,,,,,,,,,,,,,,,,,,,,,,,,,,,,,,,,,,,,,,,,,,,,,,,,,,,,,,,,,,,,,,
1725618214.704995,1725618214.705533,177.0,0.0,4265.897461,4248.333496,4297.307617,4293.077148,4208.333496,4225.897461,4218.717773,4230.0,4219.358887,4215.512695,4540.897461,4548.077148,4389.743652,4473.205078,3881.0,2.0,35.0,,,,0.0,4.0,4.0,4.0,4.0,4.0,4.0,4.0,4.0,4.0,4.0,4.0,4.0,4.0,4.0,100.0,,,,,,,,,,,,,,,,,,,,,,,,,,,,,,,,,,,,,,,,,,,,,,,,,,,,,,,,,,,,,,,,,,,,,,,,,,,,,,,,,,,,,,,,,,,,,,,,,,,,,,,,,,,,,,,,,,,,,,,,,,,,,,,,,,,
1725618214.708899,1725618214.709437,178.0,0.0,4262.692383,4242.820313,4295.641113,4291.538574,4205.769043,4222.307617,4218.461426,4224.487305,4219.487305,4216.794922,4542.563965,4541.410156,4386.794922,4467.820313,2900.0,2.0,35.0,,,,0.0,4.0,4.0,4.0,4.0,4.0,4.0,4.0,4.0,4.0,4.0,4.0,4.0,4.0,4.0,100.0,,,,,,,,,,,,,,,,,,,,,,,,,,,,,,,,,,,,,,,,,,,,,,,,,,,,,,,,0.0,0.0,1.0,0.0,1.0,0.0,,,,,,,,,,,,,,,,,,,,,,,,,,,,,,,,,,,,,,,,,,,,,,,,,,,,,,,,,,,,,,,,,,,,,,
1725618214.712803,1725618214.713341,179.0,0.0,4262.307617,4237.820313,4294.358887,4290.512695,4202.307617,4217.563965,4218.846191,4222.05127,4218.589844,4218.333496,4542.307617,4538.205078,4385.897461,4462.436035,3061.0,2.0,35.0,,,,0.0,4.0,4.0,4.0,4.0,4.0,4.0,4.0,4.0,4.0,4.0,4.0,4.0,4.0,4.0,100.0,,,,,,,,,,,,,,,,,,,,,,,,,,,,,,,,,,,,,,,,,,,,,,,,,,,,,,,,,,,,,,,,,,,,,,,,,,,,,,,,,,,,,,,,,,,,,,,,,,,,,,,,,,,,,,,,,,,,,,,,,,,,,,,,,,,
1725618214.716707,1725618214.717345,180.0,0.0,4263.461426,4235.0,4294.102539,4289.615234,4200.897461,4215.384766,4219.743652,4223.974121,4217.307617,4218.974121,4540.769043,4539.230957,4387.05127,4459.358887,3430.0,2.0,35.0,,,,0.0,4.0,4.0,4.0,4.0,4.0,4.0,4.0,4.0,4.0,4.0,4.0,4.0,4.0,4.0,100.0,,,,,,,,,,,,,,,,,,,,,,,,,,,,,,,,,,,,,,,,,,,,,,,,,,,,,,,,,,,,,,,,,,,,,,,,,,,,,,,,,,,,,,,,,,,,,,,,,,,,,,,,,,,,,,,,,,,,,,,,,,,,,,,,,,,
1725618214.720611,1725618214.721249,181.0,0.0,4264.487305,4234.102539,4294.615234,4288.461426,4203.077148,4217.179688,4220.512695,4228.717773,4216.794922,4218.974121,4539.230957,4543.333496,4389.102539,4459.487305,3881.0,2.0,35.0,,,,0.0,4.0,4.0,4.0,4.0,4.0,4.0,4.0,4.0,4.0,4.0,4.0,4.0,4.0,4.0,100.0,,,,,,,,,,,,,,,,,,,,,,,,,,,,,,,,,,,,,,,,,,,,,,,,,,,,,,,,,,,,,,,,,,,,,,,,,,,,,,,,,,,,,,,,,,,,,,,,,,,,,,,,,,,,,,,,,,,,,,,,,,,,,,,,,,,
1725618214.724515,1725618214.725153,182.0,0.0,4263.589844,4234.358887,4294.743652,4287.05127,4207.692383,4221.410156,4220.769043,4233.333496,4217.820313,4218.846191,4538.717773,4547.820313,4390.256348,4461.666504,2900.0,2.0,35.0,,,,0.0,4.0,4.0,4.0,4.0,4.0,4.0,4.0,4.0,4.0,4.0,4.0,4.0,4.0,4.0,100.0,,,,,,,,,,,,,,,,,,,,,,,,,,,,,,,,,,,,,,,,,,,,,,,,,,,,,,,,,,,,,,,,,,,,,,,,,,,,,,,,,,,,,,,,,,,,,,,,,,,,,,,,,,,,,,,,,,,,,,,,,,,,,,,,,,,
1725618214.728419,1725618214.729057,183.0,0.0,4260.128418,4234.615234,4293.333496,4285.256348,4211.538574,4225.128418,4220.384766,4235.128418,4219.358887,4218.589844,4538.846191,4549.487305,4389.230957,4463.077148,3061.0,2.0,35.0,,,,0.0,4.0,4.0,4.0,4.0,4.0,4.0,4.0,4.0,4.0,4.0,4.0,4.0,4.0,4.0,100.0,,,,,,,,,,,,,,,,,,,,,,,,,,,,,,,,,,,,,,,,,,,,,,,,,,,,,,,,,,,,,,,,,,,,,,,,,,,,,,,,,,,,,,,,,,,,,,,,,,,,,,,,,,,,,,,,,,,,,,,,,,,,,,,,,,,
1725618214.732324,1725618214.733061,184.0,0.0,4254.871582,4233.333496,4289.871582,4283.333496,4212.307617,4225.897461,4220.0,4233.461426,4219.358887,4217.820313,4538.461426,4546.025879,4385.641113,4461.282227,3430.0,2.0,35.0,,,,0.0,4.0,4.0,4.0,4.0,4.0,4.0,4.0,4.0,4.0,4.0,4.0,4.0,4.0,4.0,100.0,,,,,,,,,,,,,,,,,,,,,,,,,,,,,,,,,,,,,,,,,,,,,,,,,,,,,,,,,,,,,,,,,,,,,,,,,,,,,,,,,,,,,,,,,,,,,,,,,,,,,,,,,,,,,,,,,,,,,,,,,,,,,,,,,,,
1725618214.736228,1725618214.736965,185.0,0.0,4248.717773,4230.0,4285.512695,4281.153809,4209.871582,4223.717773,4220.0,4228.974121,4216.922852,4215.769043,4535.512695,4537.820313,4379.871582,4455.256348,3881.0,2.0,35.0,,,,0.0,4.0,4.0,4.0,4.0,4.0,4.0,4.0,4.0,4.0,4.0,4.0,4.0,4.0,4.0,100.0,,,,,,,,,,,,,,,,,,,,,,,,,,,,,,,,,,,,,,,,,,,,,,,,,,,,,,,,,,,,,,,,,,,,,,,,,,,,,,,,,,,,,,,,,,,,,,,,,,,,,,,,,,,,,,,,,,,,,,,,,,,,,,,,,,,
1725618214.740132,1725618214.740869,186.0,0.0,4243.333496,4224.871582,4280.897461,4278.589844,4205.641113,4220.512695,4219.743652,4223.846191,4212.692383,4211.922852,4529.615234,4527.692383,4373.077148,4446.538574,2900.0,2.0,35.0,,,,0.0,4.0,4.0,4.0,4.0,4.0,4.0,4.0,4.0,4.0,4.0,4.0,4.0,4.0,4.0,100.0,,,,,,,,,,,,,,,,,,,,,,,,,,,,,,,,,,,,,,,,,,,,,,,,,,,,,,,,0.0,0.0,1.0,0.0,1.0,0.0,,,,,,,,,,,,,,,,,,,,,,,,,,,,,,,,,,,,,,,,,,,,,,,,,,,,,,,,,,,,,,,,,,,,,,
1725618214.744036,1725618214.744773,187.0,0.0,4238.717773,4218.846191,4276.025879,4275.128418,4201.410156,4218.717773,4218.077148,4219.358887,4207.820313,4206.025879,4521.282227,4518.846191,4366.153809,4437.692383,3061.0,2.0,35.0,,,,0.0,4.0,4.0,4.0,4.0,4.0,4.0,4.0,4.0,4.0,4.0,4.0,4.0,4.0,4.0,100.0,,,,,,,,,,,,,,,,,,,,,,,,,,,,,,,,,,,,,,,,,,,,,,,,,,,,,,,,,,,,,,,,,,,,,,,,,,,,,,,,,,,,,,,,,,,,,,,,,,,,,,,,,,,,,,,,,,,,,,,,,,,,,,,,,,,
1725618214.74794,1725618214.748578,188.0,0.0,4234.230957,4213.333496,4270.256348,4270.256348,4198.589844,4218.333496,4214.230957,4216.153809,4202.692383,4198.333496,4512.05127,4512.307617,4359.230957,4430.128418,3430.0,2.0,35.0,,,,0.0,4.0,4.0,4.0,4.0,4.0,4.0,4.0,4.0,4.0,4.0,4.0,4.0,4.0,4.0,100.0,,,,,,,,,,,,,,,,,,,,,,,,,,,,,,,,,,,,,,,,,,,,,,,,,,,,,,,,,,,,,,,,,,,,,,,,,,,,,,,,,,,,,,,,,,,,,,,,,,,,,,,,,,,,,,,,,,,,,,,,,,,,,,,,,,,
1725618214.751844,1725618214.752482,189.0,0.0,4228.589844,4208.589844,4262.820313,4263.461426,4196.282227,4218.205078,4208.333496,4214.102539,4197.436035,4189.230957,4503.205078,4507.05127,4351.153809,4423.077148,3881.0,2.0,35.0,,,,0.0,4.0,4.0,4.0,4.0,4.0,4.0,4.0,4.0,4.0,4.0,4.0,4.0,4.0,4.0,100.0,,,,,,,,,,,,,,,,,,,,,,,,,,,,,,,,,,,,,,,,,,,,,,,,,,,,,,,,,,,,,,,,,,,,,,,,,,,,,,,,,,,,,,,,,,,,,,,,,,,,,,,,,,,,,,,,,,,,,,,,,,,,,,,,,,,
1725618214.755748,1725618214.756386,190.0,0.0,4221.538574,4203.717773,4254.358887,4255.256348,4192.94873,4217.436035,4201.282227,4212.436035,4192.05127,4179.743652,4495.128418,4501.666504,4341.282227,4415.769043,2900.0,2.0,35.0,,,,0.0,4.0,4.0,4.0,4.0,4.0,4.0,4.0,4.0,4.0,4.0,4.0,4.0,4.0,4.0,100.0,,,,,,,,,,,,,,,,,,,,,,,,,,,,,,,,,,,,,,,,,,,,,,,,,,,,,,,,,,,,,,,,,,,,,,,,,,,,,,,,,,,,,,,,,,,,,,,,,,,,,,,,,,,,,,,,,,,,,,,,,,,,,,,,,,,
1725618214.759652,1725618214.76039,191.0,0.0,4214.743652,4198.077148,4247.179688,4247.179688,4187.563965,4216.153809,4195.0,4211.153809,4187.692383,4172.05127,4488.205078,4496.025879,4331.666504,4408.717773,3061.0,2.0,35.0,,,,0.0,4.0,4.0,4.0,4.0,4.0,4.0,4.0,4.0,4.0,4.0,4.0,4.0,4.0,4.0,100.0,,,,,,,,,,,,,,,,,,,,,,,,,,,,,,,,,,,,,,,,,,,,,,,,,,,,,,,,,,,,,,,,,,,,,,,,,,,,,,,,,,,,,,,,,,,,,,,,,,,,,,,,,,,,,,,,,,,,,,,,,,,,,,,,,,,
1725618214.763556,1725618214.764294,192.0,0.0,4211.025879,4193.205078,4244.102539,4241.666504,4181.410156,4216.282227,4191.794922,4211.025879,4186.025879,4168.846191,4483.846191,4491.922852,4326.410156,4405.128418,3430.0,2.0,35.0,,,,0.0,4.0,4.0,4.0,4.0,4.0,4.0,4.0,4.0,4.0,4.0,4.0,4.0,4.0,4.0,100.0,,,,,,,,,,,,,,,,,,,,,,,,,,,,,,,,,,,,,,,,,,,,,,,,,,,,,,,,,,,,,,,,,,,,,,,,,,,,,,,,,,,,,,,,,,,,,,,,,,,,,,,,,,,,,,,,,,,,,,,,,,,,,,,,,,,
1725618214.76746,1725618214.768198,193.0,0.0,4213.333496,4192.307617,4247.307617,4241.153809,4178.077148,4219.615234,4192.692383,4212.94873,4188.717773,4172.307617,4484.615234,4492.179688,4329.358887,4407.94873,3881.0,2.0,35.0,,,,0.0,4.0,4.0,4.0,4.0,4.0,4.0,4.0,4.0,4.0,4.0,4.0,4.0,4.0,4.0,100.0,,,,,,,,,,,,,,,,,,,,,,,,,,,,,,,,,,,,,,,,,,,,,,,,,,,,,,,,,,,,,,,,,,,,,,,,,,,,,,,,,,,,,,,,,,,,,,,,,,,,,,,,,,,,,,,,,,,,,,,,,,,,,,,,,,,
1725618214.771365,1725618214.772102,194.0,0.0,4222.692383,4197.563965,4256.153809,4246.282227,4180.512695,4225.769043,4197.692383,4217.563965,4196.153809,4182.307617,4492.436035,4499.358887,4341.153809,4417.820313,2900.0,2.0,35.0,,,,0.0,4.0,4.0,4.0,4.0,4.0,4.0,4.0,4.0,4.0,4.0,4.0,4.0,4.0,4.0,100.0,1.0,100.0,4.0,4.0,4.0,4.0,4.0,4.0,4.0,4.0,4.0,4.0,4.0,4.0,4.0,4.0,1.0,0.0,0.0,,,,,,,,,,,,,,,,,,,,,,,,,,,,,,,,,,,,,0.0,0.0,1.0,0.0,1.0,0.0,3.095654,1.61919,0.893757,0.35408,0.079083,2.887749,1.492114,0.626296,0.260928,0.154399,2.796593,1.10987,0.728584,0.379507,0.096737,1.566532,0.801361,0.468838,0.259023,0.03733,0.748992,0.324285,0.303582,0.256273,0.042055,0.281281,0.211727,0.490146,0.071429,0.085232,0.509315,0.275517,0.173825,0.138298,0.036826,1.415145,2.311883,0.657773,0.750642,0.27849,1.291228,2.744976,1.242264,0.511039,0.126552,2.935461,2.137507,1.609305,0.419731,0.219248,2.915479,2.225704,1.891509,0.739989,0.222691,3.340872,3.211684,2.198132,0.941181,0.218108,3.219087,2.647808,1.475332,0.716803,0.17096,4.005778,2.0462,1.293157,0.538061,0.123081
1725618214.775269,1725618214.776106,195.0,0.0,4236.794922,4208.461426,4267.820313,4255.769043,4188.333496,4232.179688,4204.871582,4224.230957,4207.307617,4195.512695,4507.05127,4513.461426,4358.717773,4432.692383,3061.0,2.0,35.0,,,,0.0,4.0,4.0,4.0,4.0,4.0,4.0,4.0,4.0,4.0,4.0,4.0,4.0,4.0,4.0,100.0,,,,,,,,,,,,,,,,,,,,,,,,,,,,,,,,,,,,,,,,,,,,,,,,,,,,,,,,,,,,,,,,,,,,,,,,,,,,,,,,,,,,,,,,,,,,,,,,,,,,,,,,,,,,,,,,,,,,,,,,,,,,,,,,,,,
1725618214.779173,1725618214.78001,196.0,0.0,4250.769043,4221.410156,4278.077148,4266.922852,4197.94873,4235.0,4211.922852,4231.538574,4219.743652,4208.333496,4525.384766,4530.897461,4377.179688,4448.717773,3430.0,2.0,35.0,,,,0.0,4.0,4.0,4.0,4.0,4.0,4.0,4.0,4.0,4.0,4.0,4.0,4.0,4.0,4.0,100.0,,,,,,,,,,,,,,,,,,,,,,,,,,,,,,,,,,,,,,,,,,,,,,,,,,,,,,,,,,,,,,,,,,,,,,,,,,,,,,,,,,,,,,,,,,,,,,,,,,,,,,,,,,,,,,,,,,,,,,,,,,,,,,,,,,,
1725618214.783077,1725618214.783914,197.0,0.0,4260.641113,4232.05127,4284.615234,4276.282227,4204.487305,4231.922852,4216.922852,4236.538574,4229.871582,4217.820313,4542.820313,4546.025879,4392.307617,4461.538574,3881.0,2.0,35.0,,,,0.0,4.0,4.0,4.0,4.0,4.0,4.0,4.0,4.0,4.0,4.0,4.0,4.0,4.0,4.0,100.0,,,,,,,,,,,,,,,,,,,,,,,,,,,,,,,,,,,,,,,,,,,,,,,,,,,,,,,,,,,,,,,,,,,,,,,,,,,,,,,,,,,,,,,,,,,,,,,,,,,,,,,,,,,,,,,,,,,,,,,,,,,,,,,,,,,
1725618214.786981,1725618214.787818,198.0,0.0,4265.256348,4236.922852,4288.077148,4282.05127,4205.384766,4224.358887,4219.230957,4237.692383,4235.0,4223.333496,4555.128418,4555.0,4402.307617,4469.358887,2900.0,2.0,35.0,,,,0.0,4.0,4.0,4.0,4.0,4.0,4.0,4.0,4.0,4.0,4.0,4.0,4.0,4.0,4.0,100.0,,,,,,,,,,,,,,,,,,,,,,,,,,,,,,,,,,,,,,,,,,,,,,,,,,,,,,,,,,,,,,,,,,,,,,,,,,,,,,,,,,,,,,,,,,,,,,,,,,,,,,,,,,,,,,,,,,,,,,,,,,,,,,,,,,,
1725618214.790885,1725618214.791723,199.0,0.0,4266.410156,4236.538574,4290.512695,4283.846191,4202.563965,4216.922852,4219.102539,4235.256348,4234.230957,4225.769043,4560.256348,4558.333496,4407.692383,4472.94873,3061.0,2.0,35.0,,,,0.0,4.0,4.0,4.0,4.0,4.0,4.0,4.0,4.0,4.0,4.0,4.0,4.0,4.0,4.0,100.0,,,,,,,,,,,,,,,,,,,,,,,,,,,,,,,,,,,,,,,,,,,,,,,,,,,,,,,,,,,,,,,,,,,,,,,,,,,,,,,,,,,,,,,,,,,,,,,,,,,,,,,,,,,,,,,,,,,,,,,,,,,,,,,,,,,
1725618214.794789,1725618214.795527,200.0,0.0,4266.666504,4233.846191,4293.846191,4283.333496,4199.743652,4213.333496,4217.820313,4232.179688,4229.615234,4226.666504,4558.974121,4559.487305,4410.128418,4475.256348,3430.0,2.0,35.0,,,,0.0,4.0,4.0,4.0,4.0,4.0,4.0,4.0,4.0,4.0,4.0,4.0,4.0,4.0,4.0,100.0,,,,,,,,,,,,,,,,,,,,,,,,,,,,,,,,,,,,,,,,,,,,,,,,,,,,,,,,,,,,,,,,,,,,,,,,,,,,,,,,,,,,,,,,,,,,,,,,,,,,,,,,,,,,,,,,,,,,,,,,,,,,,,,,,,,
1725618214.798693,1725618214.799431,201.0,0.0,4267.436035,4232.179688,4297.05127,4282.563965,4199.615234,4214.487305,4216.538574,4230.897461,4224.230957,4226.794922,4553.846191,4560.769043,4410.897461,4477.563965,3881.0,2.0,35.0,,,,0.0,4.0,4.0,4.0,4.0,4.0,4.0,4.0,4.0,4.0,4.0,4.0,4.0,4.0,4.0,100.0,,,,,,,,,,,,,,,,,,,,,,,,,,,,,,,,,,,,,,,,,,,,,,,,,,,,,,,,,,,,,,,,,,,,,,,,,,,,,,,,,,,,,,,,,,,,,,,,,,,,,,,,,,,,,,,,,,,,,,,,,,,,,,,,,,,
1725618214.802597,1725618214.803335,202.0,0.0,4268.589844,4232.820313,4298.205078,4282.307617,4201.666504,4218.077148,4216.282227,4231.282227,4220.256348,4226.025879,4547.692383,4561.282227,4409.871582,4479.487305,2900.0,2.0,35.0,,,,0.0,4.0,4.0,4.0,4.0,4.0,4.0,4.0,4.0,4.0,4.0,4.0,4.0,4.0,4.0,100.0,,,,,,,,,,,,,,,,,,,,,,,,,,,,,,,,,,,,,,,,,,,,,,,,,,,,,,,,0.0,0.0,1.0,0.0,1.0,0.0,,,,,,,,,,,,,,,,,,,,,,,,,,,,,,,,,,,,,,,,,,,,,,,,,,,,,,,,,,,,,,,,,,,,,,
1725618214.806502,1725618214.807339,203.0,0.0,4268.974121,4234.615234,4295.897461,4282.307617,4203.589844,4220.897461,4217.05127,4231.538574,4218.589844,4223.846191,4542.692383,4558.717773,4406.410156,4478.974121,3061.0,2.0,35.0,,,,0.0,4.0,4.0,4.0,4.0,4.0,4.0,4.0,4.0,4.0,4.0,4.0,4.0,4.0,4.0,100.0,,,,,,,,,,,,,,,,,,,,,,,,,,,,,,,,,,,,,,,,,,,,,,,,,,,,,,,,,,,,,,,,,,,,,,,,,,,,,,,,,,,,,,,,,,,,,,,,,,,,,,,,,,,,,,,,,,,,,,,,,,,,,,,,,,,
1725618214.810406,1725618214.811243,204.0,0.0,4267.436035,4235.641113,4291.153809,4281.538574,4203.846191,4221.410156,4218.077148,4230.897461,4218.589844,4220.769043,4540.384766,4552.436035,4401.282227,4475.128418,3430.0,2.0,35.0,,,,0.0,4.0,4.0,4.0,4.0,4.0,4.0,4.0,4.0,4.0,4.0,4.0,4.0,4.0,4.0,100.0,,,,,,,,,,,,,,,,,,,,,,,,,,,,,,,,,,,,,,,,,,,,,,,,,,,,,,,,,,,,,,,,,,,,,,,,,,,,,,,,,,,,,,,,,,,,,,,,,,,,,,,,,,,,,,,,,,,,,,,,,,,,,,,,,,,
1725618214.81431,1725618214.815147,205.0,0.0,4264.743652,4234.487305,4285.512695,4280.128418,4202.05127,4219.871582,4218.333496,4229.615234,4219.871582,4217.820313,4540.769043,4545.0,4396.153809,4469.743652,3881.0,2.0,35.0,,,,0.0,4.0,4.0,4.0,4.0,4.0,4.0,4.0,4.0,4.0,4.0,4.0,4.0,4.0,4.0,100.0,,,,,,,,,,,,,,,,,,,,,,,,,,,,,,,,,,,,,,,,,,,,,,,,,,,,,,,,,,,,,,,,,,,,,,,,,,,,,,,,,,,,,,,,,,,,,,,,,,,,,,,,,,,,,,,,,,,,,,,,,,,,,,,,,,,
1725618214.818214,1725618214.819051,206.0,0.0,4262.307617,4231.666504,4281.282227,4278.974121,4199.743652,4217.94873,4217.436035,4228.846191,4221.410156,4216.153809,4543.205078,4539.871582,4393.717773,4466.025879,2900.0,2.0,35.0,,,,0.0,4.0,4.0,4.0,4.0,4.0,4.0,4.0,4.0,4.0,4.0,4.0,4.0,4.0,4.0,100.0,,,,,,,,,,,,,,,,,,,,,,,,,,,,,,,,,,,,,,,,,,,,,,,,,,,,,,,,,,,,,,,,,,,,,,,,,,,,,,,,,,,,,,,,,,,,,,,,,,,,,,,,,,,,,,,,,,,,,,,,,,,,,,,,,,,
1725618214.822118,1725618214.823055,207.0,0.0,4261.538574,4229.615234,4279.358887,4278.717773,4198.846191,4216.794922,4215.897461,4228.717773,4222.05127,4216.025879,4545.897461,4538.846191,4394.743652,4466.794922,3061.0,2.0,35.0,,,,0.0,4.0,4.0,4.0,4.0,4.0,4.0,4.0,4.0,4.0,4.0,4.0,4.0,4.0,4.0,100.0,,,,,,,,,,,,,,,,,,,,,,,,,,,,,,,,,,,,,,,,,,,,,,,,,,,,,,,,,,,,,,,,,,,,,,,,,,,,,,,,,,,,,,,,,,,,,,,,,,,,,,,,,,,,,,,,,,,,,,,,,,,,,,,,,,,
1725618214.826022,1725618214.826959,208.0,0.0,4262.179688,4229.743652,4279.871582,4279.358887,4199.871582,4216.538574,4214.743652,4228.333496,4221.410156,4217.05127,4547.05127,4540.512695,4397.820313,4471.410156,3430.0,2.0,35.0,,,,0.0,4.0,4.0,4.0,4.0,4.0,4.0,4.0,4.0,4.0,4.0,4.0,4.0,4.0,4.0,100.0,,,,,,,,,,,,,,,,,,,,,,,,,,,,,,,,,,,,,,,,,,,,,,,,,,,,,,,,,,,,,,,,,,,,,,,,,,,,,,,,,,,,,,,,,,,,,,,,,,,,,,,,,,,,,,,,,,,,,,,,,,,,,,,,,,,
1725618214.829926,1725618214.830864,209.0,0.0,4263.974121,4231.794922,4282.05127,4280.256348,4201.666504,4217.05127,4214.358887,4226.794922,4219.743652,4218.461426,4545.512695,4542.179688,4400.384766,4476.025879,3881.0,2.0,35.0,,,,0.0,4.0,4.0,4.0,4.0,4.0,4.0,4.0,4.0,4.0,4.0,4.0,4.0,4.0,4.0,100.0,,,,,,,,,,,,,,,,,,,,,,,,,,,,,,,,,,,,,,,,,,,,,,,,,,,,,,,,,,,,,,,,,,,,,,,,,,,,,,,,,,,,,,,,,,,,,,,,,,,,,,,,,,,,,,,,,,,,,,,,,,,,,,,,,,,
1725618214.83383,1725618214.834768,210.0,0.0,4266.282227,4234.230957,4284.358887,4280.897461,4202.692383,4218.077148,4214.487305,4223.846191,4218.205078,4218.974121,4542.05127,4542.563965,4400.384766,4477.05127,2900.0,2.0,35.0,,,,0.0,4.0,4.0,4.0,4.0,4.0,4.0,4.0,4.0,4.0,4.0,4.0,4.0,4.0,4.0,100.0,,,,,,,,,,,,,,,,,,,,,,,,,,,,,,,,,,,,,,,,,,,,,,,,,,,,,,,,0.0,0.0,1.0,0.0,1.0,0.0,,,,,,,,,,,,,,,,,,,,,,,,,,,,,,,,,,,,,,,,,,,,,,,,,,,,,,,,,,,,,,,,,,,,,,
1725618214.837734,1725618214.838572,211.0,0.0,4267.94873,4235.641113,4286.025879,4281.282227,4202.436035,4219.102539,4215.0,4220.384766,4217.563965,4218.846191,4538.846191,4541.410156,4398.333496,4473.333496,3061.0,2.0,35.0,,,,0.0,4.0,4.0,4.0,4.0,4.0,4.0,4.0,4.0,4.0,4.0,4.0,4.0,4.0,4.0,100.0,,,,,,,,,,,,,,,,,,,,,,,,,,,,,,,,,,,,,,,,,,,,,,,,,,,,,,,,,,,,,,,,,,,,,,,,,,,,,,,,,,,,,,,,,,,,,,,,,,,,,,,,,,,,,,,,,,,,,,,,,,,,,,,,,,,
1725618214.841638,1725618214.842476,212.0,0.0,4267.94873,4235.897461,4286.410156,4281.794922,4201.794922,4219.615234,4215.897461,4217.05127,4217.563965,4218.589844,4537.820313,4539.230957,4395.512695,4467.307617,3430.0,2.0,35.0,,,,0.0,4.0,4.0,4.0,4.0,4.0,4.0,4.0,4.0,4.0,4.0,4.0,4.0,4.0,4.0,100.0,,,,,,,,,,,,,,,,,,,,,,,,,,,,,,,,,,,,,,,,,,,,,,,,,,,,,,,,,,,,,,,,,,,,,,,,,,,,,,,,,,,,,,,,,,,,,,,,,,,,,,,,,,,,,,,,,,,,,,,,,,,,,,,,,,,
1725618214.845543,1725618214.84638,213.0,0.0,4265.897461,4235.256348,4285.769043,4282.436035,4201.794922,4219.230957,4216.922852,4214.871582,4217.179688,4218.461426,4538.846191,4537.05127,4393.077148,4462.05127,3881.0,2.0,35.0,,,,0.0,4.0,4.0,4.0,4.0,4.0,4.0,4.0,4.0,4.0,4.0,4.0,4.0,4.0,4.0,100.0,,,,,,,,,,,,,,,,,,,,,,,,,,,,,,,,,,,,,,,,,,,,,,,,,,,,,,,,,,,,,,,,,,,,,,,,,,,,,,,,,,,,,,,,,,,,,,,,,,,,,,,,,,,,,,,,,,,,,,,,,,,,,,,,,,,
1725618214.849447,1725618214.850284,214.0,0.0,4262.05127,4234.615234,4284.487305,4283.077148,4202.692383,4217.820313,4217.563965,4214.230957,4215.641113,4218.205078,4539.871582,4534.615234,4391.025879,4459.615234,2900.0,2.0,35.0,,,,0.0,4.0,4.0,4.0,4.0,4.0,4.0,4.0,4.0,4.0,4.0,4.0,4.0,4.0,4.0,100.0,,,,,,,,,,,,,,,,,,,,,,,,,,,,,,,,,,,,,,,,,,,,,,,,,,,,,,,,,,,,,,,,,,,,,,,,,,,,,,,,,,,,,,,,,,,,,,,,,,,,,,,,,,,,,,,,,,,,,,,,,,,,,,,,,,,
1725618214.853351,1725618214.854088,215.0,0.0,4256.922852,4234.102539,4282.692383,4283.205078,4203.717773,4216.153809,4217.436035,4215.128418,4212.436035,4216.794922,4538.333496,4531.410156,4389.102539,4458.974121,3061.0,2.0,35.0,,,,0.0,4.0,4.0,4.0,4.0,4.0,4.0,4.0,4.0,4.0,4.0,4.0,4.0,4.0,4.0,100.0,,,,,,,,,,,,,,,,,,,,,,,,,,,,,,,,,,,,,,,,,,,,,,,,,,,,,,,,,,,,,,,,,,,,,,,,,,,,,,,,,,,,,,,,,,,,,,,,,,,,,,,,,,,,,,,,,,,,,,,,,,,,,,,,,,,
1725618214.857255,1725618214.857992,216.0,0.0,4251.794922,4233.974121,4280.641113,4282.179688,4203.717773,4215.128418,4216.922852,4216.025879,4208.077148,4214.230957,4533.333496,4527.05127,4386.666504,4457.820313,3430.0,2.0,35.0,,,,0.0,4.0,4.0,4.0,4.0,4.0,4.0,4.0,4.0,4.0,4.0,4.0,4.0,4.0,4.0,100.0,,,,,,,,,,,,,,,,,,,,,,,,,,,,,,,,,,,,,,,,,,,,,,,,,,,,,,,,,,,,,,,,,,,,,,,,,,,,,,,,,,,,,,,,,,,,,,,,,,,,,,,,,,,,,,,,,,,,,,,,,,,,,,,,,,,
1725618214.861159,1725618214.861897,217.0,0.0,4248.333496,4234.102539,4278.333496,4280.512695,4202.563965,4215.384766,4216.153809,4215.897461,4203.461426,4211.666504,4526.538574,4523.077148,4383.846191,4454.102539,3881.0,2.0,35.0,,,,0.0,4.0,4.0,4.0,4.0,4.0,4.0,4.0,4.0,4.0,4.0,4.0,4.0,4.0,4.0,100.0,,,,,,,,,,,,,,,,,,,,,,,,,,,,,,,,,,,,,,,,,,,,,,,,,,,,,,,,,,,,,,,,,,,,,,,,,,,,,,,,,,,,,,,,,,,,,,,,,,,,,,,,,,,,,,,,,,,,,,,,,,,,,,,,,,,
1725618214.865063,1725618214.865901,218.0,0.0,4247.307617,4233.846191,4276.538574,4279.487305,4200.897461,4216.153809,4215.641113,4213.846191,4200.0,4209.743652,4520.512695,4521.538574,4381.025879,4448.589844,2900.0,2.0,35.0,,,,0.0,4.0,4.0,4.0,4.0,4.0,4.0,4.0,4.0,4.0,4.0,4.0,4.0,4.0,4.0,100.0,,,,,,,,,,,,,,,,,,,,,,,,,,,,,,,,,,,,,,,,,,,,,,,,,,,,,,,,0.0,0.0,1.0,0.0,1.0,0.0,,,,,,,,,,,,,,,,,,,,,,,,,,,,,,,,,,,,,,,,,,,,,,,,,,,,,,,,,,,,,,,,,,,,,,
1725618214.868967,1725618214.869805,219.0,0.0,4247.820313,4233.717773,4275.512695,4279.487305,4199.871582,4216.794922,4215.512695,4210.384766,4198.717773,4208.717773,4517.436035,4522.563965,4378.846191,4443.717773,3061.0,2.0,35.0,,,,0.0,4.0,4.0,4.0,4.0,4.0,4.0,4.0,4.0,4.0,4.0,4.0,4.0,4.0,4.0,100.0,,,,,,,,,,,,,,,,,,,,,,,,,,,,,,,,,,,,,,,,,,,,,,,,,,,,,,,,,,,,,,,,,,,,,,,,,,,,,,,,,,,,,,,,,,,,,,,,,,,,,,,,,,,,,,,,,,,,,,,,,,,,,,,,,,,
1725618214.872871,1725618214.873709,220.0,0.0,4248.205078,4233.846191,4275.384766,4280.256348,4200.128418,4216.794922,4216.025879,4206.153809,4199.487305,4207.94873,4517.692383,4524.102539,4377.307617,4441.410156,3430.0,2.0,35.0,,,,0.0,4.0,4.0,4.0,4.0,4.0,4.0,4.0,4.0,4.0,4.0,4.0,4.0,4.0,4.0,100.0,,,,,,,,,,,,,,,,,,,,,,,,,,,,,,,,,,,,,,,,,,,,,,,,,,,,,,,,,,,,,,,,,,,,,,,,,,,,,,,,,,,,,,,,,,,,,,,,,,,,,,,,,,,,,,,,,,,,,,,,,,,,,,,,,,,
1725618214.876775,1725618214.877613,221.0,0.0,4246.666504,4234.615234,4275.512695,4281.025879,4201.282227,4216.666504,4216.922852,4202.179688,4201.025879,4206.410156,4520.128418,4522.94873,4376.538574,4441.666504,3881.0,2.0,35.0,,,,0.0,4.0,4.0,4.0,4.0,4.0,4.0,4.0,4.0,4.0,4.0,4.0,4.0,4.0,4.0,100.0,,,,,,,,,,,,,,,,,,,,,,,,,,,,,,,,,,,,,,,,,,,,,,,,,,,,,,,,,,,,,,,,,,,,,,,,,,,,,,,,,,,,,,,,,,,,,,,,,,,,,,,,,,,,,,,,,,,,,,,,,,,,,,,,,,,
1725618214.880679,1725618214.881617,222.0,0.0,4242.820313,4235.256348,4275.128418,4280.641113,4202.05127,4216.666504,4217.692383,4199.615234,4201.538574,4204.102539,4522.692383,4518.205078,4376.025879,4442.436035,2900.0,2.0,35.0,,,,0.0,4.0,4.0,4.0,4.0,4.0,4.0,4.0,4.0,4.0,4.0,4.0,4.0,4.0,4.0,100.0,,,,,,,,,,,,,,,,,,,,,,,,,,,,,,,,,,,,,,,,,,,,,,,,,,,,,,,,,,,,,,,,,,,,,,,,,,,,,,,,,,,,,,,,,,,,,,,,,,,,,,,,,,,,,,,,,,,,,,,,,,,,,,,,,,,
1725618214.884584,1725618214.885521,223.0,0.0,4238.333496,4234.615234,4273.589844,4279.230957,4201.282227,4216.922852,4217.563965,4199.358887,4200.512695,4202.179688,4523.077148,4512.05127,4375.769043,4442.307617,3061.0,2.0,35.0,,,,0.0,4.0,4.0,4.0,4.0,4.0,4.0,4.0,4.0,4.0,4.0,4.0,4.0,4.0,4.0,100.0,,,,,,,,,,,,,,,,,,,,,,,,,,,,,,,,,,,,,,,,,,,,,,,,,,,,,,,,,,,,,,,,,,,,,,,,,,,,,,,,,,,,,,,,,,,,,,,,,,,,,,,,,,,,,,,,,,,,,,,,,,,,,,,,,,,
1725618214.888488,1725618214.889425,224.0,0.0,4234.871582,4232.436035,4270.897461,4277.307617,4199.743652,4217.436035,4216.538574,4202.05127,4199.358887,4202.307617,4520.897461,4508.717773,4376.025879,4441.025879,3430.0,2.0,35.0,,,,0.0,4.0,4.0,4.0,4.0,4.0,4.0,4.0,4.0,4.0,4.0,4.0,4.0,4.0,4.0,100.0,,,,,,,,,,,,,,,,,,,,,,,,,,,,,,,,,,,,,,,,,,,,,,,,,,,,,,,,,,,,,,,,,,,,,,,,,,,,,,,,,,,,,,,,,,,,,,,,,,,,,,,,,,,,,,,,,,,,,,,,,,,,,,,,,,,
1725618214.892392,1725618214.893329,225.0,0.0,4233.461426,4229.615234,4267.307617,4275.769043,4198.205078,4217.820313,4215.128418,4206.922852,4200.256348,4205.897461,4517.179688,4511.153809,4377.179688,4439.871582,3881.0,2.0,35.0,,,,0.0,4.0,4.0,4.0,4.0,4.0,4.0,4.0,4.0,4.0,4.0,4.0,4.0,4.0,4.0,100.0,,,,,,,,,,,,,,,,,,,,,,,,,,,,,,,,,,,,,,,,,,,,,,,,,,,,,,,,,,,,,,,,,,,,,,,,,,,,,,,,,,,,,,,,,,,,,,,,,,,,,,,,,,,,,,,,,,,,,,,,,,,,,,,,,,,
1725618214.896296,1725618214.897233,226.0,0.0,4233.717773,4228.205078,4264.102539,4275.641113,4198.077148,4217.563965,4214.358887,4212.179688,4203.974121,4211.794922,4514.487305,4517.820313,4379.487305,4440.128418,2900.0,2.0,35.0,,,,0.0,4.0,4.0,4.0,4.0,4.0,4.0,4.0,4.0,4.0,4.0,4.0,4.0,4.0,4.0,100.0,,,,,,,,,,,,,,,,,1.0,0.0,0.0,,,,,,,,,,,,,,,,,,,,,,,,,,,,,,,,,,,,,0.0,0.0,1.0,0.0,1.0,0.0,3.090589,1.591739,0.906558,0.36222,0.076709,2.893102,1.470759,0.635416,0.253925,0.151378,2.65276,1.080519,0.74435,0.405942,0.109965,1.560206,0.796705,0.470064,0.267649,0.041952,0.743946,0.306449,0.309561,0.269632,0.048069,0.261658,0.189702,0.497695,0.06901,0.087865,0.472066,0.241911,0.164146,0.123757,0.030789,1.313249,2.453735,0.664813,0.720344,0.274096,1.362696,2.817958,1.32718,0.519491,0.12444,3.122303,2.147755,1.763981,0.440287,0.214678,2.695313,2.298662,1.950683,0.753851,0.210275,3.169903,3.309443,2.254005,0.916715,0.20568,3.348232,2.768509,1.497107,0.739666,0.150698,3.885214,2.063693,1.284882,0.557154,0.118687
1725618214.9002,1725618214.901038,227.0,0.0,4234.871582,4229.102539,4262.307617,4276.794922,4199.230957,4216.922852,4214.487305,4216.153809,4209.358887,4217.05127,4514.615234,4524.487305,4382.307617,4441.794922,3061.0,2.0,35.0,,,,0.0,4.0,4.0,4.0,4.0,4.0,4.0,4.0,4.0,4.0,4.0,4.0,4.0,4.0,4.0,100.0,,,,,,,,,,,,,,,,,,,,,,,,,,,,,,,,,,,,,,,,,,,,,,,,,,,,,,,,,,,,,,,,,,,,,,,,,,,,,,,,,,,,,,,,,,,,,,,,,,,,,,,,,,,,,,,,,,,,,,,,,,,,,,,,,,,
1725618214.904104,1725618214.904942,228.0,0.0,4235.641113,4231.794922,4262.307617,4278.461426,4201.025879,4216.282227,4215.384766,4217.94873,4213.589844,4218.461426,4517.94873,4526.538574,4384.230957,4443.205078,3430.0,2.0,35.0,,,,0.0,4.0,4.0,4.0,4.0,4.0,4.0,4.0,4.0,4.0,4.0,4.0,4.0,4.0,4.0,100.0,,,,,,,,,,,,,,,,,,,,,,,,,,,,,,,,,,,,,,,,,,,,,,,,,,,,,,,,,,,,,,,,,,,,,,,,,,,,,,,,,,,,,,,,,,,,,,,,,,,,,,,,,,,,,,,,,,,,,,,,,,,,,,,,,,,
1725618214.908008,1725618214.908846,229.0,0.0,4235.384766,4234.230957,4263.589844,4279.743652,4202.179688,4216.282227,4216.538574,4218.077148,4214.743652,4215.0,4522.436035,4523.205078,4383.846191,4443.077148,3881.0,2.0,35.0,,,,0.0,4.0,4.0,4.0,4.0,4.0,4.0,4.0,4.0,4.0,4.0,4.0,4.0,4.0,4.0,100.0,,,,,,,,,,,,,,,,,,,,,,,,,,,,,,,,,,,,,,,,,,,,,,,,,,,,,,,,,,,,,,,,,,,,,,,,,,,,,,,,,,,,,,,,,,,,,,,,,,,,,,,,,,,,,,,,,,,,,,,,,,,,,,,,,,,
1725618214.911912,1725618214.91285,230.0,0.0,4234.358887,4234.743652,4265.0,4279.358887,4201.794922,4216.794922,4217.307617,4217.179688,4212.307617,4208.333496,4525.384766,4516.410156,4381.153809,4440.897461,2900.0,2.0,35.0,,,,0.0,4.0,4.0,4.0,4.0,4.0,4.0,4.0,4.0,4.0,4.0,4.0,4.0,4.0,4.0,100.0,,,,,,,,,,,,,,,,,,,,,,,,,,,,,,,,,,,,,,,,,,,,,,,,,,,,,,,,,,,,,,,,,,,,,,,,,,,,,,,,,,,,,,,,,,,,,,,,,,,,,,,,,,,,,,,,,,,,,,,,,,,,,,,,,,,
1725618214.915817,1725618214.916754,231.0,0.0,4233.333496,4232.692383,4265.384766,4277.179688,4200.769043,4217.436035,4217.436035,4215.512695,4207.820313,4201.794922,4525.384766,4509.358887,4377.307617,4437.05127,3061.0,2.0,35.0,,,,0.0,4.0,4.0,4.0,4.0,4.0,4.0,4.0,4.0,4.0,4.0,4.0,4.0,4.0,4.0,100.0,,,,,,,,,,,,,,,,,,,,,,,,,,,,,,,,,,,,,,,,,,,,,,,,,,,,,,,,,,,,,,,,,,,,,,,,,,,,,,,,,,,,,,,,,,,,,,,,,,,,,,,,,,,,,,,,,,,,,,,,,,,,,,,,,,,
1725618214.919721,1725618214.920658,232.0,0.0,4232.820313,4229.358887,4264.102539,4274.230957,4200.256348,4218.077148,4217.05127,4213.333496,4203.077148,4198.077148,4522.94873,4504.358887,4373.974121,4432.05127,3430.0,2.0,35.0,,,,0.0,4.0,4.0,4.0,4.0,4.0,4.0,4.0,4.0,4.0,4.0,4.0,4.0,4.0,4.0,100.0,,,,,,,,,,,,,,,,,,,,,,,,,,,,,,,,,,,,,,,,,,,,,,,,,,,,,,,,,,,,,,,,,,,,,,,,,,,,,,,,,,,,,,,,,,,,,,,,,,,,,,,,,,,,,,,,,,,,,,,,,,,,,,,,,,,
1725618214.923625,1725618214.924562,233.0,0.0,4232.94873,4227.05127,4262.179688,4272.179688,4201.282227,4218.077148,4216.410156,4211.410156,4200.256348,4197.436035,4520.256348,4502.94873,4372.563965,4427.563965,3881.0,2.0,35.0,,,,0.0,4.0,4.0,4.0,4.0,4.0,4.0,4.0,4.0,4.0,4.0,4.0,4.0,4.0,4.0,100.0,,,,,,,,,,,,,,,,,,,,,,,,,,,,,,,,,,,,,,,,,,,,,,,,,,,,,,,,,,,,,,,,,,,,,,,,,,,,,,,,,,,,,,,,,,,,,,,,,,,,,,,,,,,,,,,,,,,,,,,,,,,,,,,,,,,
1725618214.927529,1725618214.928366,234.0,0.0,4233.589844,4227.179688,4261.922852,4272.179688,4203.077148,4217.563965,4216.282227,4211.282227,4200.769043,4198.333496,4519.230957,4505.128418,4372.94873,4425.384766,2900.0,2.0,35.0,,,,0.0,4.0,4.0,4.0,4.0,4.0,4.0,4.0,4.0,4.0,4.0,4.0,4.0,4.0,4.0,100.0,,,,,,,,,,,,,,,,,,,,,,,,,,,,,,,,,,,,,,,,,,,,,,,,,,,,,,,,0.0,0.0,1.0,0.0,1.0,0.0,,,,,,,,,,,,,,,,,,,,,,,,,,,,,,,,,,,,,,,,,,,,,,,,,,,,,,,,,,,,,,,,,,,,,,
1725618214.931433,1725618214.93227,235.0,0.0,4234.102539,4229.615234,4263.974121,4274.358887,4204.230957,4217.05127,4216.794922,4213.717773,4203.461426,4199.358887,4520.641113,4509.743652,4374.102539,4426.794922,3061.0,2.0,35.0,,,,0.0,4.0,4.0,4.0,4.0,4.0,4.0,4.0,4.0,4.0,4.0,4.0,4.0,4.0,4.0,100.0,,,,,,,,,,,,,,,,,,,,,,,,,,,,,,,,,,,,,,,,,,,,,,,,,,,,,,,,,,,,,,,,,,,,,,,,,,,,,,,,,,,,,,,,,,,,,,,,,,,,,,,,,,,,,,,,,,,,,,,,,,,,,,,,,,,
1725618214.935337,1725618214.936174,236.0,0.0,4234.102539,4232.436035,4267.436035,4277.563965,4204.102539,4217.179688,4217.820313,4216.922852,4206.025879,4199.743652,4523.205078,4514.102539,4374.487305,4431.410156,3430.0,2.0,35.0,,,,0.0,4.0,4.0,4.0,4.0,4.0,4.0,4.0,4.0,4.0,4.0,4.0,4.0,4.0,4.0,100.0,,,,,,,,,,,,,,,,,,,,,,,,,,,,,,,,,,,,,,,,,,,,,,,,,,,,,,,,,,,,,,,,,,,,,,,,,,,,,,,,,,,,,,,,,,,,,,,,,,,,,,,,,,,,,,,,,,,,,,,,,,,,,,,,,,,
1725618214.939241,1725618214.940178,237.0,0.0,4234.102539,4233.589844,4270.256348,4280.0,4203.717773,4218.077148,4219.102539,4218.333496,4206.538574,4200.128418,4525.0,4516.410156,4373.333496,4436.666504,3881.0,2.0,35.0,,,,0.0,4.0,4.0,4.0,4.0,4.0,4.0,4.0,4.0,4.0,4.0,4.0,4.0,4.0,4.0,100.0,,,,,,,,,,,,,,,,,,,,,,,,,,,,,,,,,,,,,,,,,,,,,,,,,,,,,,,,,,,,,,,,,,,,,,,,,,,,,,,,,,,,,,,,,,,,,,,,,,,,,,,,,,,,,,,,,,,,,,,,,,,,,,,,,,,
1725618214.943145,1725618214.944083,238.0,0.0,4234.871582,4232.436035,4271.666504,4280.128418,4204.487305,4219.358887,4220.128418,4215.641113,4205.256348,4200.641113,4525.0,4516.538574,4370.641113,4439.871582,2900.0,2.0,35.0,,,,0.0,4.0,4.0,4.0,4.0,4.0,4.0,4.0,4.0,4.0,4.0,4.0,4.0,4.0,4.0,100.0,,,,,,,,,,,,,,,,,,,,,,,,,,,,,,,,,,,,,,,,,,,,,,,,,,,,,,,,,,,,,,,,,,,,,,,,,,,,,,,,,,,,,,,,,,,,,,,,,,,,,,,,,,,,,,,,,,,,,,,,,,,,,,,,,,,
1725618214.94705,1725618214.947987,239.0,0.0,4237.436035,4230.897461,4271.794922,4278.077148,4207.563965,4220.512695,4221.282227,4210.128418,4203.974121,4201.025879,4523.846191,4515.384766,4367.436035,4439.615234,3061.0,2.0,35.0,,,,0.0,4.0,4.0,4.0,4.0,4.0,4.0,4.0,4.0,4.0,4.0,4.0,4.0,4.0,4.0,100.0,,,,,,,,,,,,,,,,,,,,,,,,,,,,,,,,,,,,,,,,,,,,,,,,,,,,,,,,,,,,,,,,,,,,,,,,,,,,,,,,,,,,,,,,,,,,,,,,,,,,,,,,,,,,,,,,,,,,,,,,,,,,,,,,,,,
1725618214.950954,1725618214.951891,240.0,0.0,4241.794922,4231.025879,4271.666504,4276.025879,4211.922852,4221.025879,4223.333496,4205.256348,4204.230957,4200.769043,4522.94873,4514.102539,4364.871582,4436.794922,3430.0,2.0,35.0,,,,0.0,4.0,4.0,4.0,4.0,4.0,4.0,4.0,4.0,4.0,4.0,4.0,4.0,4.0,4.0,100.0,,,,,,,,,,,,,,,,,,,,,,,,,,,,,,,,,,,,,,,,,,,,,,,,,,,,,,,,,,,,,,,,,,,,,,,,,,,,,,,,,,,,,,,,,,,,,,,,,,,,,,,,,,,,,,,,,,,,,,,,,,,,,,,,,,,
1725618214.954858,1725618214.955795,241.0,0.0,4246.666504,4232.563965,4271.922852,4275.897461,4215.897461,4220.641113,4226.153809,4204.743652,4205.641113,4200.256348,4523.077148,4513.589844,4363.333496,4433.333496,3881.0,2.0,35.0,,,,0.0,4.0,4.0,4.0,4.0,4.0,4.0,4.0,4.0,4.0,4.0,4.0,4.0,4.0,4.0,100.0,,,,,,,,,,,,,,,,,,,,,,,,,,,,,,,,,,,,,,,,,,,,,,,,,,,,,,,,,,,,,,,,,,,,,,,,,,,,,,,,,,,,,,,,,,,,,,,,,,,,,,,,,,,,,,,,,,,,,,,,,,,,,,,,,,,
1725618214.958762,1725618214.959599,242.0,0.0,4249.743652,4233.205078,4272.563965,4277.692383,4217.436035,4219.615234,4228.974121,4209.102539,4207.05127,4199.615234,4523.589844,4514.102539,4362.05127,4431.410156,2900.0,2.0,35.0,,,,0.0,4.0,4.0,4.0,4.0,4.0,4.0,4.0,4.0,4.0,4.0,4.0,4.0,4.0,4.0,100.0,,,,,,,,,,,,,,,,,,,,,,,,,,,,,,,,,,,,,,,,,,,,,,,,,,,,,,,,0.0,0.0,1.0,0.0,1.0,0.0,,,,,,,,,,,,,,,,,,,,,,,,,,,,,,,,,,,,,,,,,,,,,,,,,,,,,,,,,,,,,,,,,,,,,,
1725618214.962666,1725618214.963503,243.0,0.0,4248.974121,4230.897461,4272.563965,4279.615234,4216.666504,4218.589844,4230.641113,4214.487305,4207.179688,4198.974121,4523.846191,4515.769043,4360.128418,4431.153809,3061.0,2.0,35.0,,,,0.0,4.0,4.0,4.0,4.0,4.0,4.0,4.0,4.0,4.0,4.0,4.0,4.0,4.0,4.0,100.0,,,,,,,,,,,,,,,,,,,,,,,,,,,,,,,,,,,,,,,,,,,,,,,,,,,,,,,,,,,,,,,,,,,,,,,,,,,,,,,,,,,,,,,,,,,,,,,,,,,,,,,,,,,,,,,,,,,,,,,,,,,,,,,,,,,
1725618214.96657,1725618214.967407,244.0,0.0,4244.230957,4225.769043,4271.282227,4279.102539,4214.615234,4217.692383,4230.897461,4216.153809,4206.153809,4197.820313,4523.846191,4517.692383,4357.436035,4431.153809,3430.0,2.0,35.0,,,,0.0,4.0,4.0,4.0,4.0,4.0,4.0,4.0,4.0,4.0,4.0,4.0,4.0,4.0,4.0,100.0,,,,,,,,,,,,,,,,,,,,,,,,,,,,,,,,,,,,,,,,,,,,,,,,,,,,,,,,,,,,,,,,,,,,,,,,,,,,,,,,,,,,,,,,,,,,,,,,,,,,,,,,,,,,,,,,,,,,,,,,,,,,,,,,,,,
1725618214.970474,1725618214.971411,245.0,0.0,4237.820313,4220.641113,4268.717773,4276.025879,4213.077148,4217.179688,4230.0,4212.179688,4204.743652,4195.769043,4523.589844,4518.846191,4355.128418,4430.384766,3881.0,2.0,35.0,,,,0.0,4.0,4.0,4.0,4.0,4.0,4.0,4.0,4.0,4.0,4.0,4.0,4.0,4.0,4.0,100.0,,,,,,,,,,,,,,,,,,,,,,,,,,,,,,,,,,,,,,,,,,,,,,,,,,,,,,,,,,,,,,,,,,,,,,,,,,,,,,,,,,,,,,,,,,,,,,,,,,,,,,,,,,,,,,,,,,,,,,,,,,,,,,,,,,,
1725618214.974378,1725618214.975315,246.0,0.0,4233.333496,4218.717773,4266.025879,4272.436035,4213.077148,4216.666504,4229.230957,4204.743652,4203.846191,4192.563965,4523.589844,4518.717773,4353.974121,4429.487305,2900.0,2.0,35.0,,,,0.0,4.0,4.0,4.0,4.0,4.0,4.0,4.0,4.0,4.0,4.0,4.0,4.0,4.0,4.0,100.0,,,,,,,,,,,,,,,,,,,,,,,,,,,,,,,,,,,,,,,,,,,,,,,,,,,,,,,,,,,,,,,,,,,,,,,,,,,,,,,,,,,,,,,,,,,,,,,,,,,,,,,,,,,,,,,,,,,,,,,,,,,,,,,,,,,
1725618214.978282,1725618214.979219,247.0,0.0,4233.205078,4221.666504,4264.871582,4270.641113,4215.0,4216.538574,4229.487305,4198.846191,4203.461426,4188.846191,4523.589844,4517.820313,4353.974121,4429.743652,3061.0,2.0,35.0,,,,0.0,4.0,4.0,4.0,4.0,4.0,4.0,4.0,4.0,4.0,4.0,4.0,4.0,4.0,4.0,100.0,,,,,,,,,,,,,,,,,,,,,,,,,,,,,,,,,,,,,,,,,,,,,,,,,,,,,,,,,,,,,,,,,,,,,,,,,,,,,,,,,,,,,,,,,,,,,,,,,,,,,,,,,,,,,,,,,,,,,,,,,,,,,,,,,,,
1725618214.982186,1725618214.983124,248.0,0.0,4236.666504,4227.94873,4265.512695,4272.05127,4217.307617,4216.666504,4230.512695,4197.563965,4203.333496,4186.025879,4523.589844,4516.410156,4354.743652,4432.179688,3430.0,2.0,35.0,,,,0.0,4.0,4.0,4.0,4.0,4.0,4.0,4.0,4.0,4.0,4.0,4.0,4.0,4.0,4.0,100.0,,,,,,,,,,,,,,,,,,,,,,,,,,,,,,,,,,,,,,,,,,,,,,,,,,,,,,,,,,,,,,,,,,,,,,,,,,,,,,,,,,,,,,,,,,,,,,,,,,,,,,,,,,,,,,,,,,,,,,,,,,,,,,,,,,,
1725618214.986091,1725618214.987128,249.0,0.0,4241.410156,4234.230957,4267.05127,4275.128418,4218.077148,4217.05127,4231.025879,4200.512695,4202.692383,4185.128418,4523.589844,4514.487305,4355.256348,4435.512695,3881.0,2.0,35.0,,,,0.0,4.0,4.0,4.0,4.0,4.0,4.0,4.0,4.0,4.0,4.0,4.0,4.0,4.0,4.0,100.0,,,,,,,,,,,,,,,,,,,,,,,,,,,,,,,,,,,,,,,,,,,,,,,,,,,,,,,,,,,,,,,,,,,,,,,,,,,,,,,,,,,,,,,,,,,,,,,,,,,,,,,,,,,,,,,,,,,,,,,,,,,,,,,,,,,
1725618214.989995,1725618214.991032,250.0,0.0,4244.615234,4237.307617,4267.94873,4277.820313,4215.897461,4217.563965,4230.384766,4203.846191,4201.282227,4186.153809,4523.589844,4511.666504,4355.128418,4437.563965,2900.0,2.0,35.0,,,,0.0,4.0,4.0,4.0,4.0,4.0,4.0,4.0,4.0,4.0,4.0,4.0,4.0,4.0,4.0,100.0,,,,,,,,,,,,,,,,,,,,,,,,,,,,,,,,,,,,,,,,,,,,,,,,,,,,,,,,0.0,0.0,1.0,0.0,1.0,0.0,,,,,,,,,,,,,,,,,,,,,,,,,,,,,,,,,,,,,,,,,,,,,,,,,,,,,,,,,,,,,,,,,,,,,,
1725618214.993899,1725618214.994936,251.0,0.0,4246.025879,4236.410156,4267.307617,4278.461426,4211.794922,4217.820313,4229.487305,4204.615234,4199.615234,4187.820313,4523.589844,4508.589844,4354.743652,4437.436035,3061.0,2.0,35.0,,,,0.0,4.0,4.0,4.0,4.0,4.0,4.0,4.0,4.0,4.0,4.0,4.0,4.0,4.0,4.0,100.0,,,,,,,,,,,,,,,,,,,,,,,,,,,,,,,,,,,,,,,,,,,,,,,,,,,,,,,,,,,,,,,,,,,,,,,,,,,,,,,,,,,,,,,,,,,,,,,,,,,,,,,,,,,,,,,,,,,,,,,,,,,,,,,,,,,
1725618214.997803,1725618214.99884,252.0,0.0,4246.538574,4233.333496,4266.282227,4277.563965,4207.94873,4217.436035,4229.615234,4202.436035,4198.461426,4188.846191,4523.461426,4506.922852,4354.487305,4436.025879,3430.0,2.0,35.0,,,,0.0,4.0,4.0,4.0,4.0,4.0,4.0,4.0,4.0,4.0,4.0,4.0,4.0,4.0,4.0,100.0,,,,,,,,,,,,,,,,,,,,,,,,,,,,,,,,,,,,,,,,,,,,,,,,,,,,,,,,,,,,,,,,,,,,,,,,,,,,,,,,,,,,,,,,,,,,,,,,,,,,,,,,,,,,,,,,,,,,,,,,,,,,,,,,,,,
1725618215.001707,1725618215.002744,253.0,0.0,4246.922852,4230.641113,4266.282227,4276.282227,4206.538574,4216.538574,4230.512695,4200.0,4198.205078,4189.102539,4523.205078,4507.820313,4354.615234,4435.256348,3881.0,2.0,35.0,,,,0.0,4.0,4.0,4.0,4.0,4.0,4.0,4.0,4.0,4.0,4.0,4.0,4.0,4.0,4.0,100.0,,,,,,,,,,,,,,,,,,,,,,,,,,,,,,,,,,,,,,,,,,,,,,,,,,,,,,,,,,,,,,,,,,,,,,,,,,,,,,,,,,,,,,,,,,,,,,,,,,,,,,,,,,,,,,,,,,,,,,,,,,,,,,,,,,,
1725618215.005611,1725618215.006548,254.0,0.0,4246.794922,4230.0,4267.692383,4275.641113,4208.077148,4216.025879,4230.641113,4199.743652,4198.846191,4188.974121,4523.077148,4510.128418,4355.128418,4435.384766,2900.0,2.0,35.0,,,,0.0,4.0,4.0,4.0,4.0,4.0,4.0,4.0,4.0,4.0,4.0,4.0,4.0,4.0,4.0,100.0,,,,,,,,,,,,,,,,,,,,,,,,,,,,,,,,,,,,,,,,,,,,,,,,,,,,,,,,,,,,,,,,,,,,,,,,,,,,,,,,,,,,,,,,,,,,,,,,,,,,,,,,,,,,,,,,,,,,,,,,,,,,,,,,,,,
1725618215.009515,1725618215.010452,255.0,0.0,4245.0,4231.025879,4268.461426,4276.025879,4211.282227,4216.025879,4228.589844,4201.538574,4199.230957,4189.102539,4523.589844,4511.282227,4356.025879,4435.0,35.0,2.0,35.0,,,,0.0,4.0,4.0,4.0,4.0,4.0,4.0,4.0,4.0,4.0,4.0,4.0,4.0,4.0,4.0,100.0,,,,,,,,,,,,,,,,,,,,,,,,,,,,,,,,,,,,,,,,,,,,,,,,,,,,,,,,,,,,,,,,,,,,,,,,,,,,,,,,,,,,,,,,,,,,,,,,,,,,,,,,,,,,,,,,,,,,,,,,,,,,,,,,,,,
1725618215.013419,1725618215.014456,0.0,0.0,4241.538574,4232.179688,4267.307617,4277.179688,4214.487305,4216.666504,4224.487305,4202.820313,4198.717773,4189.358887,4524.358887,4510.0,4357.436035,4433.461426,2615.0,2.0,35.0,,,,0.0,4.0,4.0,4.0,4.0,4.0,4.0,4.0,4.0,4.0,4.0,4.0,4.0,4.0,4.0,100.0,,,,,,,,,,,,,,,,,,,,,,,,,,,,,,,,,,,,,,,,,,,,,,,,,,,,,,,,,,,,,,,,,,,,,,,,,,,,,,,,,,,,,,,,,,,,,,,,,,,,,,,,,,,,,,,,,,,,,,,,,,,,,,,,,,,
1725618215.017323,1725618215.01836,1.0,0.0,4238.077148,4233.077148,4265.0,4278.077148,4215.897461,4217.307617,4220.512695,4202.307617,4197.563965,4188.846191,4524.487305,4507.94873,4359.358887,4431.666504,2561.0,2.0,35.0,,,,0.0,4.0,4.0,4.0,4.0,4.0,4.0,4.0,4.0,4.0,4.0,4.0,4.0,4.0,4.0,100.0,,,,,,,,,,,,,,,,,,,,,,,,,,,,,,,,,,,,,,,,,,,,,,,,,,,,,,,,,,,,,,,,,,,,,,,,,,,,,,,,,,,,,,,,,,,,,,,,,,,,,,,,,,,,,,,,,,,,,,,,,,,,,,,,,,,
1725618215.021227,1725618215.022265,2.0,0.0,4236.666504,4233.717773,4263.717773,4277.820313,4215.384766,4217.179688,4219.102539,4201.025879,4196.794922,4187.820313,4523.717773,4507.692383,4361.666504,4431.538574,2448.0,2.0,35.0,,,,0.0,4.0,4.0,4.0,4.0,4.0,4.0,4.0,4.0,4.0,4.0,4.0,4.0,4.0,4.0,100.0,,,,,,,,,,,,,,,,,1.0,0.0,0.0,,,,,,,,,,,,,,,,,,,,,,,,,,,,,,,,,,,,,0.0,0.0,1.0,0.0,1.0,0.0,2.981866,1.482281,0.850391,0.35786,0.072124,2.604964,1.302635,0.593898,0.232594,0.136862,2.370893,0.982414,0.734655,0.404282,0.118164,1.483916,0.728129,0.449412,0.256257,0.045413,0.66558,0.269262,0.318923,0.263835,0.055066,0.228902,0.164028,0.459707,0.067184,0.086639,0.390597,0.206232,0.154414,0.101811,0.026171,1.129954,2.330076,0.626121,0.631006,0.251341,1.356099,2.540241,1.243656,0.479331,0.11703,3.017673,1.964718,1.754765,0.442141,0.199923,2.389429,2.218422,1.832893,0.727974,0.197724,3.107006,3.113069,2.107953,0.816677,0.191076,3.301524,2.675919,1.390441,0.711294,0.127498,3.639802,1.965728,1.163476,0.538212,0.110859
1725618215.025132,1725618215.026169,3.0,0.0,4238.205078,4234.358887,4264.871582,4276.282227,4213.846191,4216.538574,4221.410156,4201.282227,4197.307617,4187.563965,4522.692383,4510.641113,4364.358887,4434.102539,2466.0,2.0,35.0,,,,0.0,4.0,4.0,4.0,4.0,4.0,4.0,4.0,4.0,4.0,4.0,4.0,4.0,4.0,4.0,100.0,,,,,,,,,,,,,,,,,,,,,,,,,,,,,,,,,,,,,,,,,,,,,,,,,,,,,,,,,,,,,,,,,,,,,,,,,,,,,,,,,,,,,,,,,,,,,,,,,,,,,,,,,,,,,,,,,,,,,,,,,,,,,,,,,,,
1725618215.029036,1725618215.030073,4.0,0.0,4241.282227,4233.846191,4267.820313,4274.230957,4213.077148,4216.410156,4226.153809,4204.615234,4199.102539,4189.487305,4522.436035,4515.641113,4366.794922,4438.589844,2424.0,2.0,35.0,,,,0.0,4.0,4.0,4.0,4.0,4.0,4.0,4.0,4.0,4.0,4.0,4.0,4.0,4.0,4.0,100.0,,,,,,,,,,,,,,,,,,,,,,,,,,,,,,,,,,,,,,,,,,,,,,,,,,,,,,,,,,,,,,,,,,,,,,,,,,,,,,,,,,,,,,,,,,,,,,,,,,,,,,,,,,,,,,,,,,,,,,,,,,,,,,,,,,,
1725618215.03294,1725618215.033877,5.0,0.0,4243.461426,4232.05127,4271.025879,4272.820313,4214.102539,4217.436035,4230.897461,4210.512695,4201.282227,4193.589844,4524.102539,4521.410156,4368.589844,4443.589844,2399.0,2.0,35.0,,,,0.0,4.0,4.0,4.0,4.0,4.0,4.0,4.0,4.0,4.0,4.0,4.0,4.0,4.0,4.0,100.0,,,,,,,,,,,,,,,,,,,,,,,,,,,,,,,,,,,,,,,,,,,,,,,,,,,,,,,,,,,,,,,,,,,,,,,,,,,,,,,,,,,,,,,,,,,,,,,,,,,,,,,,,,,,,,,,,,,,,,,,,,,,,,,,,,,
1725618215.036844,1725618215.037781,6.0,0.0,4243.077148,4230.384766,4272.307617,4272.563965,4216.538574,4219.615234,4233.717773,4217.179688,4203.077148,4198.077148,4527.179688,4526.025879,4368.974121,4446.538574,2181.0,2.0,35.0,,,,0.0,4.0,4.0,4.0,4.0,4.0,4.0,4.0,4.0,4.0,4.0,4.0,4.0,4.0,4.0,100.0,,,,,,,,,,,,,,,,,,,,,,,,,,,,,,,,,,,,,,,,,,,,,,,,,,,,,,,,,,,,,,,,,,,,,,,,,,,,,,,,,,,,,,,,,,,,,,,,,,,,,,,,,,,,,,,,,,,,,,,,,,,,,,,,,,,
1725618215.040748,1725618215.041685,7.0,0.0,4241.282227,4231.410156,4270.641113,4273.846191,4218.077148,4221.922852,4233.717773,4221.666504,4203.846191,4200.897461,4530.0,4527.94873,4368.205078,4446.282227,2489.0,2.0,35.0,,,,0.0,4.0,4.0,4.0,4.0,4.0,4.0,4.0,4.0,4.0,4.0,4.0,4.0,4.0,4.0,100.0,,,,,,,,,,,,,,,,,,,,,,,,,,,,,,,,,,,,,,,,,,,,,,,,,,,,,,,,,,,,,,,,,,,,,,,,,,,,,,,,,,,,,,,,,,,,,,,,,,,,,,,,,,,,,,,,,,,,,,,,,,,,,,,,,,,
1725618215.044652,1725618215.045689,8.0,0.0,4240.0,4235.897461,4266.922852,4276.410156,4217.179688,4222.692383,4231.410156,4221.666504,4203.589844,4201.282227,4530.641113,4525.897461,4367.179688,4443.333496,2471.0,2.0,35.0,,,,0.0,4.0,4.0,4.0,4.0,4.0,4.0,4.0,4.0,4.0,4.0,4.0,4.0,4.0,4.0,100.0,,,,,,,,,,,,,,,,,,,,,,,,,,,,,,,,,,,,,,,,,,,,,,,,,,,,,,,,,,,,,,,,,,,,,,,,,,,,,,,,,,,,,,,,,,,,,,,,,,,,,,,,,,,,,,,,,,,,,,,,,,,,,,,,,,,
1725618215.048556,1725618215.049593,9.0,0.0,4240.897461,4242.179688,4263.077148,4278.974121,4213.717773,4221.410156,4228.077148,4216.922852,4202.820313,4200.128418,4528.589844,4520.256348,4367.179688,4439.615234,2556.0,2.0,35.0,,,,0.0,4.0,4.0,4.0,4.0,4.0,4.0,4.0,4.0,4.0,4.0,4.0,4.0,4.0,4.0,100.0,,,,,,,,,,,,,,,,,,,,,,,,,,,,,,,,,,,,,,,,,,,,,,,,,,,,,,,,,,,,,,,,,,,,,,,,,,,,,,,,,,,,,,,,,,,,,,,,,,,,,,,,,,,,,,,,,,,,,,,,,,,,,,,,,,,
1725618215.05246,1725618215.053497,10.0,0.0,4243.717773,4247.436035,4261.025879,4280.256348,4209.230957,4218.589844,4224.487305,4209.487305,4202.307617,4198.717773,4524.487305,4514.102539,4368.077148,4437.05127,2895.0,2.0,35.0,,,,0.0,4.0,4.0,4.0,4.0,4.0,4.0,4.0,4.0,4.0,4.0,4.0,4.0,4.0,4.0,100.0,,,,,,,,,,,,,,,,,,,,,,,,,,,,,,,,,,,,,,,,,,,,,,,,,,,,,,,,0.0,0.0,1.0,0.0,1.0,0.0,,,,,,,,,,,,,,,,,,,,,,,,,,,,,,,,,,,,,,,,,,,,,,,,,,,,,,,,,,,,,,,,,,,,,,
1725618215.056364,1725618215.057401,11.0,0.0,4246.794922,4249.487305,4261.794922,4279.743652,4205.512695,4215.897461,4221.153809,4202.94873,4201.922852,4198.333496,4520.0,4510.0,4368.589844,4435.769043,3056.0,2.0,35.0,,,,0.0,4.0,4.0,4.0,4.0,4.0,4.0,4.0,4.0,4.0,4.0,4.0,4.0,4.0,4.0,100.0,,,,,,,,,,,,,,,,,,,,,,,,,,,,,,,,,,,,,,,,,,,,,,,,,,,,,,,,,,,,,,,,,,,,,,,,,,,,,,,,,,,,,,,,,,,,,,,,,,,,,,,,,,,,,,,,,,,,,,,,,,,,,,,,,,,
1725618215.060269,1725618215.061306,12.0,0.0,4247.94873,4248.461426,4264.487305,4277.94873,4202.820313,4214.615234,4218.461426,4199.230957,4201.538574,4199.102539,4516.794922,4508.077148,4367.436035,4434.358887,3420.0,2.0,35.0,,,,0.0,4.0,4.0,4.0,4.0,4.0,4.0,4.0,4.0,4.0,4.0,4.0,4.0,4.0,4.0,100.0,,,,,,,,,,,,,,,,,,,,,,,,,,,,,,,,,,,,,,,,,,,,,,,,,,,,,,,,,,,,,,,,,,,,,,,,,,,,,,,,,,,,,,,,,,,,,,,,,,,,,,,,,,,,,,,,,,,,,,,,,,,,,,,,,,,
1725618215.064173,1725618215.06511,13.0,0.0,4247.179688,4245.897461,4267.436035,4276.538574,4201.282227,4215.0,4216.794922,4197.94873,4201.025879,4199.743652,4515.897461,4507.179688,4364.615234,4432.179688,3876.0,2.0,35.0,,,,0.0,4.0,4.0,4.0,4.0,4.0,4.0,4.0,4.0,4.0,4.0,4.0,4.0,4.0,4.0,100.0,,,,,,,,,,,,,,,,,,,,,,,,,,,,,,,,,,,,,,,,,,,,,,,,,,,,,,,,,,,,,,,,,,,,,,,,,,,,,,,,,,,,,,,,,,,,,,,,,,,,,,,,,,,,,,,,,,,,,,,,,,,,,,,,,,,
1725618215.068077,1725618215.069014,14.0,0.0,4245.512695,4243.589844,4270.0,4276.153809,4201.282227,4216.410156,4216.922852,4198.205078,4200.897461,4199.487305,4517.179688,4506.282227,4361.282227,4430.384766,2895.0,2.0,35.0,,,,0.0,4.0,4.0,4.0,4.0,4.0,4.0,4.0,4.0,4.0,4.0,4.0,4.0,4.0,4.0,100.0,,,,,,,,,,,,,,,,,,,,,,,,,,,,,,,,,,,,,,,,,,,,,,,,,,,,,,,,,,,,,,,,,,,,,,,,,,,,,,,,,,,,,,,,,,,,,,,,,,,,,,,,,,,,,,,,,,,,,,,,,,,,,,,,,,,
1725618215.071981,1725618215.072918,15.0,0.0,4244.615234,4242.436035,4272.05127,4277.05127,4203.077148,4217.436035,4218.717773,4198.974121,4201.538574,4198.846191,4519.358887,4506.282227,4359.743652,4430.256348,3056.0,2.0,35.0,,,,0.0,4.0,4.0,4.0,4.0,4.0,4.0,4.0,4.0,4.0,4.0,4.0,4.0,4.0,4.0,100.0,,,,,,,,,,,,,,,,,,,,,,,,,,,,,,,,,,,,,,,,,,,,,,,,,,,,,,,,,,,,,,,,,,,,,,,,,,,,,,,,,,,,,,,,,,,,,,,,,,,,,,,,,,,,,,,,,,,,,,,,,,,,,,,,,,,
1725618215.075885,1725618215.076922,16.0,0.0,4245.0,4242.307617,4274.102539,4278.205078,4205.897461,4217.692383,4220.641113,4200.0,4202.692383,4198.846191,4521.153809,4508.333496,4360.769043,4432.692383,3420.0,2.0,35.0,,,,0.0,4.0,4.0,4.0,4.0,4.0,4.0,4.0,4.0,4.0,4.0,4.0,4.0,4.0,4.0,100.0,,,,,,,,,,,,,,,,,,,,,,,,,,,,,,,,,,,,,,,,,,,,,,,,,,,,,,,,,,,,,,,,,,,,,,,,,,,,,,,,,,,,,,,,,,,,,,,,,,,,,,,,,,,,,,,,,,,,,,,,,,,,,,,,,,,
1725618215.079789,1725618215.080826,17.0,0.0,4245.641113,4242.563965,4276.153809,4278.974121,4208.333496,4217.179688,4221.282227,4201.666504,4203.589844,4200.256348,4521.666504,4512.563965,4363.589844,4436.922852,3876.0,2.0,35.0,,,,0.0,4.0,4.0,4.0,4.0,4.0,4.0,4.0,4.0,4.0,4.0,4.0,4.0,4.0,4.0,100.0,,,,,,,,,,,,,,,,,,,,,,,,,,,,,,,,,,,,,,,,,,,,,,,,,,,,,,,,,,,,,,,,,,,,,,,,,,,,,,,,,,,,,,,,,,,,,,,,,,,,,,,,,,,,,,,,,,,,,,,,,,,,,,,,,,,
1725618215.083693,1725618215.08473,18.0,0.0,4245.897461,4242.436035,4277.692383,4278.974121,4209.358887,4216.666504,4220.0,4203.974121,4203.846191,4202.05127,4522.05127,4517.05127,4365.897461,4441.282227,2895.0,2.0,35.0,,,,0.0,4.0,4.0,4.0,4.0,4.0,4.0,4.0,4.0,4.0,4.0,4.0,4.0,4.0,4.0,100.0,,,,,,,,,,,,,,,,,,,,,,,,,,,,,,,,,,,,,,,,,,,,,,,,,,,,,,,,0.0,0.0,1.0,0.0,1.0,0.0,,,,,,,,,,,,,,,,,,,,,,,,,,,,,,,,,,,,,,,,,,,,,,,,,,,,,,,,,,,,,,,,,,,,,,
1725618215.087597,1725618215.088634,19.0,0.0,4246.153809,4242.307617,4278.205078,4279.230957,4209.871582,4216.666504,4218.589844,4206.282227,4203.589844,4203.077148,4523.461426,4520.256348,4366.153809,4443.589844,3056.0,2.0,35.0,,,,0.0,4.0,4.0,4.0,4.0,4.0,4.0,4.0,4.0,4.0,4.0,4.0,4.0,4.0,4.0,100.0,,,,,,,,,,,,,,,,,,,,,,,,,,,,,,,,,,,,,,,,,,,,,,,,,,,,,,,,,,,,,,,,,,,,,,,,,,,,,,,,,,,,,,,,,,,,,,,,,,,,,,,,,,,,,,,,,,,,,,,,,,,,,,,,,,,
1725618215.091501,1725618215.092638,20.0,0.0,4247.436035,4243.205078,4278.077148,4280.0,4210.641113,4216.922852,4218.461426,4208.333496,4203.974121,4202.692383,4526.025879,4522.179688,4365.128418,4443.846191,3420.0,2.0,35.0,,,,0.0,4.0,4.0,4.0,4.0,4.0,4.0,4.0,4.0,4.0,4.0,4.0,4.0,4.0,4.0,100.0,,,,,,,,,,,,,,,,,,,,,,,,,,,,,,,,,,,,,,,,,,,,,,,,,,,,,,,,,,,,,,,,,,,,,,,,,,,,,,,,,,,,,,,,,,,,,,,,,,,,,,,,,,,,,,,,,,,,,,,,,,,,,,,,,,,
1725618215.095405,1725618215.096542,21.0,0.0,4249.743652,4245.769043,4278.717773,4281.538574,4211.538574,4217.05127,4220.0,4210.128418,4206.025879,4202.307617,4529.615234,4524.230957,4365.256348,4443.205078,3876.0,2.0,35.0,,,,0.0,4.0,4.0,4.0,4.0,4.0,4.0,4.0,4.0,4.0,4.0,4.0,4.0,4.0,4.0,100.0,,,,,,,,,,,,,,,,,,,,,,,,,,,,,,,,,,,,,,,,,,,,,,,,,,,,,,,,,,,,,,,,,,,,,,,,,,,,,,,,,,,,,,,,,,,,,,,,,,,,,,,,,,,,,,,,,,,,,,,,,,,,,,,,,,,
1725618215.09931,1725618215.100447,22.0,0.0,4251.410156,4248.717773,4281.025879,4282.94873,4211.666504,4216.922852,4222.05127,4212.05127,4209.871582,4203.974121,4533.974121,4527.563965,4368.846191,4443.846191,2895.0,2.0,35.0,,,,0.0,4.0,4.0,4.0,4.0,4.0,4.0,4.0,4.0,4.0,4.0,4.0,4.0,4.0,4.0,100.0,,,,,,,,,,,,,,,,,,,,,,,,,,,,,,,,,,,,,,,,,,,,,,,,,,,,,,,,,,,,,,,,,,,,,,,,,,,,,,,,,,,,,,,,,,,,,,,,,,,,,,,,,,,,,,,,,,,,,,,,,,,,,,,,,,,
1725618215.103214,1725618215.104351,23.0,0.0,4251.282227,4249.871582,4285.0,4283.717773,4210.256348,4216.922852,4223.333496,4214.358887,4214.615234,4208.205078,4538.717773,4531.794922,4375.0,4446.794922,3056.0,2.0,35.0,,,,0.0,4.0,4.0,4.0,4.0,4.0,4.0,4.0,4.0,4.0,4.0,4.0,4.0,4.0,4.0,100.0,,,,,,,,,,,,,,,,,,,,,,,,,,,,,,,,,,,,,,,,,,,,,,,,,,,,,,,,,,,,,,,,,,,,,,,,,,,,,,,,,,,,,,,,,,,,,,,,,,,,,,,,,,,,,,,,,,,,,,,,,,,,,,,,,,,
1725618215.107118,1725618215.108255,24.0,0.0,4250.0,4248.205078,4289.358887,4283.717773,4208.333496,4217.179688,4223.077148,4217.307617,4217.94873,4213.717773,4542.307617,4535.897461,4380.256348,4451.666504,3420.0,2.0,35.0,,,,0.0,4.0,4.0,4.0,4.0,4.0,4.0,4.0,4.0,4.0,4.0,4.0,4.0,4.0,4.0,100.0,,,,,,,,,,,,,,,,,,,,,,,,,,,,,,,,,,,,,,,,,,,,,,,,,,,,,,,,,,,,,,,,,,,,,,,,,,,,,,,,,,,,,,,,,,,,,,,,,,,,,,,,,,,,,,,,,,,,,,,,,,,,,,,,,,,
1725618215.111022,1725618215.112059,25.0,0.0,4250.0,4245.0,4292.94873,4283.205078,4207.05127,4217.94873,4221.794922,4220.0,4218.974121,4217.94873,4542.820313,4539.230957,4381.922852,4456.538574,3876.0,2.0,35.0,,,,0.0,4.0,4.0,4.0,4.0,4.0,4.0,4.0,4.0,4.0,4.0,4.0,4.0,4.0,4.0,100.0,,,,,,,,,,,,,,,,,,,,,,,,,,,,,,,,,,,,,,,,,,,,,,,,,,,,,,,,,,,,,,,,,,,,,,,,,,,,,,,,,,,,,,,,,,,,,,,,,,,,,,,,,,,,,,,,,,,,,,,,,,,,,,,,,,,
1725618215.114926,1725618215.116063,26.0,0.0,4253.205078,4242.436035,4294.230957,4282.307617,4207.05127,4218.846191,4220.0,4221.282227,4218.077148,4218.846191,4540.128418,4541.282227,4380.0,4459.871582,2895.0,2.0,35.0,,,,0.0,4.0,4.0,4.0,4.0,4.0,4.0,4.0,4.0,4.0,4.0,4.0,4.0,4.0,4.0,100.0,,,,,,,,,,,,,,,,,,,,,,,,,,,,,,,,,,,,,,,,,,,,,,,,,,,,,,,,0.0,0.0,1.0,0.0,1.0,0.0,,,,,,,,,,,,,,,,,,,,,,,,,,,,,,,,,,,,,,,,,,,,,,,,,,,,,,,,,,,,,,,,,,,,,,
1725618215.11883,1725618215.119967,27.0,0.0,4258.717773,4241.153809,4292.94873,4281.666504,4207.692383,4219.358887,4218.461426,4220.512695,4216.922852,4216.025879,4535.641113,4542.692383,4376.538574,4461.025879,3056.0,2.0,35.0,,,,0.0,4.0,4.0,4.0,4.0,4.0,4.0,4.0,4.0,4.0,4.0,4.0,4.0,4.0,4.0,100.0,,,,,,,,,,,,,,,,,,,,,,,,,,,,,,,,,,,,,,,,,,,,,,,,,,,,,,,,,,,,,,,,,,,,,,,,,,,,,,,,,,,,,,,,,,,,,,,,,,,,,,,,,,,,,,,,,,,,,,,,,,,,,,,,,,,
1725618215.122734,1725618215.123871,28.0,0.0,4263.077148,4240.769043,4289.743652,4281.282227,4207.94873,4219.102539,4217.692383,4218.589844,4216.538574,4211.153809,4531.922852,4543.205078,4373.589844,4460.384766,3420.0,2.0,35.0,,,,0.0,4.0,4.0,4.0,4.0,4.0,4.0,4.0,4.0,4.0,4.0,4.0,4.0,4.0,4.0,100.0,,,,,,,,,,,,,,,,,,,,,,,,,,,,,,,,,,,,,,,,,,,,,,,,,,,,,,,,,,,,,,,,,,,,,,,,,,,,,,,,,,,,,,,,,,,,,,,,,,,,,,,,,,,,,,,,,,,,,,,,,,,,,,,,,,,
1725618215.126638,1725618215.127775,29.0,0.0,4263.205078,4240.128418,4286.025879,4281.025879,4207.179688,4218.461426,4217.94873,4217.563965,4216.922852,4205.769043,4531.025879,4542.307617,4371.794922,4457.94873,3876.0,2.0,35.0,,,,0.0,4.0,4.0,4.0,4.0,4.0,4.0,4.0,4.0,4.0,4.0,4.0,4.0,4.0,4.0,100.0,,,,,,,,,,,,,,,,,,,,,,,,,,,,,,,,,,,,,,,,,,,,,,,,,,,,,,,,,,,,,,,,,,,,,,,,,,,,,,,,,,,,,,,,,,,,,,,,,,,,,,,,,,,,,,,,,,,,,,,,,,,,,,,,,,,
1725618215.130542,1725618215.131679,30.0,0.0,4258.333496,4238.333496,4282.820313,4280.384766,4205.384766,4217.692383,4218.461426,4217.820313,4216.922852,4201.410156,4533.077148,4538.846191,4370.0,4453.717773,2895.0,2.0,35.0,,,,0.0,4.0,4.0,4.0,4.0,4.0,4.0,4.0,4.0,4.0,4.0,4.0,4.0,4.0,4.0,100.0,,,,,,,,,,,,,,,,,,,,,,,,,,,,,,,,,,,,,,,,,,,,,,,,,,,,,,,,,,,,,,,,,,,,,,,,,,,,,,,,,,,,,,,,,,,,,,,,,,,,,,,,,,,,,,,,,,,,,,,,,,,,,,,,,,,
1725618215.134447,1725618215.135683,31.0,0.0,4251.153809,4235.897461,4281.153809,4279.102539,4203.205078,4217.436035,4218.461426,4218.461426,4216.025879,4198.589844,4536.025879,4532.307617,4367.692383,4448.589844,3056.0,2.0,35.0,,,,0.0,4.0,4.0,4.0,4.0,4.0,4.0,4.0,4.0,4.0,4.0,4.0,4.0,4.0,4.0,100.0,,,,,,,,,,,,,,,,,,,,,,,,,,,,,,,,,,,,,,,,,,,,,,,,,,,,,,,,,,,,,,,,,,,,,,,,,,,,,,,,,,,,,,,,,,,,,,,,,,,,,,,,,,,,,,,,,,,,,,,,,,,,,,,,,,,
1725618215.138351,1725618215.139587,32.0,0.0,4245.897461,4233.589844,4280.769043,4277.692383,4202.05127,4217.692383,4217.820313,4218.077148,4214.487305,4197.94873,4538.077148,4524.871582,4365.897461,4444.743652,0.0,2.0,35.0,,,,0.0,4.0,4.0,4.0,4.0,4.0,4.0,4.0,4.0,4.0,4.0,4.0,4.0,4.0,4.0,100.0,,,,,,,,,,,,,,,,,,,,,,,,,,,,,,,,,,,,,,,,,,,,,,,,,,,,,,,,,,,,,,,,,,,,,,,,,,,,,,,,,,,,,,,,,,,,,,,,,,,,,,,,,,,,,,,,,,,,,,,,,,,,,,,,,,,
1725618215.142255,1725618215.143492,33.0,0.0,4245.128418,4232.307617,4281.025879,4276.922852,4202.563965,4218.333496,4217.179688,4217.179688,4213.717773,4199.487305,4538.974121,4520.769043,4365.897461,4444.487305,0.0,2.0,35.0,,,,0.0,4.0,4.0,4.0,4.0,4.0,4.0,4.0,4.0,4.0,4.0,4.0,4.0,4.0,4.0,100.0,,,,,,,,,,,,,,,,,,,,,,,,,,,,,,,,,,,,,,,,,,,,,,,,,,,,,,,,,,,,,,,,,,,,,,,,,,,,,,,,,,,,,,,,,,,,,,,,,,,,,,,,,,,,,,,,,,,,,,,,,,,,,,,,,,,
1725618215.146159,1725618215.147396,34.0,0.0,4248.333496,4232.436035,4281.025879,4276.922852,4204.102539,4218.846191,4217.05127,4217.179688,4214.615234,4203.077148,4539.487305,4522.820313,4368.589844,4448.333496,0.0,2.0,35.0,,,,0.0,4.0,4.0,4.0,4.0,4.0,4.0,4.0,4.0,4.0,4.0,4.0,4.0,4.0,4.0,100.0,,,,,,,,,,,,,,,,,1.0,0.0,0.0,,,,,,,,,,,,,,,,,,,,,,,,,,,,,,,,,,,,,0.0,0.0,1.0,0.0,1.0,0.0,3.039297,1.376917,0.775741,0.356958,0.06719,2.21871,1.085647,0.528593,0.21265,0.118525,2.159907,0.870971,0.734979,0.386772,0.119358,1.461225,0.639554,0.427927,0.238376,0.047117,0.553972,0.222244,0.34002,0.246732,0.062323,0.198527,0.143277,0.383442,0.068246,0.083066,0.304408,0.175721,0.15477,0.082748,0.023137,0.910943,1.994533,0.560471,0.5195,0.2171,1.268335,2.031838,1.038605,0.420347,0.105043,2.678439,1.716229,1.617142,0.441235,0.181138,2.20092,2.094373,1.650148,0.692893,0.186833,3.321012,2.770271,1.83961,0.698019,0.180595,3.205934,2.548528,1.251017,0.670414,0.108977,3.653408,1.885272,0.998743,0.510529,0.102173
1725618215.150063,1725618215.1514,35.0,0.0,4252.05127,4233.333496,4280.641113,4277.436035,4205.0,4219.230957,4217.307617,4219.230957,4216.666504,4207.692383,4540.256348,4529.230957,4372.563965,4453.589844,0.0,2.0,35.0,,,,0.0,4.0,4.0,4.0,4.0,4.0,4.0,4.0,4.0,4.0,4.0,4.0,4.0,4.0,4.0,100.0,,,,,,,,,,,,,,,,,,,,,,,,,,,,,,,,,,,,,,,,,,,,,,,,,,,,,,,,,,,,,,,,,,,,,,,,,,,,,,,,,,,,,,,,,,,,,,,,,,,,,,,,,,,,,,,,,,,,,,,,,,,,,,,,,,,
1725618215.153967,1725618215.155304,36.0,0.0,4252.563965,4234.102539,4279.743652,4277.436035,4204.102539,4219.102539,4217.179688,4222.307617,4218.589844,4211.410156,4540.384766,4534.615234,4375.512695,4456.666504,0.0,2.0,35.0,,,,0.0,4.0,4.0,4.0,4.0,4.0,4.0,4.0,4.0,4.0,4.0,4.0,4.0,4.0,4.0,100.0,,,,,,,,,,,,,,,,,,,,,,,,,,,,,,,,,,,,,,,,,,,,,,,,,,,,,,,,,,,,,,,,,,,,,,,,,,,,,,,,,,,,,,,,,,,,,,,,,,,,,,,,,,,,,,,,,,,,,,,,,,,,,,,,,,,
1725618215.157871,1725618215.159208,37.0,0.0,4249.230957,4233.974121,4278.461426,4276.538574,4202.05127,4218.461426,4216.538574,4224.358887,4219.230957,4212.307617,4537.94873,4534.743652,4376.025879,4455.512695,0.0,2.0,35.0,,,,0.0,4.0,4.0,4.0,4.0,4.0,4.0,4.0,4.0,4.0,4.0,4.0,4.0,4.0,4.0,100.0,,,,,,,,,,,,,,,,,,,,,,,,,,,,,,,,,,,,,,,,,,,,,,,,,,,,,,,,,,,,,,,,,,,,,,,,,,,,,,,,,,,,,,,,,,,,,,,,,,,,,,,,,,,,,,,,,,,,,,,,,,,,,,,,,,,
1725618215.161775,1725618215.163112,38.0,0.0,4244.358887,4233.205078,4277.179688,4274.871582,4200.384766,4217.692383,4215.512695,4223.974121,4218.589844,4209.615234,4532.820313,4530.0,4373.846191,4450.897461,0.0,2.0,35.0,,,,0.0,4.0,4.0,4.0,4.0,4.0,4.0,4.0,4.0,4.0,4.0,4.0,4.0,4.0,4.0,100.0,,,,,,,,,,,,,,,,,,,,,,,,,,,,,,,,,,,,,,,,,,,,,,,,,,,,,,,,,,,,,,,,,,,,,,,,,,,,,,,,,,,,,,,,,,,,,,,,,,,,,,,,,,,,,,,,,,,,,,,,,,,,,,,,,,,
1725618215.165679,1725618215.167016,39.0,0.0,4241.538574,4232.436035,4276.153809,4273.205078,4200.256348,4217.05127,4215.0,4221.794922,4217.179688,4205.0,4527.692383,4524.871582,4370.897461,4445.512695,0.0,2.0,35.0,,,,0.0,4.0,4.0,4.0,4.0,4.0,4.0,4.0,4.0,4.0,4.0,4.0,4.0,4.0,4.0,100.0,,,,,,,,,,,,,,,,,,,,,,,,,,,,,,,,,,,,,,,,,,,,,,,,,,,,,,,,,,,,,,,,,,,,,,,,,,,,,,,,,,,,,,,,,,,,,,,,,,,,,,,,,,,,,,,,,,,,,,,,,,,,,,,,,,,
1725618215.169583,1725618215.17082,40.0,0.0,4242.179688,4232.179688,4275.897461,4272.307617,4201.153809,4216.538574,4215.512695,4219.230957,4215.897461,4201.282227,4526.025879,4523.333496,4369.102539,4442.692383,0.0,2.0,35.0,,,,0.0,4.0,4.0,4.0,4.0,4.0,4.0,4.0,4.0,4.0,4.0,4.0,4.0,4.0,4.0,100.0,,,,,,,,,,,,,,,,,,,,,,,,,,,,,,,,,,,,,,,,,,,,,,,,,,,,,,,,,,,,,,,,,,,,,,,,,,,,,,,,,,,,,,,,,,,,,,,,,,,,,,,,,,,,,,,,,,,,,,,,,,,,,,,,,,,
1725618215.173488,1725618215.174724,41.0,0.0,4245.384766,4232.179688,4276.922852,4272.179688,4201.666504,4216.538574,4216.538574,4217.820313,4215.512695,4200.641113,4528.974121,4525.769043,4368.974121,4443.205078,0.0,2.0,35.0,,,,0.0,4.0,4.0,4.0,4.0,4.0,4.0,4.0,4.0,4.0,4.0,4.0,4.0,4.0,4.0,100.0,,,,,,,,,,,,,,,,,,,,,,,,,,,,,,,,,,,,,,,,,,,,,,,,,,,,,,,,,,,,,,,,,,,,,,,,,,,,,,,,,,,,,,,,,,,,,,,,,,,,,,,,,,,,,,,,,,,,,,,,,,,,,,,,,,,
1725618215.177392,1725618215.178628,42.0,0.0,4248.205078,4231.794922,4278.333496,4272.307617,4201.282227,4216.794922,4217.436035,4217.692383,4215.769043,4203.077148,4534.230957,4528.717773,4369.358887,4445.512695,0.0,2.0,35.0,,,,0.0,4.0,4.0,4.0,4.0,4.0,4.0,4.0,4.0,4.0,4.0,4.0,4.0,4.0,4.0,100.0,,,,,,,,,,,,,,,,,,,,,,,,,,,,,,,,,,,,,,,,,,,,,,,,,,,,,,,,0.0,0.0,1.0,0.0,1.0,0.0,,,,,,,,,,,,,,,,,,,,,,,,,,,,,,,,,,,,,,,,,,,,,,,,,,,,,,,,,,,,,,,,,,,,,,
1725618215.181296,1725618215.182632,43.0,0.0,4248.974121,4230.897461,4279.487305,4272.307617,4200.897461,4217.05127,4217.563965,4218.077148,4216.025879,4206.410156,4537.05127,4529.102539,4368.974121,4446.538574,0.0,2.0,35.0,,,,0.0,4.0,4.0,4.0,4.0,4.0,4.0,4.0,4.0,4.0,4.0,4.0,4.0,4.0,4.0,100.0,,,,,,,,,,,,,,,,,,,,,,,,,,,,,,,,,,,,,,,,,,,,,,,,,,,,,,,,,,,,,,,,,,,,,,,,,,,,,,,,,,,,,,,,,,,,,,,,,,,,,,,,,,,,,,,,,,,,,,,,,,,,,,,,,,,
1725618215.1852,1725618215.186537,44.0,0.0,4247.820313,4230.769043,4279.487305,4272.179688,4201.153809,4216.922852,4216.794922,4217.179688,4215.641113,4207.94873,4534.230957,4526.794922,4367.692383,4445.512695,0.0,2.0,35.0,,,,0.0,4.0,4.0,4.0,4.0,4.0,4.0,4.0,4.0,4.0,4.0,4.0,4.0,4.0,4.0,100.0,,,,,,,,,,,,,,,,,,,,,,,,,,,,,,,,,,,,,,,,,,,,,,,,,,,,,,,,,,,,,,,,,,,,,,,,,,,,,,,,,,,,,,,,,,,,,,,,,,,,,,,,,,,,,,,,,,,,,,,,,,,,,,,,,,,
1725618215.189104,1725618215.190441,45.0,0.0,4246.410156,4232.05127,4278.717773,4272.563965,4201.922852,4216.666504,4215.769043,4214.743652,4214.743652,4206.538574,4527.307617,4524.358887,4366.282227,4443.461426,0.0,2.0,35.0,,,,0.0,4.0,4.0,4.0,4.0,4.0,4.0,4.0,4.0,4.0,4.0,4.0,4.0,4.0,4.0,100.0,,,,,,,,,,,,,,,,,,,,,,,,,,,,,,,,,,,,,,,,,,,,,,,,,,,,,,,,,,,,,,,,,,,,,,,,,,,,,,,,,,,,,,,,,,,,,,,,,,,,,,,,,,,,,,,,,,,,,,,,,,,,,,,,,,,
1725618215.193008,1725618215.194445,46.0,0.0,4246.410156,4233.846191,4277.692383,4273.846191,4202.179688,4216.410156,4215.128418,4212.307617,4213.846191,4203.205078,4520.769043,4523.589844,4365.897461,4442.179688,0.0,2.0,35.0,,,,0.0,4.0,4.0,4.0,4.0,4.0,4.0,4.0,4.0,4.0,4.0,4.0,4.0,4.0,4.0,100.0,,,,,,,,,,,,,,,,,,,,,,,,,,,,,,,,,,,,,,,,,,,,,,,,,,,,,,,,,,,,,,,,,,,,,,,,,,,,,,,,,,,,,,,,,,,,,,,,,,,,,,,,,,,,,,,,,,,,,,,,,,,,,,,,,,,
1725618215.196912,1725618215.198349,47.0,0.0,4247.820313,4234.871582,4277.307617,4275.897461,4201.538574,4216.538574,4215.128418,4211.794922,4213.846191,4200.256348,4519.230957,4523.974121,4366.282227,4442.05127,0.0,2.0,35.0,,,,0.0,4.0,4.0,4.0,4.0,4.0,4.0,4.0,4.0,4.0,4.0,4.0,4.0,4.0,4.0,100.0,,,,,,,,,,,,,,,,,,,,,,,,,,,,,,,,,,,,,,,,,,,,,,,,,,,,,,,,,,,,,,,,,,,,,,,,,,,,,,,,,,,,,,,,,,,,,,,,,,,,,,,,,,,,,,,,,,,,,,,,,,,,,,,,,,,
1725618215.200816,1725618215.202253,48.0,0.0,4249.230957,4234.743652,4277.820313,4277.692383,4200.512695,4217.05127,4215.897461,4213.333496,4214.487305,4199.230957,4522.692383,4524.487305,4366.538574,4443.077148,0.0,2.0,35.0,,,,0.0,4.0,4.0,4.0,4.0,4.0,4.0,4.0,4.0,4.0,4.0,4.0,4.0,4.0,4.0,100.0,,,,,,,,,,,,,,,,,,,,,,,,,,,,,,,,,,,,,,,,,,,,,,,,,,,,,,,,,,,,,,,,,,,,,,,,,,,,,,,,,,,,,,,,,,,,,,,,,,,,,,,,,,,,,,,,,,,,,,,,,,,,,,,,,,,
1725618215.20472,1725618215.206157,49.0,0.0,4249.615234,4235.0,4278.846191,4278.461426,4200.641113,4217.692383,4216.922852,4214.871582,4215.256348,4200.256348,4526.922852,4525.0,4366.410156,4444.102539,0.0,2.0,35.0,,,,0.0,4.0,4.0,4.0,4.0,4.0,4.0,4.0,4.0,4.0,4.0,4.0,4.0,4.0,4.0,100.0,,,,,,,,,,,,,,,,,,,,,,,,,,,,,,,,,,,,,,,,,,,,,,,,,,,,,,,,,,,,,,,,,,,,,,,,,,,,,,,,,,,,,,,,,,,,,,,,,,,,,,,,,,,,,,,,,,,,,,,,,,,,,,,,,,,
1725618215.208624,1725618215.210061,50.0,0.0,4249.102539,4236.538574,4279.871582,4278.077148,4203.333496,4218.205078,4217.692383,4214.102539,4215.512695,4202.307617,4527.563965,4526.282227,4365.769043,4444.871582,0.0,2.0,35.0,,,,0.0,4.0,4.0,4.0,4.0,4.0,4.0,4.0,4.0,4.0,4.0,4.0,4.0,4.0,4.0,100.0,,,,,,,,,,,,,,,,,,,,,,,,,,,,,,,,,,,,,,,,,,,,,,,,,,,,,,,,0.0,0.0,1.0,0.0,1.0,0.0,,,,,,,,,,,,,,,,,,,,,,,,,,,,,,,,,,,,,,,,,,,,,,,,,,,,,,,,,,,,,,,,,,,,,,
1725618215.212529,1725618215.213965,51.0,0.0,4249.102539,4239.487305,4280.0,4277.436035,4208.461426,4218.333496,4218.205078,4210.384766,4214.871582,4203.846191,4523.974121,4528.974121,4365.0,4445.512695,0.0,2.0,35.0,,,,0.0,4.0,4.0,4.0,4.0,4.0,4.0,4.0,4.0,4.0,4.0,4.0,4.0,4.0,4.0,100.0,,,,,,,,,,,,,,,,,,,,,,,,,,,,,,,,,,,,,,,,,,,,,,,,,,,,,,,,,,,,,,,,,,,,,,,,,,,,,,,,,,,,,,,,,,,,,,,,,,,,,,,,,,,,,,,,,,,,,,,,,,,,,,,,,,,
1725618215.216433,1725618215.217769,52.0,0.0,4250.897461,4242.94873,4279.358887,4277.820313,4213.846191,4218.333496,4218.205078,4205.897461,4213.846191,4204.487305,4519.743652,4532.563965,4364.230957,4445.897461,0.0,2.0,35.0,,,,0.0,4.0,4.0,4.0,4.0,4.0,4.0,4.0,4.0,4.0,4.0,4.0,4.0,4.0,4.0,100.0,,,,,,,,,,,,,,,,,,,,,,,,,,,,,,,,,,,,,,,,,,,,,,,,,,,,,,,,,,,,,,,,,,,,,,,,,,,,,,,,,,,,,,,,,,,,,,,,,,,,,,,,,,,,,,,,,,,,,,,,,,,,,,,,,,,
1725618215.220337,1725618215.221773,53.0,0.0,4253.974121,4245.384766,4278.589844,4279.102539,4216.794922,4218.205078,4218.077148,4204.615234,4213.333496,4204.102539,4519.358887,4535.128418,4363.589844,4445.641113,0.0,2.0,35.0,,,,0.0,4.0,4.0,4.0,4.0,4.0,4.0,4.0,4.0,4.0,4.0,4.0,4.0,4.0,4.0,100.0,,,,,,,,,,,,,,,,,,,,,,,,,,,,,,,,,,,,,,,,,,,,,,,,,,,,,,,,,,,,,,,,,,,,,,,,,,,,,,,,,,,,,,,,,,,,,,,,,,,,,,,,,,,,,,,,,,,,,,,,,,,,,,,,,,,
1725618215.224241,1725618215.225678,54.0,0.0,4256.922852,4246.282227,4278.461426,4280.641113,4215.384766,4218.333496,4217.692383,4208.461426,4214.102539,4203.461426,4523.846191,4534.743652,4363.846191,4444.871582,0.0,2.0,35.0,,,,0.0,4.0,4.0,4.0,4.0,4.0,4.0,4.0,4.0,4.0,4.0,4.0,4.0,4.0,4.0,100.0,,,,,,,,,,,,,,,,,,,,,,,,,,,,,,,,,,,,,,,,,,,,,,,,,,,,,,,,,,,,,,,,,,,,,,,,,,,,,,,,,,,,,,,,,,,,,,,,,,,,,,,,,,,,,,,,,,,,,,,,,,,,,,,,,,,
1725618215.228145,1725618215.229582,55.0,0.0,4257.692383,4245.769043,4278.974121,4281.282227,4210.384766,4218.205078,4217.179688,4215.0,4215.512695,4203.077148,4530.256348,4530.512695,4365.0,4443.589844,0.0,2.0,35.0,,,,0.0,4.0,4.0,4.0,4.0,4.0,4.0,4.0,4.0,4.0,4.0,4.0,4.0,4.0,4.0,100.0,,,,,,,,,,,,,,,,,,,,,,,,,,,,,,,,,,,,,,,,,,,,,,,,,,,,,,,,,,,,,,,,,,,,,,,,,,,,,,,,,,,,,,,,,,,,,,,,,,,,,,,,,,,,,,,,,,,,,,,,,,,,,,,,,,,
1725618215.232049,1725618215.233486,56.0,0.0,4255.512695,4244.230957,4279.871582,4280.512695,4204.615234,4217.692383,4216.794922,4219.615234,4216.025879,4202.820313,4534.230957,4524.358887,4366.410156,4442.820313,0.0,2.0,35.0,,,,0.0,4.0,4.0,4.0,4.0,4.0,4.0,4.0,4.0,4.0,4.0,4.0,4.0,4.0,4.0,100.0,,,,,,,,,,,,,,,,,,,,,,,,,,,,,,,,,,,,,,,,,,,,,,,,,,,,,,,,,,,,,,,,,,,,,,,,,,,,,,,,,,,,,,,,,,,,,,,,,,,,,,,,,,,,,,,,,,,,,,,,,,,,,,,,,,,
1725618215.235953,1725618215.23739,57.0,0.0,4251.794922,4241.922852,4280.769043,4279.102539,4201.153809,4216.538574,4216.538574,4218.717773,4214.358887,4202.307617,4533.077148,4520.128418,4366.922852,4442.692383,0.0,2.0,35.0,,,,0.0,4.0,4.0,4.0,4.0,4.0,4.0,4.0,4.0,4.0,4.0,4.0,4.0,4.0,4.0,100.0,,,,,,,,,,,,,,,,,,,,,,,,,,,,,,,,,,,,,,,,,,,,,,,,,,,,,,,,,,,,,,,,,,,,,,,,,,,,,,,,,,,,,,,,,,,,,,,,,,,,,,,,,,,,,,,,,,,,,,,,,,,,,,,,,,,
1725618215.239857,1725618215.241394,58.0,0.0,4248.589844,4238.974121,4281.410156,4278.077148,4200.897461,4215.256348,4216.666504,4212.820313,4210.641113,4201.282227,4528.205078,4520.128418,4366.025879,4443.333496,0.0,2.0,35.0,,,,0.0,4.0,4.0,4.0,4.0,4.0,4.0,4.0,4.0,4.0,4.0,4.0,4.0,4.0,4.0,100.0,,,,,,,,,,,,,,,,,,,,,,,,,,,,,,,,,,,,,,,,,,,,,,,,,,,,,,,,0.0,0.0,1.0,0.0,1.0,0.0,,,,,,,,,,,,,,,,,,,,,,,,,,,,,,,,,,,,,,,,,,,,,,,,,,,,,,,,,,,,,,,,,,,,,,
1725618215.243761,1725618215.245298,59.0,0.0,4247.307617,4236.025879,4281.666504,4277.94873,4202.820313,4214.230957,4217.05127,4205.512695,4206.794922,4199.871582,4523.333496,4523.333496,4364.615234,4443.974121,0.0,2.0,35.0,,,,0.0,4.0,4.0,4.0,4.0,4.0,4.0,4.0,4.0,4.0,4.0,4.0,4.0,4.0,4.0,100.0,,,,,,,,,,,,,,,,,,,,,,,,,,,,,,,,,,,,,,,,,,,,,,,,,,,,,,,,,,,,,,,,,,,,,,,,,,,,,,,,,,,,,,,,,,,,,,,,,,,,,,,,,,,,,,,,,,,,,,,,,,,,,,,,,,,
1725618215.247666,1725618215.249202,60.0,0.0,4247.94873,4234.487305,4281.538574,4278.974121,4204.615234,4213.974121,4217.436035,4201.538574,4205.256348,4198.974121,4521.410156,4526.153809,4364.615234,4444.230957,0.0,2.0,35.0,,,,0.0,4.0,4.0,4.0,4.0,4.0,4.0,4.0,4.0,4.0,4.0,4.0,4.0,4.0,4.0,100.0,,,,,,,,,,,,,,,,,,,,,,,,,,,,,,,,,,,,,,,,,,,,,,,,,,,,,,,,,,,,,,,,,,,,,,,,,,,,,,,,,,,,,,,,,,,,,,,,,,,,,,,,,,,,,,,,,,,,,,,,,,,,,,,,,,,
1725618215.25157,1725618215.253106,61.0,0.0,4249.615234,4235.769043,4281.153809,4280.128418,4205.128418,4214.487305,4217.179688,4202.820313,4207.179688,4198.846191,4523.333496,4525.769043,4367.563965,4444.102539,0.0,2.0,35.0,,,,0.0,4.0,4.0,4.0,4.0,4.0,4.0,4.0,4.0,4.0,4.0,4.0,4.0,4.0,4.0,100.0,,,,,,,,,,,,,,,,,,,,,,,,,,,,,,,,,,,,,,,,,,,,,,,,,,,,,,,,,,,,,,,,,,,,,,,,,,,,,,,,,,,,,,,,,,,,,,,,,,,,,,,,,,,,,,,,,,,,,,,,,,,,,,,,,,,
1725618215.255474,1725618215.25711,62.0,0.0,4251.025879,4239.487305,4280.512695,4280.641113,4204.487305,4215.641113,4216.538574,4208.461426,4211.666504,4200.0,4528.205078,4523.205078,4373.077148,4443.974121,0.0,2.0,35.0,,,,0.0,4.0,4.0,4.0,4.0,4.0,4.0,4.0,4.0,4.0,4.0,4.0,4.0,4.0,4.0,100.0,,,,,,,,,,,,,,,,,,,,,,,,,,,,,,,,,,,,,,,,,,,,,,,,,,,,,,,,,,,,,,,,,,,,,,,,,,,,,,,,,,,,,,,,,,,,,,,,,,,,,,,,,,,,,,,,,,,,,,,,,,,,,,,,,,,
1725618215.259378,1725618215.261014,63.0,0.0,4251.794922,4243.846191,4279.871582,4280.256348,4203.974121,4216.922852,4215.897461,4215.256348,4216.025879,4201.922852,4534.102539,4522.307617,4378.974121,4444.487305,0.0,2.0,35.0,,,,0.0,4.0,4.0,4.0,4.0,4.0,4.0,4.0,4.0,4.0,4.0,4.0,4.0,4.0,4.0,100.0,,,,,,,,,,,,,,,,,,,,,,,,,,,,,,,,,,,,,,,,,,,,,,,,,,,,,,,,,,,,,,,,,,,,,,,,,,,,,,,,,,,,,,,,,,,,,,,,,,,,,,,,,,,,,,,,,,,,,,,,,,,,,,,,,,,
1725618215.263282,1725618215.264918,64.0,0.0,4252.05127,4246.538574,4279.743652,4279.487305,4204.358887,4217.436035,4215.384766,4219.743652,4218.205078,4203.589844,4538.333496,4525.769043,4382.94873,4445.769043,0.0,2.0,35.0,,,,0.0,4.0,4.0,4.0,4.0,4.0,4.0,4.0,4.0,4.0,4.0,4.0,4.0,4.0,4.0,100.0,,,,,,,,,,,,,,,,,,,,,,,,,,,,,,,,,,,,,,,,,,,,,,,,,,,,,,,,,,,,,,,,,,,,,,,,,,,,,,,,,,,,,,,,,,,,,,,,,,,,,,,,,,,,,,,,,,,,,,,,,,,,,,,,,,,
1725618215.267186,1725618215.268822,65.0,0.0,4252.05127,4246.153809,4280.128418,4278.974121,4205.512695,4217.05127,4215.512695,4221.025879,4217.94873,4203.846191,4539.230957,4532.05127,4383.333496,4446.922852,0.0,2.0,35.0,,,,0.0,4.0,4.0,4.0,4.0,4.0,4.0,4.0,4.0,4.0,4.0,4.0,4.0,4.0,4.0,100.0,,,,,,,,,,,,,,,,,,,,,,,,,,,,,,,,,,,,,,,,,,,,,,,,,,,,,,,,,,,,,,,,,,,,,,,,,,,,,,,,,,,,,,,,,,,,,,,,,,,,,,,,,,,,,,,,,,,,,,,,,,,,,,,,,,,
1725618215.27109,1725618215.272727,66.0,0.0,4251.794922,4242.94873,4280.384766,4278.717773,4207.179688,4216.025879,4215.897461,4220.128418,4216.025879,4202.563965,4537.179688,4536.794922,4381.153809,4446.922852,0.0,2.0,35.0,,,,0.0,4.0,4.0,4.0,4.0,4.0,4.0,4.0,4.0,4.0,4.0,4.0,4.0,4.0,4.0,100.0,1.0,75.0,4.0,4.0,4.0,4.0,4.0,4.0,1.0,4.0,4.0,4.0,4.0,4.0,4.0,4.0,1.0,0.0,0.0,,,,,,,,,,,,,,,,,,,,,,,,,,,,,,,,,,,,,0.0,0.0,1.0,0.0,1.0,0.0,3.513105,1.358917,0.739516,0.376955,0.064445,1.981612,0.93712,0.481328,0.210764,0.105084,2.21999,0.801201,0.788114,0.372822,0.113699,1.615361,0.586917,0.433924,0.231417,0.047894,0.464005,0.177487,0.376594,0.23096,0.069714,0.180111,0.134039,0.288822,0.073748,0.079447,0.250967,0.162691,0.177084,0.076877,0.022023,0.722787,1.587566,0.493569,0.425802,0.183075,1.154026,1.498935,0.79934,0.380437,0.091522,2.285735,1.563959,1.43088,0.464687,0.162748,2.325131,2.058455,1.53506,0.690253,0.179036,3.928756,2.473182,1.586438,0.629392,0.177549,3.29334,2.603644,1.194706,0.66999,0.098829,4.267026,1.954903,0.883721,0.514372,0.094955
1725618215.274994,1725618215.276531,67.0,0.0,4251.025879,4238.461426,4279.743652,4278.717773,4208.846191,4215.641113,4216.282227,4218.717773,4213.846191,4201.538574,4534.358887,4536.538574,4378.333496,4445.384766,0.0,2.0,35.0,,,,0.0,4.0,4.0,4.0,4.0,4.0,4.0,4.0,4.0,4.0,4.0,4.0,4.0,4.0,4.0,100.0,,,,,,,,,,,,,,,,,,,,,,,,,,,,,,,,,,,,,,,,,,,,,,,,,,,,,,,,,,,,,,,,,,,,,,,,,,,,,,,,,,,,,,,,,,,,,,,,,,,,,,,,,,,,,,,,,,,,,,,,,,,,,,,,,,,
1725618215.278898,1725618215.280435,68.0,0.0,4249.743652,4234.230957,4278.333496,4278.717773,4210.512695,4216.153809,4216.153809,4217.307617,4212.179688,4202.563965,4533.333496,4531.666504,4377.179688,4443.077148,0.0,2.0,35.0,,,,0.0,4.0,4.0,4.0,4.0,4.0,4.0,4.0,4.0,4.0,4.0,4.0,4.0,4.0,4.0,100.0,,,,,,,,,,,,,,,,,,,,,,,,,,,,,,,,,,,,,,,,,,,,,,,,,,,,,,,,,,,,,,,,,,,,,,,,,,,,,,,,,,,,,,,,,,,,,,,,,,,,,,,,,,,,,,,,,,,,,,,,,,,,,,,,,,,
1725618215.282802,1725618215.284339,69.0,0.0,4248.461426,4231.666504,4276.794922,4278.717773,4212.05127,4217.436035,4215.769043,4215.897461,4212.05127,4206.153809,4534.487305,4525.769043,4378.077148,4441.153809,0.0,2.0,35.0,,,,0.0,4.0,4.0,4.0,4.0,4.0,4.0,4.0,4.0,4.0,4.0,4.0,4.0,4.0,4.0,100.0,,,,,,,,,,,,,,,,,,,,,,,,,,,,,,,,,,,,,,,,,,,,,,,,,,,,,,,,,,,,,,,,,,,,,,,,,,,,,,,,,,,,,,,,,,,,,,,,,,,,,,,,,,,,,,,,,,,,,,,,,,,,,,,,,,,
1725618215.286707,1725618215.288343,70.0,0.0,4248.205078,4231.666504,4276.282227,4278.974121,4213.589844,4218.589844,4215.641113,4215.128418,4213.717773,4210.641113,4536.538574,4522.436035,4380.0,4440.897461,0.0,2.0,35.0,,,,0.0,4.0,4.0,4.0,4.0,4.0,4.0,4.0,4.0,4.0,4.0,4.0,4.0,4.0,4.0,100.0,,,,,,,,,,,,,,,,,,,,,,,,,,,,,,,,,,,,,,,,,,,,,,,,,,,,,,,,,,,,,,,,,,,,,,,,,,,,,,,,,,,,,,,,,,,,,,,,,,,,,,,,,,,,,,,,,,,,,,,,,,,,,,,,,,,
1725618215.290611,1725618215.292247,71.0,0.0,4248.846191,4234.230957,4277.05127,4278.974121,4214.487305,4219.358887,4215.769043,4215.0,4216.025879,4213.333496,4536.794922,4523.589844,4381.025879,4442.179688,0.0,2.0,35.0,,,,0.0,4.0,4.0,4.0,4.0,4.0,4.0,4.0,4.0,4.0,4.0,4.0,4.0,4.0,4.0,100.0,,,,,,,,,,,,,,,,,,,,,,,,,,,,,,,,,,,,,,,,,,,,,,,,,,,,,,,,,,,,,,,,,,,,,,,,,,,,,,,,,,,,,,,,,,,,,,,,,,,,,,,,,,,,,,,,,,,,,,,,,,,,,,,,,,,
1725618215.294515,1725618215.296151,72.0,0.0,4249.871582,4238.461426,4278.846191,4278.846191,4214.487305,4219.358887,4216.282227,4215.384766,4217.05127,4212.307617,4533.589844,4527.563965,4380.512695,4443.974121,0.0,2.0,35.0,,,,0.0,4.0,4.0,4.0,4.0,4.0,4.0,4.0,4.0,4.0,4.0,4.0,4.0,4.0,4.0,100.0,,,,,,,,,,,,,,,,,,,,,,,,,,,,,,,,,,,,,,,,,,,,,,,,,,,,,,,,,,,,,,,,,,,,,,,,,,,,,,,,,,,,,,,,,,,,,,,,,,,,,,,,,,,,,,,,,,,,,,,,,,,,,,,,,,,
1725618215.298419,1725618215.300155,73.0,0.0,4250.512695,4243.077148,4280.384766,4278.589844,4213.589844,4218.846191,4217.05127,4215.512695,4215.128418,4207.94873,4527.563965,4530.512695,4378.974121,4444.871582,0.0,2.0,35.0,,,,0.0,4.0,4.0,4.0,4.0,4.0,4.0,4.0,4.0,4.0,4.0,4.0,4.0,4.0,4.0,100.0,,,,,,,,,,,,,,,,,,,,,,,,,,,,,,,,,,,,,,,,,,,,,,,,,,,,,,,,,,,,,,,,,,,,,,,,,,,,,,,,,,,,,,,,,,,,,,,,,,,,,,,,,,,,,,,,,,,,,,,,,,,,,,,,,,,
1725618215.302323,1725618215.304059,74.0,0.0,4250.384766,4246.538574,4280.769043,4278.589844,4213.205078,4217.94873,4218.077148,4214.487305,4210.512695,4202.820313,4521.282227,4529.871582,4377.94873,4444.487305,0.0,2.0,35.0,,,,0.0,4.0,4.0,4.0,4.0,4.0,4.0,4.0,4.0,4.0,4.0,4.0,4.0,4.0,4.0,100.0,,,,,,,,,,,,,,,,,,,,,,,,,,,,,,,,,,,,,,,,,,,,,,,,,,,,,,,,0.0,0.0,1.0,0.0,1.0,0.0,,,,,,,,,,,,,,,,,,,,,,,,,,,,,,,,,,,,,,,,,,,,,,,,,,,,,,,,,,,,,,,,,,,,,,
1725618215.306227,1725618215.307963,75.0,0.0,4249.615234,4248.077148,4279.871582,4279.230957,4213.974121,4217.179688,4220.0,4212.436035,4205.256348,4199.743652,4518.333496,4525.769043,4377.94873,4443.846191,0.0,2.0,35.0,,,,0.0,4.0,4.0,4.0,4.0,4.0,4.0,4.0,4.0,4.0,4.0,4.0,4.0,4.0,4.0,100.0,,,,,,,,,,,,,,,,,,,,,,,,,,,,,,,,,,,,,,,,,,,,,,,,,,,,,,,,,,,,,,,,,,,,,,,,,,,,,,,,,,,,,,,,,,,,,,,,,,,,,,,,,,,,,,,,,,,,,,,,,,,,,,,,,,,
1725618215.310131,1725618215.311868,76.0,0.0,4248.717773,4247.563965,4278.205078,4280.512695,4215.897461,4216.666504,4222.307617,4210.512695,4202.563965,4200.384766,4521.153809,4522.05127,4378.846191,4443.846191,0.0,2.0,35.0,,,,0.0,4.0,4.0,4.0,4.0,4.0,4.0,4.0,4.0,4.0,4.0,4.0,4.0,4.0,4.0,100.0,,,,,,,,,,,,,,,,,,,,,,,,,,,,,,,,,,,,,,,,,,,,,,,,,,,,,,,,,,,,,,,,,,,,,,,,,,,,,,,,,,,,,,,,,,,,,,,,,,,,,,,,,,,,,,,,,,,,,,,,,,,,,,,,,,,
1725618215.314035,1725618215.315872,77.0,0.0,4247.94873,4245.641113,4276.922852,4281.794922,4217.563965,4216.538574,4223.974121,4210.641113,4204.358887,4203.333496,4528.974121,4521.538574,4379.871582,4444.487305,0.0,2.0,35.0,,,,0.0,4.0,4.0,4.0,4.0,4.0,4.0,4.0,4.0,4.0,4.0,4.0,4.0,4.0,4.0,100.0,,,,,,,,,,,,,,,,,,,,,,,,,,,,,,,,,,,,,,,,,,,,,,,,,,,,,,,,,,,,,,,,,,,,,,,,,,,,,,,,,,,,,,,,,,,,,,,,,,,,,,,,,,,,,,,,,,,,,,,,,,,,,,,,,,,
1725618215.317939,1725618215.319776,78.0,0.0,4247.563965,4244.102539,4276.922852,4282.563965,4217.94873,4216.794922,4223.461426,4213.333496,4209.615234,4205.641113,4537.563965,4524.102539,4380.641113,4445.384766,0.0,2.0,35.0,,,,0.0,4.0,4.0,4.0,4.0,4.0,4.0,4.0,4.0,4.0,4.0,4.0,4.0,4.0,4.0,100.0,,,,,,,,,,,,,,,,,,,,,,,,,,,,,,,,,,,,,,,,,,,,,,,,,,,,,,,,,,,,,,,,,,,,,,,,,,,,,,,,,,,,,,,,,,,,,,,,,,,,,,,,,,,,,,,,,,,,,,,,,,,,,,,,,,,
1725618215.321844,1725618215.32368,79.0,0.0,4248.205078,4244.358887,4277.94873,4282.436035,4216.666504,4217.563965,4221.025879,4216.538574,4215.128418,4205.0,4541.922852,4527.94873,4381.410156,4445.897461,0.0,2.0,35.0,,,,0.0,4.0,4.0,4.0,4.0,4.0,4.0,4.0,4.0,4.0,4.0,4.0,4.0,4.0,4.0,100.0,,,,,,,,,,,,,,,,,,,,,,,,,,,,,,,,,,,,,,,,,,,,,,,,,,,,,,,,,,,,,,,,,,,,,,,,,,,,,,,,,,,,,,,,,,,,,,,,,,,,,,,,,,,,,,,,,,,,,,,,,,,,,,,,,,,
1725618215.325748,1725618215.327584,80.0,0.0,4249.871582,4246.538574,4279.358887,4281.666504,4215.0,4218.333496,4218.717773,4217.94873,4217.820313,4201.922852,4540.0,4531.538574,4381.922852,4446.666504,0.0,2.0,35.0,,,,0.0,4.0,4.0,4.0,4.0,4.0,4.0,4.0,4.0,4.0,4.0,4.0,4.0,4.0,4.0,100.0,,,,,,,,,,,,,,,,,,,,,,,,,,,,,,,,,,,,,,,,,,,,,,,,,,,,,,,,,,,,,,,,,,,,,,,,,,,,,,,,,,,,,,,,,,,,,,,,,,,,,,,,,,,,,,,,,,,,,,,,,,,,,,,,,,,
1725618215.329652,1725618215.331488,81.0,0.0,4252.179688,4248.846191,4280.512695,4281.153809,4213.846191,4218.846191,4218.589844,4216.922852,4216.922852,4199.615234,4533.846191,4535.0,4381.794922,4448.077148,0.0,2.0,35.0,,,,0.0,4.0,4.0,4.0,4.0,4.0,4.0,4.0,4.0,4.0,4.0,4.0,4.0,4.0,4.0,100.0,,,,,,,,,,,,,,,,,,,,,,,,,,,,,,,,,,,,,,,,,,,,,,,,,,,,,,,,,,,,,,,,,,,,,,,,,,,,,,,,,,,,,,,,,,,,,,,,,,,,,,,,,,,,,,,,,,,,,,,,,,,,,,,,,,,
1725618215.333556,1725618215.335292,82.0,0.0,4254.230957,4249.230957,4281.282227,4281.153809,4214.230957,4218.974121,4221.025879,4215.0,4214.358887,4200.641113,4528.589844,4538.205078,4381.153809,4450.256348,0.0,2.0,35.0,,,,0.0,4.0,4.0,4.0,4.0,4.0,4.0,4.0,4.0,4.0,4.0,4.0,4.0,4.0,4.0,100.0,,,,,,,,,,,,,,,,,,,,,,,,,,,,,,,,,,,,,,,,,,,,,,,,,,,,,,,,0.0,0.0,1.0,0.0,1.0,0.0,,,,,,,,,,,,,,,,,,,,,,,,,,,,,,,,,,,,,,,,,,,,,,,,,,,,,,,,,,,,,,,,,,,,,,
1725618215.33746,1725618215.339196,83.0,0.0,4255.0,4246.282227,4281.538574,4281.922852,4215.384766,4218.333496,4224.743652,4214.102539,4212.94873,4205.384766,4527.692383,4540.0,4380.128418,4451.922852,0.0,2.0,35.0,,,,0.0,4.0,4.0,4.0,4.0,4.0,4.0,4.0,4.0,4.0,4.0,4.0,4.0,4.0,4.0,100.0,,,,,,,,,,,,,,,,,,,,,,,,,,,,,,,,,,,,,,,,,,,,,,,,,,,,,,,,,,,,,,,,,,,,,,,,,,,,,,,,,,,,,,,,,,,,,,,,,,,,,,,,,,,,,,,,,,,,,,,,,,,,,,,,,,,
1725618215.341364,1725618215.3432,84.0,0.0,4254.102539,4240.897461,4281.538574,4282.692383,4216.410156,4217.307617,4227.05127,4215.384766,4213.846191,4211.282227,4531.025879,4538.333496,4379.358887,4452.436035,0.0,2.0,35.0,,,,0.0,4.0,4.0,4.0,4.0,4.0,4.0,4.0,4.0,4.0,4.0,4.0,4.0,4.0,4.0,100.0,,,,,,,,,,,,,,,,,,,,,,,,,,,,,,,,,,,,,,,,,,,,,,,,,,,,,,,,,,,,,,,,,,,,,,,,,,,,,,,,,,,,,,,,,,,,,,,,,,,,,,,,,,,,,,,,,,,,,,,,,,,,,,,,,,,
1725618215.345268,1725618215.347104,85.0,0.0,4252.307617,4235.641113,4281.153809,4282.820313,4216.282227,4216.282227,4226.153809,4218.077148,4216.282227,4215.641113,4536.282227,4533.589844,4379.487305,4451.794922,0.0,2.0,35.0,,,,0.0,4.0,4.0,4.0,4.0,4.0,4.0,4.0,4.0,4.0,4.0,4.0,4.0,4.0,4.0,100.0,,,,,,,,,,,,,,,,,,,,,,,,,,,,,,,,,,,,,,,,,,,,,,,,,,,,,,,,,,,,,,,,,,,,,,,,,,,,,,,,,,,,,,,,,,,,,,,,,,,,,,,,,,,,,,,,,,,,,,,,,,,,,,,,,,,
1725618215.349172,1725618215.351008,86.0,0.0,4250.897461,4232.94873,4280.897461,4282.05127,4215.128418,4215.897461,4222.436035,4220.128418,4218.205078,4217.563965,4540.384766,4528.717773,4380.384766,4450.769043,0.0,2.0,35.0,,,,0.0,4.0,4.0,4.0,4.0,4.0,4.0,4.0,4.0,4.0,4.0,4.0,4.0,4.0,4.0,100.0,,,,,,,,,,,,,,,,,,,,,,,,,,,,,,,,,,,,,,,,,,,,,,,,,,,,,,,,,,,,,,,,,,,,,,,,,,,,,,,,,,,,,,,,,,,,,,,,,,,,,,,,,,,,,,,,,,,,,,,,,,,,,,,,,,,
1725618215.353077,1725618215.354913,87.0,0.0,4250.256348,4233.333496,4280.769043,4281.025879,4213.717773,4216.282227,4218.333496,4220.512695,4218.205078,4217.563965,4541.538574,4527.563965,4381.794922,4450.384766,0.0,2.0,35.0,,,,0.0,4.0,4.0,4.0,4.0,4.0,4.0,4.0,4.0,4.0,4.0,4.0,4.0,4.0,4.0,100.0,,,,,,,,,,,,,,,,,,,,,,,,,,,,,,,,,,,,,,,,,,,,,,,,,,,,,,,,,,,,,,,,,,,,,,,,,,,,,,,,,,,,,,,,,,,,,,,,,,,,,,,,,,,,,,,,,,,,,,,,,,,,,,,,,,,
1725618215.356981,1725618215.358817,88.0,0.0,4250.256348,4235.384766,4280.769043,4280.384766,4213.077148,4217.05127,4216.282227,4219.102539,4216.666504,4216.794922,4539.743652,4530.769043,4382.692383,4450.256348,0.0,2.0,35.0,,,,0.0,4.0,4.0,4.0,4.0,4.0,4.0,4.0,4.0,4.0,4.0,4.0,4.0,4.0,4.0,100.0,,,,,,,,,,,,,,,,,,,,,,,,,,,,,,,,,,,,,,,,,,,,,,,,,,,,,,,,,,,,,,,,,,,,,,,,,,,,,,,,,,,,,,,,,,,,,,,,,,,,,,,,,,,,,,,,,,,,,,,,,,,,,,,,,,,
1725618215.360885,1725618215.362821,89.0,0.0,4250.256348,4237.05127,4280.769043,4280.128418,4213.077148,4217.820313,4216.666504,4216.538574,4215.384766,4214.871582,4535.897461,4536.025879,4382.436035,4449.871582,0.0,2.0,35.0,,,,0.0,4.0,4.0,4.0,4.0,4.0,4.0,4.0,4.0,4.0,4.0,4.0,4.0,4.0,4.0,100.0,,,,,,,,,,,,,,,,,,,,,,,,,,,,,,,,,,,,,,,,,,,,,,,,,,,,,,,,,,,,,,,,,,,,,,,,,,,,,,,,,,,,,,,,,,,,,,,,,,,,,,,,,,,,,,,,,,,,,,,,,,,,,,,,,,,
1725618215.364789,1725618215.366725,90.0,0.0,4250.256348,4236.794922,4280.512695,4280.0,4213.077148,4218.205078,4218.461426,4214.743652,4215.256348,4211.410156,4532.05127,4539.615234,4381.410156,4448.333496,0.0,2.0,35.0,,,,0.0,4.0,4.0,4.0,4.0,4.0,4.0,4.0,4.0,4.0,4.0,4.0,4.0,4.0,4.0,100.0,,,,,,,,,,,,,,,,,,,,,,,,,,,,,,,,,,,,,,,,,,,,,,,,,,,,,,,,0.0,0.0,1.0,0.0,1.0,0.0,,,,,,,,,,,,,,,,,,,,,,,,,,,,,,,,,,,,,,,,,,,,,,,,,,,,,,,,,,,,,,,,,,,,,,
1725618215.368693,1725618215.370629,91.0,0.0,4250.128418,4235.0,4280.0,4279.871582,4212.563965,4217.94873,4219.615234,4215.0,4215.897461,4206.794922,4529.615234,4539.871582,4380.128418,4446.025879,0.0,2.0,35.0,,,,0.0,4.0,4.0,4.0,4.0,4.0,4.0,4.0,4.0,4.0,4.0,4.0,4.0,4.0,4.0,100.0,,,,,,,,,,,,,,,,,,,,,,,,,,,,,,,,,,,,,,,,,,,,,,,,,,,,,,,,,,,,,,,,,,,,,,,,,,,,,,,,,,,,,,,,,,,,,,,,,,,,,,,,,,,,,,,,,,,,,,,,,,,,,,,,,,,
1725618215.372597,1725618215.374533,92.0,0.0,4250.128418,4233.461426,4279.615234,4279.743652,4211.666504,4217.307617,4218.974121,4217.307617,4216.410156,4202.692383,4528.846191,4537.436035,4379.358887,4444.102539,0.0,2.0,35.0,,,,0.0,4.0,4.0,4.0,4.0,4.0,4.0,4.0,4.0,4.0,4.0,4.0,4.0,4.0,4.0,100.0,,,,,,,,,,,,,,,,,,,,,,,,,,,,,,,,,,,,,,,,,,,,,,,,,,,,,,,,,,,,,,,,,,,,,,,,,,,,,,,,,,,,,,,,,,,,,,,,,,,,,,,,,,,,,,,,,,,,,,,,,,,,,,,,,,,
1725618215.376501,1725618215.378437,93.0,0.0,4250.512695,4234.615234,4279.358887,4280.128418,4211.410156,4216.666504,4217.307617,4219.615234,4216.538574,4201.794922,4528.461426,4534.743652,4379.487305,4443.333496,0.0,2.0,35.0,,,,0.0,4.0,4.0,4.0,4.0,4.0,4.0,4.0,4.0,4.0,4.0,4.0,4.0,4.0,4.0,100.0,,,,,,,,,,,,,,,,,,,,,,,,,,,,,,,,,,,,,,,,,,,,,,,,,,,,,,,,,,,,,,,,,,,,,,,,,,,,,,,,,,,,,,,,,,,,,,,,,,,,,,,,,,,,,,,,,,,,,,,,,,,,,,,,,,,
1725618215.380405,1725618215.382241,94.0,0.0,4251.282227,4239.102539,4279.487305,4280.897461,4212.307617,4216.794922,4216.282227,4219.358887,4216.153809,4204.615234,4527.179688,4533.846191,4380.0,4444.102539,0.0,2.0,35.0,,,,0.0,4.0,4.0,4.0,4.0,4.0,4.0,4.0,4.0,4.0,4.0,4.0,4.0,4.0,4.0,100.0,,,,,,,,,,,,,,,,,,,,,,,,,,,,,,,,,,,,,,,,,,,,,,,,,,,,,,,,,,,,,,,,,,,,,,,,,,,,,,,,,,,,,,,,,,,,,,,,,,,,,,,,,,,,,,,,,,,,,,,,,,,,,,,,,,,
1725618215.384309,1725618215.386145,95.0,0.0,4251.922852,4245.384766,4279.743652,4281.922852,4213.461426,4217.820313,4216.410156,4216.153809,4215.769043,4209.487305,4524.871582,4535.512695,4380.0,4445.256348,0.0,2.0,35.0,,,,0.0,4.0,4.0,4.0,4.0,4.0,4.0,4.0,4.0,4.0,4.0,4.0,4.0,4.0,4.0,100.0,,,,,,,,,,,,,,,,,,,,,,,,,,,,,,,,,,,,,,,,,,,,,,,,,,,,,,,,,,,,,,,,,,,,,,,,,,,,,,,,,,,,,,,,,,,,,,,,,,,,,,,,,,,,,,,,,,,,,,,,,,,,,,,,,,,
1725618215.388214,1725618215.39005,96.0,0.0,4252.05127,4250.0,4280.512695,4282.436035,4213.974121,4218.974121,4217.307617,4211.538574,4215.384766,4213.461426,4523.333496,4537.94873,4379.358887,4445.897461,0.0,2.0,35.0,,,,0.0,4.0,4.0,4.0,4.0,4.0,4.0,4.0,4.0,4.0,4.0,4.0,4.0,4.0,4.0,100.0,,,,,,,,,,,,,,,,,,,,,,,,,,,,,,,,,,,,,,,,,,,,,,,,,,,,,,,,,,,,,,,,,,,,,,,,,,,,,,,,,,,,,,,,,,,,,,,,,,,,,,,,,,,,,,,,,,,,,,,,,,,,,,,,,,,
1725618215.392118,1725618215.393854,97.0,0.0,4251.922852,4250.512695,4281.538574,4282.563965,4213.461426,4219.487305,4217.820313,4208.077148,4214.871582,4214.358887,4524.358887,4538.974121,4378.974121,4445.512695,0.0,2.0,35.0,,,,0.0,4.0,4.0,4.0,4.0,4.0,4.0,4.0,4.0,4.0,4.0,4.0,4.0,4.0,4.0,100.0,,,,,,,,,,,,,,,,,,,,,,,,,,,,,,,,,,,,,,,,,,,,,,,,,,,,,,,,,,,,,,,,,,,,,,,,,,,,,,,,,,,,,,,,,,,,,,,,,,,,,,,,,,,,,,,,,,,,,,,,,,,,,,,,,,,
1725618215.396022,1725618215.397758,98.0,0.0,4251.922852,4247.563965,4282.94873,4282.179688,4212.563965,4218.974121,4217.820313,4207.94873,4214.871582,4212.692383,4528.461426,4538.333496,4379.871582,4445.384766,0.0,2.0,35.0,,,,0.0,4.0,4.0,4.0,4.0,4.0,4.0,4.0,4.0,4.0,4.0,4.0,4.0,4.0,4.0,100.0,,,,,,,,,,,,,,,,,1.0,0.0,0.0,,,,,,,,,,,,,,,,,,,,,,,,,,,,,,,,,,,,,0.0,0.0,1.0,0.0,1.0,0.0,4.443411,1.441317,0.766714,0.422855,0.066035,2.055314,0.921561,0.479464,0.234321,0.101927,2.620677,0.793759,0.910455,0.37554,0.103513,1.979819,0.600794,0.479347,0.24491,0.048898,0.431591,0.146701,0.425334,0.226574,0.077102,0.173101,0.136351,0.199593,0.08309,0.077408,0.253445,0.175131,0.225803,0.08915,0.023312,0.622463,1.263318,0.448255,0.373474,0.159903,1.081662,1.118291,0.611893,0.382039,0.079903,2.02886,1.595967,1.276825,0.5286,0.146627,2.804134,2.174223,1.556279,0.740612,0.174444,4.889287,2.343848,1.468099,0.648473,0.18192,3.696483,2.948098,1.275077,0.735808,0.095933,5.511699,2.209868,0.872236,0.571959,0.09083
1725618215.399926,1725618215.401662,99.0,0.0,4252.307617,4242.94873,4283.846191,4281.282227,4212.563965,4218.077148,4217.436035,4211.666504,4215.0,4210.769043,4534.102539,4537.94873,4381.794922,4446.410156,0.0,2.0,35.0,,,,0.0,4.0,4.0,4.0,4.0,4.0,4.0,4.0,4.0,4.0,4.0,4.0,4.0,4.0,4.0,100.0,,,,,,,,,,,,,,,,,,,,,,,,,,,,,,,,,,,,,,,,,,,,,,,,,,,,,,,,,,,,,,,,,,,,,,,,,,,,,,,,,,,,,,,,,,,,,,,,,,,,,,,,,,,,,,,,,,,,,,,,,,,,,,,,,,,
1725618215.40383,1725618215.405666,100.0,0.0,4252.179688,4238.717773,4283.461426,4280.0,4213.333496,4217.94873,4217.436035,4216.666504,4215.256348,4209.743652,4538.333496,4539.487305,4382.94873,4447.692383,0.0,2.0,35.0,,,,0.0,4.0,4.0,4.0,4.0,4.0,4.0,4.0,4.0,4.0,4.0,4.0,4.0,4.0,4.0,100.0,,,,,,,,,,,,,,,,,,,,,,,,,,,,,,,,,,,,,,,,,,,,,,,,,,,,,,,,,,,,,,,,,,,,,,,,,,,,,,,,,,,,,,,,,,,,,,,,,,,,,,,,,,,,,,,,,,,,,,,,,,,,,,,,,,,
1725618215.407734,1725618215.40957,101.0,0.0,4250.769043,4235.769043,4281.666504,4278.717773,4214.487305,4218.974121,4217.94873,4219.487305,4215.256348,4209.102539,4538.974121,4541.410156,4381.666504,4448.077148,0.0,2.0,35.0,,,,0.0,4.0,4.0,4.0,4.0,4.0,4.0,4.0,4.0,4.0,4.0,4.0,4.0,4.0,4.0,100.0,,,,,,,,,,,,,,,,,,,,,,,,,,,,,,,,,,,,,,,,,,,,,,,,,,,,,,,,,,,,,,,,,,,,,,,,,,,,,,,,,,,,,,,,,,,,,,,,,,,,,,,,,,,,,,,,,,,,,,,,,,,,,,,,,,,
1725618215.411638,1725618215.413474,102.0,0.0,4248.846191,4234.615234,4279.615234,4278.717773,4215.0,4220.512695,4218.589844,4218.717773,4214.743652,4207.436035,4536.025879,4541.153809,4377.820313,4446.922852,0.0,2.0,35.0,,,,0.0,4.0,4.0,4.0,4.0,4.0,4.0,4.0,4.0,4.0,4.0,4.0,4.0,4.0,4.0,100.0,,,,,,,,,,,,,,,,,,,,,,,,,,,,,,,,,,,,,,,,,,,,,,,,,,,,,,,,,,,,,,,,,,,,,,,,,,,,,,,,,,,,,,,,,,,,,,,,,,,,,,,,,,,,,,,,,,,,,,,,,,,,,,,,,,,
1725618215.415542,1725618215.417478,103.0,0.0,4248.461426,4235.256348,4279.230957,4280.769043,4214.871582,4221.410156,4218.974121,4216.410156,4214.358887,4205.769043,4532.307617,4538.461426,4373.589844,4445.769043,0.0,2.0,35.0,,,,0.0,4.0,4.0,4.0,4.0,4.0,4.0,4.0,4.0,4.0,4.0,4.0,4.0,4.0,4.0,100.0,,,,,,,,,,,,,,,,,,,,,,,,,,,,,,,,,,,,,,,,,,,,,,,,,,,,,,,,,,,,,,,,,,,,,,,,,,,,,,,,,,,,,,,,,,,,,,,,,,,,,,,,,,,,,,,,,,,,,,,,,,,,,,,,,,,
1725618215.419446,1725618215.421382,104.0,0.0,4250.897461,4237.563965,4281.922852,4284.871582,4214.615234,4221.025879,4219.102539,4216.025879,4214.615234,4205.769043,4531.538574,4536.282227,4371.922852,4446.922852,0.0,2.0,35.0,,,,0.0,4.0,4.0,4.0,4.0,4.0,4.0,4.0,4.0,4.0,4.0,4.0,4.0,4.0,4.0,100.0,,,,,,,,,,,,,,,,,,,,,,,,,,,,,,,,,,,,,,,,,,,,,,,,,,,,,,,,,,,,,,,,,,,,,,,,,,,,,,,,,,,,,,,,,,,,,,,,,,,,,,,,,,,,,,,,,,,,,,,,,,,,,,,,,,,
1725618215.42335,1725618215.425286,105.0,0.0,4256.153809,4240.769043,4287.436035,4290.0,4215.0,4219.743652,4219.358887,4219.487305,4215.512695,4208.333496,4534.487305,4537.692383,4374.102539,4450.769043,0.0,2.0,35.0,,,,0.0,4.0,4.0,4.0,4.0,4.0,4.0,4.0,4.0,4.0,4.0,4.0,4.0,4.0,4.0,100.0,,,,,,,,,,,,,,,,,,,,,,,,,,,,,,,,,,,,,,,,,,,,,,,,,,,,,,,,,,,,,,,,,,,,,,,,,,,,,,,,,,,,,,,,,,,,,,,,,,,,,,,,,,,,,,,,,,,,,,,,,,,,,,,,,,,
1725618215.427255,1725618215.42919,106.0,0.0,4261.922852,4243.461426,4293.589844,4294.358887,4216.410156,4218.333496,4220.256348,4224.871582,4216.666504,4211.922852,4538.333496,4542.94873,4378.717773,4455.769043,0.0,2.0,35.0,,,,0.0,4.0,4.0,4.0,4.0,4.0,4.0,4.0,4.0,4.0,4.0,4.0,4.0,4.0,4.0,100.0,,,,,,,,,,,,,,,,,,,,,,,,,,,,,,,,,,,,,,,,,,,,,,,,,,,,,,,,0.0,0.0,1.0,0.0,1.0,0.0,,,,,,,,,,,,,,,,,,,,,,,,,,,,,,,,,,,,,,,,,,,,,,,,,,,,,,,,,,,,,,,,,,,,,,
1725618215.431159,1725618215.433095,107.0,0.0,4265.128418,4244.615234,4297.563965,4296.282227,4217.94873,4217.820313,4221.666504,4228.589844,4217.179688,4213.717773,4538.333496,4549.230957,4382.307617,4458.974121,0.0,2.0,35.0,,,,0.0,4.0,4.0,4.0,4.0,4.0,4.0,4.0,4.0,4.0,4.0,4.0,4.0,4.0,4.0,100.0,,,,,,,,,,,,,,,,,,,,,,,,,,,,,,,,,,,,,,,,,,,,,,,,,,,,,,,,,,,,,,,,,,,,,,,,,,,,,,,,,,,,,,,,,,,,,,,,,,,,,,,,,,,,,,,,,,,,,,,,,,,,,,,,,,,
1725618215.435063,1725618215.436999,108.0,0.0,4265.128418,4243.717773,4298.077148,4294.871582,4218.717773,4218.461426,4222.692383,4228.333496,4216.922852,4212.307617,4533.333496,4552.179688,4382.05127,4458.461426,0.0,2.0,35.0,,,,0.0,4.0,4.0,4.0,4.0,4.0,4.0,4.0,4.0,4.0,4.0,4.0,4.0,4.0,4.0,100.0,,,,,,,,,,,,,,,,,,,,,,,,,,,,,,,,,,,,,,,,,,,,,,,,,,,,,,,,,,,,,,,,,,,,,,,,,,,,,,,,,,,,,,,,,,,,,,,,,,,,,,,,,,,,,,,,,,,,,,,,,,,,,,,,,,,
1725618215.438967,1725618215.440803,109.0,0.0,4262.94873,4242.05127,4295.641113,4291.025879,4218.205078,4219.743652,4222.820313,4224.230957,4216.025879,4208.717773,4526.153809,4549.743652,4377.94873,4454.358887,0.0,2.0,35.0,,,,0.0,4.0,4.0,4.0,4.0,4.0,4.0,4.0,4.0,4.0,4.0,4.0,4.0,4.0,4.0,100.0,,,,,,,,,,,,,,,,,,,,,,,,,,,,,,,,,,,,,,,,,,,,,,,,,,,,,,,,,,,,,,,,,,,,,,,,,,,,,,,,,,,,,,,,,,,,,,,,,,,,,,,,,,,,,,,,,,,,,,,,,,,,,,,,,,,
1725618215.442871,1725618215.444707,110.0,0.0,4261.282227,4241.282227,4292.692383,4286.282227,4216.794922,4221.025879,4222.692383,4218.333496,4215.128418,4205.897461,4521.410156,4543.333496,4372.820313,4449.102539,0.0,2.0,35.0,,,,0.0,4.0,4.0,4.0,4.0,4.0,4.0,4.0,4.0,4.0,4.0,4.0,4.0,4.0,4.0,100.0,,,,,,,,,,,,,,,,,,,,,,,,,,,,,,,,,,,,,,,,,,,,,,,,,,,,,,,,,,,,,,,,,,,,,,,,,,,,,,,,,,,,,,,,,,,,,,,,,,,,,,,,,,,,,,,,,,,,,,,,,,,,,,,,,,,
1725618215.446775,1725618215.448711,111.0,0.0,4261.538574,4241.794922,4291.282227,4282.820313,4215.641113,4221.153809,4222.94873,4212.94873,4214.358887,4206.666504,4521.282227,4536.282227,4370.384766,4445.128418,0.0,2.0,35.0,,,,0.0,4.0,4.0,4.0,4.0,4.0,4.0,4.0,4.0,4.0,4.0,4.0,4.0,4.0,4.0,100.0,,,,,,,,,,,,,,,,,,,,,,,,,,,,,,,,,,,,,,,,,,,,,,,,,,,,,,,,,,,,,,,,,,,,,,,,,,,,,,,,,,,,,,,,,,,,,,,,,,,,,,,,,,,,,,,,,,,,,,,,,,,,,,,,,,,
1725618215.450679,1725618215.452615,112.0,0.0,4262.94873,4243.077148,4291.794922,4282.05127,4215.897461,4220.128418,4223.461426,4209.102539,4213.461426,4210.897461,4524.487305,4532.179688,4372.05127,4443.717773,0.0,2.0,35.0,,,,0.0,4.0,4.0,4.0,4.0,4.0,4.0,4.0,4.0,4.0,4.0,4.0,4.0,4.0,4.0,100.0,,,,,,,,,,,,,,,,,,,,,,,,,,,,,,,,,,,,,,,,,,,,,,,,,,,,,,,,,,,,,,,,,,,,,,,,,,,,,,,,,,,,,,,,,,,,,,,,,,,,,,,,,,,,,,,,,,,,,,,,,,,,,,,,,,,
1725618215.454583,1725618215.456519,113.0,0.0,4263.846191,4244.230957,4292.692383,4284.230957,4217.179688,4218.333496,4223.717773,4206.922852,4212.563965,4215.641113,4527.307617,4531.666504,4375.897461,4444.487305,0.0,2.0,35.0,,,,0.0,4.0,4.0,4.0,4.0,4.0,4.0,4.0,4.0,4.0,4.0,4.0,4.0,4.0,4.0,100.0,,,,,,,,,,,,,,,,,,,,,,,,,,,,,,,,,,,,,,,,,,,,,,,,,,,,,,,,,,,,,,,,,,,,,,,,,,,,,,,,,,,,,,,,,,,,,,,,,,,,,,,,,,,,,,,,,,,,,,,,,,,,,,,,,,,
1725618215.458487,1725618215.460423,114.0,0.0,4263.333496,4244.743652,4292.820313,4287.94873,4218.461426,4216.666504,4223.333496,4206.025879,4212.179688,4217.692383,4527.692383,4533.717773,4378.717773,4445.769043,0.0,2.0,35.0,,,,0.0,4.0,4.0,4.0,4.0,4.0,4.0,4.0,4.0,4.0,4.0,4.0,4.0,4.0,4.0,100.0,,,,,,,,,,,,,,,,,,,,,,,,,,,,,,,,,,,,,,,,,,,,,,,,,,,,,,,,0.0,0.0,1.0,0.0,1.0,0.0,,,,,,,,,,,,,,,,,,,,,,,,,,,,,,,,,,,,,,,,,,,,,,,,,,,,,,,,,,,,,,,,,,,,,,
1725618215.462392,1725618215.464327,115.0,0.0,4261.794922,4244.487305,4292.179688,4291.153809,4218.333496,4215.897461,4222.05127,4207.05127,4212.563965,4216.410156,4525.641113,4536.282227,4378.589844,4446.410156,0.0,2.0,35.0,,,,0.0,4.0,4.0,4.0,4.0,4.0,4.0,4.0,4.0,4.0,4.0,4.0,4.0,4.0,4.0,100.0,,,,,,,,,,,,,,,,,,,,,,,,,,,,,,,,,,,,,,,,,,,,,,,,,,,,,,,,,,,,,,,,,,,,,,,,,,,,,,,,,,,,,,,,,,,,,,,,,,,,,,,,,,,,,,,,,,,,,,,,,,,,,,,,,,,
1725618215.466296,1725618215.468331,116.0,0.0,4260.769043,4243.846191,4291.538574,4292.179688,4215.897461,4216.282227,4220.0,4210.128418,4214.102539,4214.358887,4523.461426,4537.94873,4376.153809,4446.282227,0.0,2.0,35.0,,,,0.0,4.0,4.0,4.0,4.0,4.0,4.0,4.0,4.0,4.0,4.0,4.0,4.0,4.0,4.0,100.0,,,,,,,,,,,,,,,,,,,,,,,,,,,,,,,,,,,,,,,,,,,,,,,,,,,,,,,,,,,,,,,,,,,,,,,,,,,,,,,,,,,,,,,,,,,,,,,,,,,,,,,,,,,,,,,,,,,,,,,,,,,,,,,,,,,
1725618215.4702,1725618215.472235,117.0,0.0,4260.512695,4242.94873,4291.410156,4290.384766,4211.666504,4217.307617,4217.94873,4214.487305,4216.025879,4213.846191,4522.820313,4538.589844,4373.333496,4446.153809,0.0,2.0,35.0,,,,0.0,4.0,4.0,4.0,4.0,4.0,4.0,4.0,4.0,4.0,4.0,4.0,4.0,4.0,4.0,100.0,,,,,,,,,,,,,,,,,,,,,,,,,,,,,,,,,,,,,,,,,,,,,,,,,,,,,,,,,,,,,,,,,,,,,,,,,,,,,,,,,,,,,,,,,,,,,,,,,,,,,,,,,,,,,,,,,,,,,,,,,,,,,,,,,,,
1725618215.474104,1725618215.47614,118.0,0.0,4260.512695,4242.05127,4291.025879,4286.538574,4207.179688,4218.205078,4216.794922,4218.461426,4217.820313,4215.256348,4524.358887,4538.589844,4371.922852,4446.538574,0.0,2.0,35.0,,,,0.0,4.0,4.0,4.0,4.0,4.0,4.0,4.0,4.0,4.0,4.0,4.0,4.0,4.0,4.0,100.0,,,,,,,,,,,,,,,,,,,,,,,,,,,,,,,,,,,,,,,,,,,,,,,,,,,,,,,,,,,,,,,,,,,,,,,,,,,,,,,,,,,,,,,,,,,,,,,,,,,,,,,,,,,,,,,,,,,,,,,,,,,,,,,,,,,
1725618215.478008,1725618215.480044,119.0,0.0,4260.128418,4240.641113,4289.230957,4282.436035,4203.717773,4218.461426,4216.666504,4220.512695,4218.846191,4216.282227,4526.666504,4538.589844,4372.307617,4446.922852,0.0,2.0,35.0,,,,0.0,4.0,4.0,4.0,4.0,4.0,4.0,4.0,4.0,4.0,4.0,4.0,4.0,4.0,4.0,100.0,,,,,,,,,,,,,,,,,,,,,,,,,,,,,,,,,,,,,,,,,,,,,,,,,,,,,,,,,,,,,,,,,,,,,,,,,,,,,,,,,,,,,,,,,,,,,,,,,,,,,,,,,,,,,,,,,,,,,,,,,,,,,,,,,,,
1725618215.481912,1725618215.483848,120.0,0.0,4259.102539,4238.077148,4286.025879,4280.0,4201.794922,4217.692383,4216.922852,4220.512695,4218.589844,4214.615234,4527.692383,4538.077148,4373.589844,4446.794922,0.0,2.0,35.0,,,,0.0,4.0,4.0,4.0,4.0,4.0,4.0,4.0,4.0,4.0,4.0,4.0,4.0,4.0,4.0,100.0,,,,,,,,,,,,,,,,,,,,,,,,,,,,,,,,,,,,,,,,,,,,,,,,,,,,,,,,,,,,,,,,,,,,,,,,,,,,,,,,,,,,,,,,,,,,,,,,,,,,,,,,,,,,,,,,,,,,,,,,,,,,,,,,,,,
1725618215.485816,1725618215.487752,121.0,0.0,4258.077148,4235.641113,4283.077148,4279.871582,4201.282227,4216.153809,4217.05127,4218.846191,4217.05127,4210.0,4525.641113,4536.794922,4374.230957,4445.769043,0.0,2.0,35.0,,,,0.0,4.0,4.0,4.0,4.0,4.0,4.0,4.0,4.0,4.0,4.0,4.0,4.0,4.0,4.0,100.0,,,,,,,,,,,,,,,,,,,,,,,,,,,,,,,,,,,,,,,,,,,,,,,,,,,,,,,,,,,,,,,,,,,,,,,,,,,,,,,,,,,,,,,,,,,,,,,,,,,,,,,,,,,,,,,,,,,,,,,,,,,,,,,,,,,
1725618215.48972,1725618215.491656,122.0,0.0,4257.563965,4234.871582,4282.307617,4281.282227,4201.922852,4214.871582,4216.666504,4217.05127,4215.0,4204.487305,4521.538574,4535.384766,4373.589844,4444.615234,0.0,2.0,35.0,,,,0.0,4.0,4.0,4.0,4.0,4.0,4.0,4.0,4.0,4.0,4.0,4.0,4.0,4.0,4.0,100.0,,,,,,,,,,,,,,,,,,,,,,,,,,,,,,,,,,,,,,,,,,,,,,,,,,,,,,,,0.0,0.0,1.0,0.0,1.0,0.0,,,,,,,,,,,,,,,,,,,,,,,,,,,,,,,,,,,,,,,,,,,,,,,,,,,,,,,,,,,,,,,,,,,,,,
1725618215.493624,1725618215.49556,123.0,0.0,4257.179688,4236.666504,4284.358887,4282.436035,4203.846191,4214.615234,4216.282227,4216.153809,4212.94873,4200.769043,4517.692383,4535.512695,4371.666504,4443.974121,0.0,2.0,35.0,,,,0.0,4.0,4.0,4.0,4.0,4.0,4.0,4.0,4.0,4.0,4.0,4.0,4.0,4.0,4.0,100.0,,,,,,,,,,,,,,,,,,,,,,,,,,,,,,,,,,,,,,,,,,,,,,,,,,,,,,,,,,,,,,,,,,,,,,,,,,,,,,,,,,,,,,,,,,,,,,,,,,,,,,,,,,,,,,,,,,,,,,,,,,,,,,,,,,,
1725618215.497528,1725618215.499364,124.0,0.0,4256.282227,4240.0,4287.563965,4282.436035,4206.666504,4215.641113,4216.666504,4215.641113,4211.666504,4199.487305,4516.666504,4536.794922,4369.358887,4443.974121,0.0,2.0,35.0,,,,0.0,4.0,4.0,4.0,4.0,4.0,4.0,4.0,4.0,4.0,4.0,4.0,4.0,4.0,4.0,100.0,,,,,,,,,,,,,,,,,,,,,,,,,,,,,,,,,,,,,,,,,,,,,,,,,,,,,,,,,,,,,,,,,,,,,,,,,,,,,,,,,,,,,,,,,,,,,,,,,,,,,,,,,,,,,,,,,,,,,,,,,,,,,,,,,,,
1725618215.501433,1725618215.503269,125.0,0.0,4254.615234,4242.820313,4289.615234,4281.282227,4210.0,4217.179688,4218.077148,4214.743652,4211.282227,4200.128418,4518.974121,4537.307617,4367.436035,4444.487305,0.0,2.0,35.0,,,,0.0,4.0,4.0,4.0,4.0,4.0,4.0,4.0,4.0,4.0,4.0,4.0,4.0,4.0,4.0,100.0,,,,,,,,,,,,,,,,,,,,,,,,,,,,,,,,,,,,,,,,,,,,,,,,,,,,,,,,,,,,,,,,,,,,,,,,,,,,,,,,,,,,,,,,,,,,,,,,,,,,,,,,,,,,,,,,,,,,,,,,,,,,,,,,,,,
1725618215.505337,1725618215.507173,126.0,0.0,4252.307617,4243.077148,4288.846191,4280.0,4213.077148,4218.589844,4219.615234,4213.333496,4211.922852,4201.282227,4522.820313,4535.384766,4366.153809,4444.743652,0.0,2.0,35.0,,,,0.0,4.0,4.0,4.0,4.0,4.0,4.0,4.0,4.0,4.0,4.0,4.0,4.0,4.0,4.0,100.0,,,,,,,,,,,,,,,,,,,,,,,,,,,,,,,,,,,,,,,,,,,,,,,,,,,,,,,,,,,,,,,,,,,,,,,,,,,,,,,,,,,,,,,,,,,,,,,,,,,,,,,,,,,,,,,,,,,,,,,,,,,,,,,,,,,
1725618215.509241,1725618215.511177,127.0,0.0,4250.256348,4240.512695,4285.769043,4279.230957,4215.512695,4219.102539,4220.128418,4212.94873,4212.94873,4202.179688,4524.871582,4532.436035,4365.256348,4444.358887,0.0,2.0,35.0,,,,0.0,4.0,4.0,4.0,4.0,4.0,4.0,4.0,4.0,4.0,4.0,4.0,4.0,4.0,4.0,100.0,,,,,,,,,,,,,,,,,,,,,,,,,,,,,,,,,,,,,,,,,,,,,,,,,,,,,,,,,,,,,,,,,,,,,,,,,,,,,,,,,,,,,,,,,,,,,,,,,,,,,,,,,,,,,,,,,,,,,,,,,,,,,,,,,,,
1725618215.513145,1725618215.515081,128.0,0.0,4248.974121,4236.666504,4282.05127,4278.846191,4217.05127,4218.461426,4219.487305,4214.615234,4214.230957,4202.436035,4523.077148,4530.769043,4364.743652,4443.589844,2615.0,2.0,35.0,,,,0.0,4.0,4.0,4.0,4.0,4.0,4.0,4.0,4.0,4.0,4.0,4.0,4.0,4.0,4.0,100.0,,,,,,,,,,,,,,,,,,,,,,,,,,,,,,,,,,,,,,,,,,,,,,,,,,,,,,,,,,,,,,,,,,,,,,,,,,,,,,,,,,,,,,,,,,,,,,,,,,,,,,,,,,,,,,,,,,,,,,,,,,,,,,,,,,,
1725618215.517049,1725618215.518985,129.0,0.0,4248.717773,4233.205078,4279.487305,4277.820313,4217.436035,4217.179688,4218.589844,4217.563965,4215.0,4202.436035,4517.94873,4532.05127,4364.871582,4442.563965,2561.0,2.0,35.0,,,,0.0,4.0,4.0,4.0,4.0,4.0,4.0,4.0,4.0,4.0,4.0,4.0,4.0,4.0,4.0,100.0,,,,,,,,,,,,,,,,,,,,,,,,,,,,,,,,,,,,,,,,,,,,,,,,,,,,,,,,,,,,,,,,,,,,,,,,,,,,,,,,,,,,,,,,,,,,,,,,,,,,,,,,,,,,,,,,,,,,,,,,,,,,,,,,,,,
1725618215.520953,1725618215.522889,130.0,0.0,4248.717773,4231.282227,4279.102539,4275.641113,4216.153809,4215.897461,4217.820313,4219.230957,4215.512695,4202.436035,4512.820313,4535.256348,4365.512695,4442.179688,2448.0,2.0,35.0,,,,0.0,4.0,4.0,4.0,4.0,4.0,4.0,4.0,4.0,4.0,4.0,4.0,4.0,4.0,4.0,100.0,,,,,,,,,,,,,,,,,1.0,0.0,0.0,,,,,,,,,,,,,,,,,,,,,,,,,,,,,,,,,,,,,0.0,0.0,1.0,0.0,1.0,0.0,5.572196,1.563305,0.833124,0.480371,0.072597,2.403334,1.022973,0.516383,0.276621,0.108471,3.226576,0.826497,1.068496,0.391541,0.091863,2.445473,0.666786,0.546603,0.273315,0.05064,0.458485,0.138033,0.471633,0.234907,0.083665,0.171442,0.145517,0.132992,0.092931,0.076784,0.306491,0.208562,0.290405,0.11572,0.026926,0.623372,1.109246,0.439257,0.360805,0.152074,1.078159,0.954101,0.518076,0.420016,0.072296,1.984093,1.77431,1.196115,0.623973,0.133017,3.479545,2.382698,1.681466,0.829968,0.17193,5.926166,2.367751,1.515121,0.74065,0.190468,4.330594,3.487096,1.455855,0.847266,0.096045,7.016374,2.549297,0.94993,0.67054,0.089935
1725618215.524857,1725618215.526893,131.0,0.0,4248.077148,4230.512695,4280.0,4272.05127,4212.820313,4215.641113,4217.179688,4218.333496,4215.769043,4202.692383,4511.282227,4537.692383,4366.153809,4442.179688,2466.0,2.0,35.0,,,,0.0,4.0,4.0,4.0,4.0,4.0,4.0,4.0,4.0,4.0,4.0,4.0,4.0,4.0,4.0,100.0,,,,,,,,,,,,,,,,,,,,,,,,,,,,,,,,,,,,,,,,,,,,,,,,,,,,,,,,,,,,,,,,,,,,,,,,,,,,,,,,,,,,,,,,,,,,,,,,,,,,,,,,,,,,,,,,,,,,,,,,,,,,,,,,,,,
1725618215.528761,1725618215.530797,132.0,0.0,4246.922852,4230.769043,4280.641113,4268.461426,4208.333496,4216.794922,4216.410156,4215.897461,4216.410156,4203.077148,4514.743652,4537.563965,4366.153809,4442.692383,2424.0,2.0,35.0,,,,0.0,4.0,4.0,4.0,4.0,4.0,4.0,4.0,4.0,4.0,4.0,4.0,4.0,4.0,4.0,100.0,,,,,,,,,,,,,,,,,,,,,,,,,,,,,,,,,,,,,,,,,,,,,,,,,,,,,,,,,,,,,,,,,,,,,,,,,,,,,,,,,,,,,,,,,,,,,,,,,,,,,,,,,,,,,,,,,,,,,,,,,,,,,,,,,,,
1725618215.532665,1725618215.534701,133.0,0.0,4245.641113,4231.666504,4280.384766,4266.025879,4204.358887,4218.589844,4215.897461,4215.0,4217.179688,4203.974121,4521.153809,4535.256348,4365.384766,4443.589844,2399.0,2.0,35.0,,,,0.0,4.0,4.0,4.0,4.0,4.0,4.0,4.0,4.0,4.0,4.0,4.0,4.0,4.0,4.0,100.0,,,,,,,,,,,,,,,,,,,,,,,,,,,,,,,,,,,,,,,,,,,,,,,,,,,,,,,,,,,,,,,,,,,,,,,,,,,,,,,,,,,,,,,,,,,,,,,,,,,,,,,,,,,,,,,,,,,,,,,,,,,,,,,,,,,
1725618215.536569,1725618215.538605,134.0,0.0,4245.384766,4232.436035,4279.615234,4265.897461,4202.692383,4220.128418,4215.897461,4217.692383,4217.94873,4205.512695,4527.179688,4533.205078,4364.871582,4444.615234,2181.0,2.0,35.0,,,,0.0,4.0,4.0,4.0,4.0,4.0,4.0,4.0,4.0,4.0,4.0,4.0,4.0,4.0,4.0,100.0,,,,,,,,,,,,,,,,,,,,,,,,,,,,,,,,,,,,,,,,,,,,,,,,,,,,,,,,,,,,,,,,,,,,,,,,,,,,,,,,,,,,,,,,,,,,,,,,,,,,,,,,,,,,,,,,,,,,,,,,,,,,,,,,,,,
1725618215.540474,1725618215.542509,135.0,0.0,4246.025879,4232.563965,4279.102539,4267.820313,4204.230957,4220.384766,4216.282227,4223.717773,4218.205078,4208.205078,4529.871582,4533.461426,4365.512695,4445.384766,2486.0,2.0,35.0,,,,0.0,4.0,4.0,4.0,4.0,4.0,4.0,4.0,4.0,4.0,4.0,4.0,4.0,4.0,4.0,100.0,,,,,,,,,,,,,,,,,,,,,,,,,,,,,,,,,,,,,,,,,,,,,,,,,,,,,,,,,,,,,,,,,,,,,,,,,,,,,,,,,,,,,,,,,,,,,,,,,,,,,,,,,,,,,,,,,,,,,,,,,,,,,,,,,,,
1725618215.544378,1725618215.546314,136.0,0.0,4246.794922,4232.05127,4279.230957,4271.025879,4208.205078,4219.230957,4216.666504,4229.743652,4217.94873,4211.025879,4528.077148,4536.153809,4367.307617,4445.641113,2471.0,2.0,35.0,,,,0.0,4.0,4.0,4.0,4.0,4.0,4.0,4.0,4.0,4.0,4.0,4.0,4.0,4.0,4.0,100.0,,,,,,,,,,,,,,,,,,,,,,,,,,,,,,,,,,,,,,,,,,,,,,,,,,,,,,,,,,,,,,,,,,,,,,,,,,,,,,,,,,,,,,,,,,,,,,,,,,,,,,,,,,,,,,,,,,,,,,,,,,,,,,,,,,,
1725618215.548282,1725618215.550218,137.0,0.0,4247.307617,4231.282227,4279.358887,4274.230957,4212.563965,4217.94873,4217.307617,4232.05127,4217.692383,4213.333496,4523.717773,4539.102539,4369.358887,4444.871582,2556.0,2.0,35.0,,,,0.0,4.0,4.0,4.0,4.0,4.0,4.0,4.0,4.0,4.0,4.0,4.0,4.0,4.0,4.0,100.0,,,,,,,,,,,,,,,,,,,,,,,,,,,,,,,,,,,,,,,,,,,,,,,,,,,,,,,,,,,,,,,,,,,,,,,,,,,,,,,,,,,,,,,,,,,,,,,,,,,,,,,,,,,,,,,,,,,,,,,,,,,,,,,,,,,
1725618215.552186,1725618215.554222,138.0,0.0,4247.692383,4230.641113,4279.487305,4276.282227,4215.0,4217.436035,4218.205078,4228.846191,4217.692383,4214.487305,4520.0,4540.0,4371.025879,4443.846191,2889.0,2.0,35.0,,,,0.0,4.0,4.0,4.0,4.0,4.0,4.0,4.0,4.0,4.0,4.0,4.0,4.0,4.0,4.0,100.0,,,,,,,,,,,,,,,,,,,,,,,,,,,,,,,,,,,,,,,,,,,,,,,,,,,,,,,,0.0,0.0,1.0,0.0,1.0,0.0,,,,,,,,,,,,,,,,,,,,,,,,,,,,,,,,,,,,,,,,,,,,,,,,,,,,,,,,,,,,,,,,,,,,,,
1725618215.55609,1725618215.558126,139.0,0.0,4248.333496,4230.897461,4279.871582,4277.436035,4214.615234,4218.333496,4219.102539,4222.05127,4217.820313,4214.871582,4520.256348,4538.589844,4372.692383,4443.717773,3064.0,2.0,35.0,,,,0.0,4.0,4.0,4.0,4.0,4.0,4.0,4.0,4.0,4.0,4.0,4.0,4.0,4.0,4.0,100.0,,,,,,,,,,,,,,,,,,,,,,,,,,,,,,,,,,,,,,,,,,,,,,,,,,,,,,,,,,,,,,,,,,,,,,,,,,,,,,,,,,,,,,,,,,,,,,,,,,,,,,,,,,,,,,,,,,,,,,,,,,,,,,,,,,,
1725618215.559994,1725618215.56203,140.0,0.0,4249.487305,4231.922852,4281.025879,4278.205078,4212.692383,4220.0,4219.871582,4215.641113,4217.563965,4215.384766,4525.0,4536.666504,4374.615234,4445.256348,3395.0,2.0,35.0,,,,0.0,4.0,4.0,4.0,4.0,4.0,4.0,4.0,4.0,4.0,4.0,4.0,4.0,4.0,4.0,100.0,,,,,,,,,,,,,,,,,,,,,,,,,,,,,,,,,,,,,,,,,,,,,,,,,,,,,,,,,,,,,,,,,,,,,,,,,,,,,,,,,,,,,,,,,,,,,,,,,,,,,,,,,,,,,,,,,,,,,,,,,,,,,,,,,,,
1725618215.563898,1725618215.565934,141.0,0.0,4250.769043,4233.333496,4282.692383,4279.102539,4211.410156,4221.153809,4220.128418,4212.820313,4217.436035,4216.153809,4532.179688,4536.410156,4377.05127,4448.205078,3904.0,2.0,35.0,,,,0.0,4.0,4.0,4.0,4.0,4.0,4.0,4.0,4.0,4.0,4.0,4.0,4.0,4.0,4.0,100.0,,,,,,,,,,,,,,,,,,,,,,,,,,,,,,,,,,,,,,,,,,,,,,,,,,,,,,,,,,,,,,,,,,,,,,,,,,,,,,,,,,,,,,,,,,,,,,,,,,,,,,,,,,,,,,,,,,,,,,,,,,,,,,,,,,,
1725618215.567802,1725618215.569838,142.0,0.0,4251.538574,4234.615234,4283.717773,4280.0,4212.307617,4221.025879,4220.128418,4213.589844,4217.563965,4216.794922,4537.436035,4538.717773,4379.487305,4451.410156,2889.0,2.0,35.0,,,,0.0,4.0,4.0,4.0,4.0,4.0,4.0,4.0,4.0,4.0,4.0,4.0,4.0,4.0,4.0,100.0,,,,,,,,,,,,,,,,,,,,,,,,,,,,,,,,,,,,,,,,,,,,,,,,,,,,,,,,,,,,,,,,,,,,,,,,,,,,,,,,,,,,,,,,,,,,,,,,,,,,,,,,,,,,,,,,,,,,,,,,,,,,,,,,,,,
1725618215.571706,1725618215.573642,143.0,0.0,4251.538574,4234.871582,4283.333496,4280.512695,4214.615234,4219.615234,4219.871582,4215.641113,4218.205078,4216.922852,4537.05127,4542.05127,4380.897461,4452.820313,3064.0,2.0,35.0,,,,0.0,4.0,4.0,4.0,4.0,4.0,4.0,4.0,4.0,4.0,4.0,4.0,4.0,4.0,4.0,100.0,,,,,,,,,,,,,,,,,,,,,,,,,,,,,,,,,,,,,,,,,,,,,,,,,,,,,,,,,,,,,,,,,,,,,,,,,,,,,,,,,,,,,,,,,,,,,,,,,,,,,,,,,,,,,,,,,,,,,,,,,,,,,,,,,,,
1725618215.575611,1725618215.577546,144.0,0.0,4250.897461,4234.358887,4281.922852,4280.128418,4216.153809,4217.820313,4219.358887,4216.538574,4218.846191,4216.153809,4530.769043,4543.461426,4379.615234,4451.538574,3395.0,2.0,35.0,,,,0.0,4.0,4.0,4.0,4.0,4.0,4.0,4.0,4.0,4.0,4.0,4.0,4.0,4.0,4.0,100.0,,,,,,,,,,,,,,,,,,,,,,,,,,,,,,,,,,,,,,,,,,,,,,,,,,,,,,,,,,,,,,,,,,,,,,,,,,,,,,,,,,,,,,,,,,,,,,,,,,,,,,,,,,,,,,,,,,,,,,,,,,,,,,,,,,,
1725618215.579515,1725618215.581451,145.0,0.0,4249.743652,4233.589844,4281.153809,4279.358887,4215.641113,4216.794922,4218.717773,4215.512695,4218.846191,4215.256348,4522.94873,4541.794922,4375.897461,4448.205078,3904.0,2.0,35.0,,,,0.0,4.0,4.0,4.0,4.0,4.0,4.0,4.0,4.0,4.0,4.0,4.0,4.0,4.0,4.0,100.0,,,,,,,,,,,,,,,,,,,,,,,,,,,,,,,,,,,,,,,,,,,,,,,,,,,,,,,,,,,,,,,,,,,,,,,,,,,,,,,,,,,,,,,,,,,,,,,,,,,,,,,,,,,,,,,,,,,,,,,,,,,,,,,,,,,
1725618215.583419,1725618215.585355,146.0,0.0,4248.717773,4233.461426,4282.179688,4279.102539,4214.102539,4216.922852,4218.333496,4213.974121,4218.846191,4215.128418,4519.487305,4538.333496,4372.05127,4445.0,2889.0,2.0,35.0,,,,0.0,4.0,4.0,4.0,4.0,4.0,4.0,4.0,4.0,4.0,4.0,4.0,4.0,4.0,4.0,100.0,,,,,,,,,,,,,,,,,,,,,,,,,,,,,,,,,,,,,,,,,,,,,,,,,,,,,,,,0.0,0.0,1.0,0.0,1.0,0.0,,,,,,,,,,,,,,,,,,,,,,,,,,,,,,,,,,,,,,,,,,,,,,,,,,,,,,,,,,,,,,,,,,,,,,
1725618215.587323,1725618215.589159,147.0,0.0,4248.333496,4233.974121,4284.871582,4279.615234,4213.333496,4218.205078,4218.333496,4214.102539,4219.230957,4216.153809,4523.333496,4536.410156,4371.025879,4444.102539,3064.0,2.0,35.0,,,,0.0,4.0,4.0,4.0,4.0,4.0,4.0,4.0,4.0,4.0,4.0,4.0,4.0,4.0,4.0,100.0,,,,,,,,,,,,,,,,,,,,,,,,,,,,,,,,,,,,,,,,,,,,,,,,,,,,,,,,,,,,,,,,,,,,,,,,,,,,,,,,,,,,,,,,,,,,,,,,,,,,,,,,,,,,,,,,,,,,,,,,,,,,,,,,,,,
1725618215.591227,1725618215.593063,148.0,0.0,4248.846191,4234.615234,4287.307617,4280.641113,4214.358887,4219.358887,4218.717773,4216.666504,4220.256348,4217.94873,4532.05127,4538.589844,4373.589844,4446.153809,3395.0,2.0,35.0,,,,0.0,4.0,4.0,4.0,4.0,4.0,4.0,4.0,4.0,4.0,4.0,4.0,4.0,4.0,4.0,100.0,,,,,,,,,,,,,,,,,,,,,,,,,,,,,,,,,,,,,,,,,,,,,,,,,,,,,,,,,,,,,,,,,,,,,,,,,,,,,,,,,,,,,,,,,,,,,,,,,,,,,,,,,,,,,,,,,,,,,,,,,,,,,,,,,,,
1725618215.595131,1725618215.596967,149.0,0.0,4249.615234,4234.871582,4287.94873,4281.282227,4215.512695,4219.743652,4219.102539,4219.871582,4221.666504,4219.358887,4539.230957,4544.487305,4377.94873,4449.743652,3904.0,2.0,35.0,,,,0.0,4.0,4.0,4.0,4.0,4.0,4.0,4.0,4.0,4.0,4.0,4.0,4.0,4.0,4.0,100.0,,,,,,,,,,,,,,,,,,,,,,,,,,,,,,,,,,,,,,,,,,,,,,,,,,,,,,,,,,,,,,,,,,,,,,,,,,,,,,,,,,,,,,,,,,,,,,,,,,,,,,,,,,,,,,,,,,,,,,,,,,,,,,,,,,,
1725618215.599035,1725618215.600871,150.0,0.0,4250.0,4234.487305,4286.282227,4280.641113,4215.0,4219.102539,4219.102539,4221.794922,4222.692383,4219.230957,4539.358887,4551.794922,4380.641113,4452.307617,2889.0,2.0,35.0,,,,0.0,4.0,4.0,4.0,4.0,4.0,4.0,4.0,4.0,4.0,4.0,4.0,4.0,4.0,4.0,100.0,,,,,,,,,,,,,,,,,,,,,,,,,,,,,,,,,,,,,,,,,,,,,,,,,,,,,,,,,,,,,,,,,,,,,,,,,,,,,,,,,,,,,,,,,,,,,,,,,,,,,,,,,,,,,,,,,,,,,,,,,,,,,,,,,,,
1725618215.602939,1725618215.604675,151.0,0.0,4249.487305,4234.230957,4283.205078,4278.974121,4212.563965,4218.205078,4218.333496,4221.666504,4222.820313,4217.820313,4532.436035,4556.666504,4380.256348,4452.307617,3064.0,2.0,35.0,,,,0.0,4.0,4.0,4.0,4.0,4.0,4.0,4.0,4.0,4.0,4.0,4.0,4.0,4.0,4.0,100.0,,,,,,,,,,,,,,,,,,,,,,,,,,,,,,,,,,,,,,,,,,,,,,,,,,,,,,,,,,,,,,,,,,,,,,,,,,,,,,,,,,,,,,,,,,,,,,,,,,,,,,,,,,,,,,,,,,,,,,,,,,,,,,,,,,,
1725618215.606843,1725618215.608579,152.0,0.0,4248.461426,4234.358887,4280.256348,4277.307617,4209.615234,4217.94873,4216.922852,4220.512695,4222.179688,4216.282227,4523.846191,4556.666504,4377.692383,4450.512695,3395.0,2.0,35.0,,,,0.0,4.0,4.0,4.0,4.0,4.0,4.0,4.0,4.0,4.0,4.0,4.0,4.0,4.0,4.0,100.0,,,,,,,,,,,,,,,,,,,,,,,,,,,,,,,,,,,,,,,,,,,,,,,,,,,,,,,,,,,,,,,,,,,,,,,,,,,,,,,,,,,,,,,,,,,,,,,,,,,,,,,,,,,,,,,,,,,,,,,,,,,,,,,,,,,
1725618215.610747,1725618215.612484,153.0,0.0,4247.94873,4235.0,4278.717773,4277.05127,4208.205078,4218.333496,4215.897461,4219.871582,4221.025879,4215.641113,4520.769043,4552.179688,4375.641113,4448.974121,3904.0,2.0,35.0,,,,0.0,4.0,4.0,4.0,4.0,4.0,4.0,4.0,4.0,4.0,4.0,4.0,4.0,4.0,4.0,100.0,,,,,,,,,,,,,,,,,,,,,,,,,,,,,,,,,,,,,,,,,,,,,,,,,,,,,,,,,,,,,,,,,,,,,,,,,,,,,,,,,,,,,,,,,,,,,,,,,,,,,,,,,,,,,,,,,,,,,,,,,,,,,,,,,,,
1725618215.614652,1725618215.616488,154.0,0.0,4248.205078,4235.641113,4279.487305,4278.589844,4209.743652,4218.974121,4216.666504,4220.256348,4219.743652,4215.897461,4526.025879,4546.153809,4376.282227,4449.615234,2889.0,2.0,35.0,,,,0.0,4.0,4.0,4.0,4.0,4.0,4.0,4.0,4.0,4.0,4.0,4.0,4.0,4.0,4.0,100.0,,,,,,,,,,,,,,,,,,,,,,,,,,,,,,,,,,,,,,,,,,,,,,,,,,,,,,,,0.0,0.0,1.0,0.0,1.0,0.0,,,,,,,,,,,,,,,,,,,,,,,,,,,,,,,,,,,,,,,,,,,,,,,,,,,,,,,,,,,,,,,,,,,,,,
1725618215.618556,1725618215.620392,155.0,0.0,4249.358887,4235.512695,4281.538574,4281.025879,4214.102539,4219.487305,4219.487305,4221.025879,4218.589844,4216.538574,4535.512695,4541.666504,4379.358887,4451.922852,3064.0,2.0,35.0,,,,0.0,4.0,4.0,4.0,4.0,4.0,4.0,4.0,4.0,4.0,4.0,4.0,4.0,4.0,4.0,100.0,,,,,,,,,,,,,,,,,,,,,,,,,,,,,,,,,,,,,,,,,,,,,,,,,,,,,,,,,,,,,,,,,,,,,,,,,,,,,,,,,,,,,,,,,,,,,,,,,,,,,,,,,,,,,,,,,,,,,,,,,,,,,,,,,,,
1725618215.62246,1725618215.624296,156.0,0.0,4250.256348,4234.743652,4283.205078,4282.820313,4218.461426,4219.358887,4223.077148,4221.282227,4217.94873,4217.692383,4541.794922,4539.871582,4382.820313,4453.717773,3395.0,2.0,35.0,,,,0.0,4.0,4.0,4.0,4.0,4.0,4.0,4.0,4.0,4.0,4.0,4.0,4.0,4.0,4.0,100.0,,,,,,,,,,,,,,,,,,,,,,,,,,,,,,,,,,,,,,,,,,,,,,,,,,,,,,,,,,,,,,,,,,,,,,,,,,,,,,,,,,,,,,,,,,,,,,,,,,,,,,,,,,,,,,,,,,,,,,,,,,,,,,,,,,,
1725618215.626364,1725618215.6283,157.0,0.0,4250.256348,4233.974121,4283.205078,4283.205078,4220.256348,4218.974121,4225.128418,4220.128418,4217.820313,4218.974121,4540.512695,4539.487305,4384.487305,4452.94873,3904.0,2.0,35.0,,,,0.0,4.0,4.0,4.0,4.0,4.0,4.0,4.0,4.0,4.0,4.0,4.0,4.0,4.0,4.0,100.0,,,,,,,,,,,,,,,,,,,,,,,,,,,,,,,,,,,,,,,,,,,,,,,,,,,,,,,,,,,,,,,,,,,,,,,,,,,,,,,,,,,,,,,,,,,,,,,,,,,,,,,,,,,,,,,,,,,,,,,,,,,,,,,,,,,
1725618215.630268,1725618215.632204,158.0,0.0,4249.487305,4234.102539,4281.794922,4282.563965,4218.077148,4218.205078,4224.743652,4217.94873,4217.307617,4219.487305,4533.717773,4539.358887,4383.717773,4449.487305,2889.0,2.0,35.0,,,,0.0,4.0,4.0,4.0,4.0,4.0,4.0,4.0,4.0,4.0,4.0,4.0,4.0,4.0,4.0,100.0,,,,,,,,,,,,,,,,,,,,,,,,,,,,,,,,,,,,,,,,,,,,,,,,,,,,,,,,,,,,,,,,,,,,,,,,,,,,,,,,,,,,,,,,,,,,,,,,,,,,,,,,,,,,,,,,,,,,,,,,,,,,,,,,,,,
