Timestamp,OriginalTimestamp,EEG.Counter,EEG.Interpolated,EEG.AF3,EEG.F7,EEG.F3,EEG.FC5,EEG.T7,EEG.P7,EEG.O1,EEG.O2,EEG.P8,EEG.T8,EEG.FC6,EEG.F4,EEG.F8,EEG.AF4,EEG.RawCq,EEG.Battery,EEG.BatteryPercent,MarkerIndex,MarkerType,MarkerValueInt,EEG.MarkerHardware,CQ.AF3,CQ.F7,CQ.F3,CQ.FC5,CQ.T7,CQ.P7,CQ.O1,CQ.O2,CQ.P8,CQ.T8,CQ.FC6,CQ.F4,CQ.F8,CQ.AF4,CQ.Overall,EQ.SampleRateQuality,EQ.OVERALL,EQ.AF3,EQ.F7,EQ.F3,EQ.FC5,EQ.T7,EQ.P7,EQ.O1,EQ.O2,EQ.P8,EQ.T8,EQ.FC6,EQ.F4,EQ.F8,EQ.AF4,MC.Action,MC.ActionPower,MC.IsActive,PM.Attention.IsActive,PM.Attention.Scaled,PM.Attention.Raw,PM.Attention.Min,PM.Attention.Max,PM.Engagement.IsActive,PM.Engagement.Scaled,PM.Engagement.Raw,PM.Engagement.Min,PM.Engagement.Max,PM.Excitement.IsActive,PM.Excitement.Scaled,PM.Excitement.Raw,PM.Excitement.Min,PM.Excitement.Max,PM.LongTermExcitement,PM.Stress.IsActive,PM.Stress.Scaled,PM.Stress.Raw,PM.Stress.Min,PM.Stress.Max,PM.Relaxation.IsActive,PM.Relaxation.Scaled,PM.Relaxation.Raw,PM.Relaxation.Min,PM.Relaxation.Max,PM.Interest.IsActive,PM.Interest.Scaled,PM.Interest.Raw,PM.Interest.Min,PM.Interest.Max,PM.Focus.IsActive,PM.Focus.Scaled,PM.Focus.Raw,PM.Focus.Min,PM.Focus.Max,FE.BlinkWink,FE.HorizontalEyesDirection,FE.UpperFaceAction,FE.UpperFaceActionPower,FE.LowerFaceAction,FE.LowerFaceActionPower,POW.AF3.Theta,POW.AF3.Alpha,POW.AF3.BetaL,POW.AF3.BetaH,POW.AF3.Gamma,POW.F7.Theta,POW.F7.Alpha,POW.F7.BetaL,POW.F7.BetaH,POW.F7.Gamma,POW.F3.Theta,POW.F3.Alpha,POW.F3.BetaL,POW.F3.BetaH,POW.F3.Gamma,POW.FC5.Theta,POW.FC5.Alpha,POW.FC5.BetaL,POW.FC5.BetaH,POW.FC5.Gamma,POW.T7.Theta,POW.T7.Alpha,POW.T7.BetaL,POW.T7.BetaH,POW.T7.Gamma,POW.P7.Theta,POW.P7.Alpha,POW.P7.BetaL,POW.P7.BetaH,POW.P7.Gamma,POW.O1.Theta,POW.O1.Alpha,POW.O1.BetaL,POW.O1.BetaH,POW.O1.Gamma,POW.O2.Theta,POW.O2.Alpha,POW.O2.BetaL,POW.O2.BetaH,POW.O2.Gamma,POW.P8.Theta,POW.P8.Alpha,POW.P8.BetaL,POW.P8.BetaH,POW.P8.Gamma,POW.T8.Theta,POW.T8.Alpha,POW.T8.BetaL,POW.T8.BetaH,POW.T8.Gamma,POW.FC6.Theta,POW.FC6.Alpha,POW.FC6.BetaL,POW.FC6.BetaH,POW.FC6.Gamma,POW.F4.Theta,POW.F4.Alpha,POW.F4.BetaL,POW.F4.BetaH,POW.F4.Gamma,POW.F8.Theta,POW.F8.Alpha,POW.F8.BetaL,POW.F8.BetaH,POW.F8.Gamma,POW.AF4.Theta,POW.AF4.Alpha,POW.AF4.BetaL,POW.AF4.BetaH,POW.AF4.Gamma
1725717305.436111,1725717305.438049,140.0,0.0,4279.358887,4210.769043,4308.589844,4337.436035,4231.025879,4135.512695,4150.641113,4220.897461,4235.128418,4231.025879,4474.615234,4502.179688,4361.922852,4414.230957,3431.0,0.0,11.0,11.0,1.0,1.0,0.0,4.0,4.0,4.0,4.0,4.0,4.0,4.0,4.0,4.0,4.0,4.0,4.0,4.0,4.0,100.0,,,,,,,,,,,,,,,,,,,,,,,,,,,,,,,,,,,,,,,,,,,,,,,,,,,,,,,,0.0,0.0,64.0,0.014924,1.0,0.0,,,,,,,,,,,,,,,,,,,,,,,,,,,,,,,,,,,,,,,,,,,,,,,,,,,,,,,,,,,,,,,,,,,,,,
1725717305.440015,1725717305.441853,141.0,0.0,4279.358887,4211.922852,4310.512695,4342.179688,4230.256348,4135.512695,4152.94873,4222.436035,4233.333496,4225.256348,4474.871582,4502.563965,4355.0,4413.717773,3854.0,0.0,11.0,,,,0.0,4.0,4.0,4.0,4.0,4.0,4.0,4.0,4.0,4.0,4.0,4.0,4.0,4.0,4.0,100.0,,,,,,,,,,,,,,,,,,,,,,,,,,,,,,,,,,,,,,,,,,,,,,,,,,,,,,,,,,,,,,,,,,,,,,,,,,,,,,,,,,,,,,,,,,,,,,,,,,,,,,,,,,,,,,,,,,,,,,,,,,,,,,,,,,,
1725717305.443919,1725717305.445757,142.0,0.0,4280.384766,4211.282227,4312.05127,4345.128418,4231.794922,4136.153809,4154.871582,4227.05127,4232.05127,4219.102539,4474.487305,4504.871582,4345.384766,4413.589844,2882.0,0.0,11.0,,,,0.0,4.0,4.0,4.0,4.0,4.0,4.0,4.0,4.0,4.0,4.0,4.0,4.0,4.0,4.0,100.0,,,,,,,,,,,,,,,,,,,,,,,,,,,,,,,,,,,,,,,,,,,,,,,,,,,,,,,,,,,,,,,,,,,,,,,,,,,,,,,,,,,,,,,,,,,,,,,,,,,,,,,,,,,,,,,,,,,,,,,,,,,,,,,,,,,
1725717305.447823,1725717305.449661,143.0,0.0,4282.05127,4210.0,4312.179688,4345.512695,4234.358887,4136.794922,4156.410156,4230.641113,4232.05127,4216.153809,4475.512695,4507.436035,4339.871582,4413.974121,3121.0,0.0,11.0,,,,0.0,4.0,4.0,4.0,4.0,4.0,4.0,4.0,4.0,4.0,4.0,4.0,4.0,4.0,4.0,100.0,,,,,,,,,,,,,,,,,,,,,,,,,,,,,,,,,,,,,,,,,,,,,,,,,,,,,,,,,,,,,,,,,,,,,,,,,,,,,,,,,,,,,,,,,,,,,,,,,,,,,,,,,,,,,,,,,,,,,,,,,,,,,,,,,,,
1725717305.451728,1725717305.453565,144.0,0.0,4283.077148,4209.871582,4310.897461,4344.358887,4236.153809,4136.282227,4157.307617,4229.615234,4233.333496,4217.179688,4478.077148,4508.333496,4341.666504,4413.974121,3431.0,0.0,11.0,,,,0.0,4.0,4.0,4.0,4.0,4.0,4.0,4.0,4.0,4.0,4.0,4.0,4.0,4.0,4.0,100.0,,,,,,,,,,,,,,,,,,,,,,,,,,,,,,,,,,,,,,,,,,,,,,,,,,,,,,,,,,,,,,,,,,,,,,,,,,,,,,,,,,,,,,,,,,,,,,,,,,,,,,,,,,,,,,,,,,,,,,,,,,,,,,,,,,,
1725717305.455632,1725717305.457369,145.0,0.0,4282.692383,4211.025879,4309.102539,4342.94873,4236.666504,4133.974121,4157.436035,4224.102539,4234.230957,4220.256348,4479.487305,4507.436035,4347.94873,4413.205078,3854.0,0.0,11.0,,,,0.0,4.0,4.0,4.0,4.0,4.0,4.0,4.0,4.0,4.0,4.0,4.0,4.0,4.0,4.0,100.0,,,,,,,,,,,,,,,,,,,,,,,,,,,,,,,,,,,,,,,,,,,,,,,,,,,,,,,,,,,,,,,,,,,,,,,,,,,,,,,,,,,,,,,,,,,,,,,,,,,,,,,,,,,,,,,,,,,,,,,,,,,,,,,,,,,
1725717305.459536,1725717305.461273,146.0,0.0,4280.897461,4212.692383,4308.077148,4342.179688,4236.410156,4131.153809,4157.05127,4217.692383,4233.717773,4222.05127,4477.307617,4505.897461,4353.205078,4411.794922,2882.0,0.0,11.0,,,,0.0,4.0,4.0,4.0,4.0,4.0,4.0,4.0,4.0,4.0,4.0,4.0,4.0,4.0,4.0,100.0,,,,,,,,,,,,,,,,,,,,,,,,,,,,,,,,,,,,,,,,,,,,,,,,,,,,,,,,,,,,,,,,,,,,,,,,,,,,,,,,,,,,,,,,,,,,,,,,,,,,,,,,,,,,,,,,,,,,,,,,,,,,,,,,,,,
1725717305.46344,1725717305.465178,147.0,0.0,4279.102539,4214.102539,4308.461426,4341.922852,4235.897461,4129.743652,4157.179688,4215.0,4232.307617,4220.256348,4472.563965,4505.256348,4353.974121,4410.641113,3121.0,0.0,11.0,,,,0.0,4.0,4.0,4.0,4.0,4.0,4.0,4.0,4.0,4.0,4.0,4.0,4.0,4.0,4.0,100.0,,,,,,,,,,,,,,,,,,,,,,,,,,,,,,,,,,,,,,,,,,,,,,,,,,,,,,,,,,,,,,,,,,,,,,,,,,,,,,,,,,,,,,,,,,,,,,,,,,,,,,,,,,,,,,,,,,,,,,,,,,,,,,,,,,,
1725717305.467344,1725717305.469182,148.0,0.0,4278.333496,4215.0,4309.871582,4342.307617,4235.641113,4130.897461,4158.333496,4217.820313,4230.897461,4215.641113,4470.128418,4506.025879,4351.410156,4410.769043,3431.0,0.0,11.0,,,,0.0,4.0,4.0,4.0,4.0,4.0,4.0,4.0,4.0,4.0,4.0,4.0,4.0,4.0,4.0,100.0,,,,,,,,,,,,,,,,,1.0,0.0,0.0,,,,,,,,,,,,,,,,,,,,,,,,,,,,,,,,,,,,,0.0,0.0,1.0,0.0,1024.0,0.209185,2.498221,2.668155,0.470135,0.300095,0.096706,9.042776,2.640633,1.330357,0.776817,0.177955,1.90825,1.845311,0.517198,0.196879,0.066489,1.589214,2.211585,0.672194,0.267246,0.103622,0.553395,0.50806,0.577595,0.080379,0.057543,0.602227,0.372687,0.276474,0.089197,0.05161,2.922607,1.363744,0.544211,0.16224,0.04642,1.312022,1.327948,0.898032,0.231384,0.223188,2.035193,1.331231,0.801634,0.334514,0.118976,3.016992,1.778836,0.860063,0.461355,0.146803,4.748052,2.31473,0.868841,1.094269,0.474765,4.26439,3.310944,1.440852,0.530523,0.271052,4.389859,2.555925,1.065461,0.636297,0.335164,3.817731,3.546682,1.050989,0.437721,0.116874
1725717305.471248,1725717305.473086,149.0,0.0,4279.102539,4215.512695,4311.666504,4343.461426,4235.384766,4133.974121,4160.128418,4224.871582,4230.512695,4211.282227,4472.563965,4507.307617,4349.102539,4412.436035,3854.0,0.0,11.0,,,,0.0,4.0,4.0,4.0,4.0,4.0,4.0,4.0,4.0,4.0,4.0,4.0,4.0,4.0,4.0,100.0,,,,,,,,,,,,,,,,,,,,,,,,,,,,,,,,,,,,,,,,,,,,,,,,,,,,,,,,,,,,,,,,,,,,,,,,,,,,,,,,,,,,,,,,,,,,,,,,,,,,,,,,,,,,,,,,,,,,,,,,,,,,,,,,,,,
1725717305.475152,1725717305.47699,150.0,0.0,4280.512695,4215.512695,4312.94873,4344.358887,4235.128418,4136.922852,4161.025879,4232.307617,4231.410156,4210.641113,4477.563965,4508.333496,4348.974121,4414.487305,2882.0,0.0,11.0,,,,0.0,4.0,4.0,4.0,4.0,4.0,4.0,4.0,4.0,4.0,4.0,4.0,4.0,4.0,4.0,100.0,,,,,,,,,,,,,,,,,,,,,,,,,,,,,,,,,,,,,,,,,,,,,,,,,,,,,,,,,,,,,,,,,,,,,,,,,,,,,,,,,,,,,,,,,,,,,,,,,,,,,,,,,,,,,,,,,,,,,,,,,,,,,,,,,,,
1725717305.479056,1725717305.480894,151.0,0.0,4281.282227,4214.871582,4312.94873,4344.230957,4234.358887,4137.563965,4160.384766,4236.153809,4233.205078,4214.487305,4480.256348,4509.102539,4350.256348,4415.384766,3121.0,0.0,11.0,,,,0.0,4.0,4.0,4.0,4.0,4.0,4.0,4.0,4.0,4.0,4.0,4.0,4.0,4.0,4.0,100.0,,,,,,,,,,,,,,,,,,,,,,,,,,,,,,,,,,,,,,,,,,,,,,,,,,,,,,,,,,,,,,,,,,,,,,,,,,,,,,,,,,,,,,,,,,,,,,,,,,,,,,,,,,,,,,,,,,,,,,,,,,,,,,,,,,,
1725717305.48296,1725717305.484898,152.0,0.0,4281.282227,4213.461426,4311.538574,4342.563965,4233.205078,4135.512695,4158.333496,4234.615234,4235.0,4220.0,4477.94873,4509.487305,4350.512695,4414.615234,3431.0,0.0,11.0,,,,0.0,4.0,4.0,4.0,4.0,4.0,4.0,4.0,4.0,4.0,4.0,4.0,4.0,4.0,4.0,100.0,,,,,,,,,,,,,,,,,,,,,,,,,,,,,,,,,,,,,,,,,,,,,,,,,,,,,,,,,,,,,,,,,,,,,,,,,,,,,,,,,,,,,,,,,,,,,,,,,,,,,,,,,,,,,,,,,,,,,,,,,,,,,,,,,,,
1725717305.486864,1725717305.488802,153.0,0.0,4280.512695,4212.179688,4309.102539,4340.256348,4232.436035,4131.666504,4156.153809,4229.102539,4236.025879,4223.717773,4472.307617,4509.871582,4348.589844,4412.820313,3854.0,0.0,11.0,,,,0.0,4.0,4.0,4.0,4.0,4.0,4.0,4.0,4.0,4.0,4.0,4.0,4.0,4.0,4.0,100.0,,,,,,,,,,,,,,,,,,,,,,,,,,,,,,,,,,,,,,,,,,,,,,,,,,,,,,,,,,,,,,,,,,,,,,,,,,,,,,,,,,,,,,,,,,,,,,,,,,,,,,,,,,,,,,,,,,,,,,,,,,,,,,,,,,,
1725717305.490769,1725717305.492706,154.0,0.0,4279.743652,4211.922852,4306.538574,4338.974121,4232.563965,4127.692383,4155.0,4223.205078,4235.512695,4223.333496,4467.307617,4509.487305,4345.0,4411.538574,2882.0,0.0,11.0,,,,0.0,4.0,4.0,4.0,4.0,4.0,4.0,4.0,4.0,4.0,4.0,4.0,4.0,4.0,4.0,100.0,,,,,,,,,,,,,,,,,,,,,,,,,,,,,,,,,,,,,,,,,,,,,,,,,,,,,,,,,,,,,,,,,,,,,,,,,,,,,,,,,,,,,,,,,,,,,,,,,,,,,,,,,,,,,,,,,,,,,,,,,,,,,,,,,,,
1725717305.494673,1725717305.49671,155.0,0.0,4279.358887,4213.461426,4304.615234,4339.487305,4233.589844,4125.256348,4155.641113,4220.128418,4233.846191,4219.743652,4466.282227,4508.077148,4341.410156,4411.538574,3121.0,0.0,11.0,,,,0.0,4.0,4.0,4.0,4.0,4.0,4.0,4.0,4.0,4.0,4.0,4.0,4.0,4.0,4.0,100.0,,,,,,,,,,,,,,,,,,,,,,,,,,,,,,,,,,,,,,,,,,,,,,,,,,,,,,,,,,,,,,,,,,,,,,,,,,,,,,,,,,,,,,,,,,,,,,,,,,,,,,,,,,,,,,,,,,,,,,,,,,,,,,,,,,,
1725717305.498577,1725717305.500614,156.0,0.0,4279.487305,4216.025879,4303.205078,4341.410156,4234.615234,4124.871582,4157.436035,4221.025879,4232.05127,4215.897461,4469.743652,4506.025879,4339.102539,4412.692383,3431.0,0.0,11.0,,,,0.0,4.0,4.0,4.0,4.0,4.0,4.0,4.0,4.0,4.0,4.0,4.0,4.0,4.0,4.0,100.0,,,,,,,,,,,,,,,,,,,,,,,,,,,,,,,,,,,,,,,,,,,,,,,,,,,,,,,,0.0,0.0,1.0,0.0,1024.0,0.209185,,,,,,,,,,,,,,,,,,,,,,,,,,,,,,,,,,,,,,,,,,,,,,,,,,,,,,,,,,,,,,,,,,,,,,
1725717305.502481,1725717305.504518,157.0,0.0,4279.358887,4217.563965,4302.307617,4343.077148,4234.743652,4126.153809,4158.846191,4225.384766,4231.025879,4214.615234,4475.384766,4504.487305,4338.846191,4414.102539,3854.0,0.0,11.0,,,,0.0,4.0,4.0,4.0,4.0,4.0,4.0,4.0,4.0,4.0,4.0,4.0,4.0,4.0,4.0,100.0,,,,,,,,,,,,,,,,,,,,,,,,,,,,,,,,,,,,,,,,,,,,,,,,,,,,,,,,,,,,,,,,,,,,,,,,,,,,,,,,,,,,,,,,,,,,,,,,,,,,,,,,,,,,,,,,,,,,,,,,,,,,,,,,,,,
1725717305.506385,1725717305.508422,158.0,0.0,4278.846191,4216.922852,4301.538574,4342.436035,4233.333496,4128.077148,4158.589844,4231.410156,4230.897461,4215.897461,4479.615234,4503.974121,4340.641113,4415.0,2882.0,0.0,11.0,,,,0.0,4.0,4.0,4.0,4.0,4.0,4.0,4.0,4.0,4.0,4.0,4.0,4.0,4.0,4.0,100.0,,,,,,,,,,,,,,,,,,,,,,,,,,,,,,,,,,,,,,,,,,,,,,,,,,,,,,,,,,,,,,,,,,,,,,,,,,,,,,,,,,,,,,,,,,,,,,,,,,,,,,,,,,,,,,,,,,,,,,,,,,,,,,,,,,,
1725717305.510289,1725717305.512327,159.0,0.0,4278.077148,4214.871582,4300.256348,4338.717773,4231.410156,4129.230957,4156.538574,4236.153809,4231.538574,4217.692383,4480.0,4504.615234,4343.974121,4414.743652,3121.0,0.0,11.0,,,,0.0,4.0,4.0,4.0,4.0,4.0,4.0,4.0,4.0,4.0,4.0,4.0,4.0,4.0,4.0,100.0,,,,,,,,,,,,,,,,,,,,,,,,,,,,,,,,,,,,,,,,,,,,,,,,,,,,,,,,,,,,,,,,,,,,,,,,,,,,,,,,,,,,,,,,,,,,,,,,,,,,,,,,,,,,,,,,,,,,,,,,,,,,,,,,,,,
1725717305.514193,1725717305.516131,160.0,0.0,4277.563965,4213.589844,4298.205078,4333.461426,4230.0,4129.230957,4154.102539,4237.179688,4232.05127,4217.179688,4477.05127,4505.256348,4347.179688,4413.589844,3431.0,0.0,11.0,,,,0.0,4.0,4.0,4.0,4.0,4.0,4.0,4.0,4.0,4.0,4.0,4.0,4.0,4.0,4.0,100.0,,,,,,,,,,,,,,,,,,,,,,,,,,,,,,,,,,,,,,,,,,,,,,,,,,,,,,,,,,,,,,,,,,,,,,,,,,,,,,,,,,,,,,,,,,,,,,,,,,,,,,,,,,,,,,,,,,,,,,,,,,,,,,,,,,,
1725717305.518097,1725717305.520035,161.0,0.0,4277.692383,4213.974121,4296.025879,4328.974121,4229.743652,4128.461426,4152.820313,4234.615234,4231.538574,4213.589844,4473.846191,4505.641113,4348.717773,4412.436035,3854.0,0.0,11.0,,,,0.0,4.0,4.0,4.0,4.0,4.0,4.0,4.0,4.0,4.0,4.0,4.0,4.0,4.0,4.0,100.0,,,,,,,,,,,,,,,,,,,,,,,,,,,,,,,,,,,,,,,,,,,,,,,,,,,,,,,,,,,,,,,,,,,,,,,,,,,,,,,,,,,,,,,,,,,,,,,,,,,,,,,,,,,,,,,,,,,,,,,,,,,,,,,,,,,
1725717305.522001,1725717305.523939,162.0,0.0,4278.205078,4215.512695,4294.743652,4327.563965,4230.384766,4128.077148,4153.077148,4230.769043,4230.384766,4208.974121,4472.820313,4505.512695,4347.94873,4411.922852,2882.0,0.0,11.0,,,,0.0,4.0,4.0,4.0,4.0,4.0,4.0,4.0,4.0,4.0,4.0,4.0,4.0,4.0,4.0,100.0,,,,,,,,,,,,,,,,,,,,,,,,,,,,,,,,,,,,,,,,,,,,,,,,,,,,,,,,,,,,,,,,,,,,,,,,,,,,,,,,,,,,,,,,,,,,,,,,,,,,,,,,,,,,,,,,,,,,,,,,,,,,,,,,,,,
1725717305.525905,1725717305.527843,163.0,0.0,4278.846191,4217.05127,4295.641113,4329.615234,4231.410156,4128.974121,4154.487305,4228.077148,4229.230957,4206.282227,4474.230957,4505.128418,4345.384766,4412.05127,3121.0,0.0,11.0,,,,0.0,4.0,4.0,4.0,4.0,4.0,4.0,4.0,4.0,4.0,4.0,4.0,4.0,4.0,4.0,100.0,,,,,,,,,,,,,,,,,,,,,,,,,,,,,,,,,,,,,,,,,,,,,,,,,,,,,,,,,,,,,,,,,,,,,,,,,,,,,,,,,,,,,,,,,,,,,,,,,,,,,,,,,,,,,,,,,,,,,,,,,,,,,,,,,,,
1725717305.52981,1725717305.531647,164.0,0.0,4279.358887,4217.94873,4298.589844,4333.974121,4232.05127,4131.794922,4155.769043,4227.94873,4228.974121,4207.436035,4476.282227,4504.871582,4342.692383,4412.563965,3431.0,0.0,11.0,,,,0.0,4.0,4.0,4.0,4.0,4.0,4.0,4.0,4.0,4.0,4.0,4.0,4.0,4.0,4.0,100.0,,,,,,,,,,,,,,,,,,,,,,,,,,,,,,,,,,,,,,,,,,,,,,,,,,,,,,,,0.0,0.0,1.0,0.0,1024.0,0.209185,,,,,,,,,,,,,,,,,,,,,,,,,,,,,,,,,,,,,,,,,,,,,,,,,,,,,,,,,,,,,,,,,,,,,,
1725717305.533714,1725717305.535551,165.0,0.0,4279.487305,4218.846191,4302.820313,4338.077148,4232.436035,4135.256348,4156.282227,4229.487305,4229.871582,4211.282227,4477.563965,4504.871582,4341.794922,4413.205078,3854.0,0.0,11.0,,,,0.0,4.0,4.0,4.0,4.0,4.0,4.0,4.0,4.0,4.0,4.0,4.0,4.0,4.0,4.0,100.0,,,,,,,,,,,,,,,,,,,,,,,,,,,,,,,,,,,,,,,,,,,,,,,,,,,,,,,,,,,,,,,,,,,,,,,,,,,,,,,,,,,,,,,,,,,,,,,,,,,,,,,,,,,,,,,,,,,,,,,,,,,,,,,,,,,
1725717305.537618,1725717305.539455,166.0,0.0,4279.358887,4220.769043,4306.794922,4340.384766,4232.820313,4138.205078,4156.153809,4231.025879,4231.538574,4215.384766,4477.692383,4505.0,4344.102539,4413.846191,2882.0,0.0,11.0,,,,0.0,4.0,4.0,4.0,4.0,4.0,4.0,4.0,4.0,4.0,4.0,4.0,4.0,4.0,4.0,100.0,,,,,,,,,,,,,,,,,,,,,,,,,,,,,,,,,,,,,,,,,,,,,,,,,,,,,,,,,,,,,,,,,,,,,,,,,,,,,,,,,,,,,,,,,,,,,,,,,,,,,,,,,,,,,,,,,,,,,,,,,,,,,,,,,,,
1725717305.541522,1725717305.54336,167.0,0.0,4279.102539,4224.743652,4309.487305,4340.769043,4233.717773,4139.615234,4155.769043,4231.410156,4233.333496,4217.307617,4476.282227,4505.384766,4349.102539,4414.230957,3121.0,0.0,11.0,,,,0.0,4.0,4.0,4.0,4.0,4.0,4.0,4.0,4.0,4.0,4.0,4.0,4.0,4.0,4.0,100.0,,,,,,,,,,,,,,,,,,,,,,,,,,,,,,,,,,,,,,,,,,,,,,,,,,,,,,,,,,,,,,,,,,,,,,,,,,,,,,,,,,,,,,,,,,,,,,,,,,,,,,,,,,,,,,,,,,,,,,,,,,,,,,,,,,,
1725717305.545426,1725717305.547164,168.0,0.0,4278.974121,4230.256348,4310.512695,4340.0,4234.871582,4139.615234,4155.512695,4230.769043,4234.487305,4217.307617,4473.333496,4506.666504,4354.230957,4414.615234,3431.0,0.0,11.0,,,,0.0,4.0,4.0,4.0,4.0,4.0,4.0,4.0,4.0,4.0,4.0,4.0,4.0,4.0,4.0,100.0,,,,,,,,,,,,,,,,,,,,,,,,,,,,,,,,,,,,,,,,,,,,,,,,,,,,,,,,,,,,,,,,,,,,,,,,,,,,,,,,,,,,,,,,,,,,,,,,,,,,,,,,,,,,,,,,,,,,,,,,,,,,,,,,,,,
1725717305.54933,1725717305.551068,169.0,0.0,4279.230957,4234.871582,4310.384766,4339.487305,4235.641113,4138.717773,4155.384766,4230.384766,4234.358887,4216.666504,4470.256348,4508.717773,4355.897461,4415.128418,3854.0,0.0,11.0,,,,0.0,4.0,4.0,4.0,4.0,4.0,4.0,4.0,4.0,4.0,4.0,4.0,4.0,4.0,4.0,100.0,,,,,,,,,,,,,,,,,,,,,,,,,,,,,,,,,,,,,,,,,,,,,,,,,,,,,,,,,,,,,,,,,,,,,,,,,,,,,,,,,,,,,,,,,,,,,,,,,,,,,,,,,,,,,,,,,,,,,,,,,,,,,,,,,,,
1725717305.553234,1725717305.554972,170.0,0.0,4280.0,4236.410156,4310.128418,4339.871582,4235.897461,4137.563965,4155.256348,4230.769043,4233.717773,4216.410156,4469.487305,4510.641113,4352.94873,4416.282227,2882.0,0.0,11.0,,,,0.0,4.0,4.0,4.0,4.0,4.0,4.0,4.0,4.0,4.0,4.0,4.0,4.0,4.0,4.0,100.0,,,,,,,,,,,,,,,,,,,,,,,,,,,,,,,,,,,,,,,,,,,,,,,,,,,,,,,,,,,,,,,,,,,,,,,,,,,,,,,,,,,,,,,,,,,,,,,,,,,,,,,,,,,,,,,,,,,,,,,,,,,,,,,,,,,
1725717305.557138,1725717305.558876,171.0,0.0,4281.153809,4234.743652,4310.641113,4340.769043,4235.256348,4136.025879,4155.0,4231.666504,4232.94873,4216.922852,4472.692383,4510.897461,4347.563965,4418.333496,3121.0,0.0,11.0,,,,0.0,4.0,4.0,4.0,4.0,4.0,4.0,4.0,4.0,4.0,4.0,4.0,4.0,4.0,4.0,100.0,,,,,,,,,,,,,,,,,,,,,,,,,,,,,,,,,,,,,,,,,,,,,,,,,,,,,,,,,,,,,,,,,,,,,,,,,,,,,,,,,,,,,,,,,,,,,,,,,,,,,,,,,,,,,,,,,,,,,,,,,,,,,,,,,,,
1725717305.561042,1725717305.56268,172.0,0.0,4282.179688,4232.05127,4311.922852,4342.05127,4234.102539,4133.205078,4154.615234,4232.436035,4233.077148,4217.563965,4478.846191,4509.358887,4344.102539,4420.128418,3431.0,0.0,11.0,,,,0.0,4.0,4.0,4.0,4.0,4.0,4.0,4.0,4.0,4.0,4.0,4.0,4.0,4.0,4.0,100.0,,,,,,,,,,,,,,,,,,,,,,,,,,,,,,,,,,,,,,,,,,,,,,,,,,,,,,,,0.0,0.0,1.0,0.0,1024.0,0.209185,,,,,,,,,,,,,,,,,,,,,,,,,,,,,,,,,,,,,,,,,,,,,,,,,,,,,,,,,,,,,,,,,,,,,,
1725717305.564947,1725717305.566584,173.0,0.0,4282.692383,4231.410156,4313.077148,4343.461426,4233.205078,4127.94873,4153.974121,4233.077148,4234.102539,4218.717773,4484.230957,4508.077148,4344.743652,4421.025879,3854.0,0.0,11.0,,,,0.0,4.0,4.0,4.0,4.0,4.0,4.0,4.0,4.0,4.0,4.0,4.0,4.0,4.0,4.0,100.0,,,,,,,,,,,,,,,,,,,,,,,,,,,,,,,,,,,,,,,,,,,,,,,,,,,,,,,,,,,,,,,,,,,,,,,,,,,,,,,,,,,,,,,,,,,,,,,,,,,,,,,,,,,,,,,,,,,,,,,,,,,,,,,,,,,
1725717305.568851,1725717305.570489,174.0,0.0,4282.179688,4234.358887,4313.205078,4345.256348,4232.563965,4120.384766,4153.974121,4233.717773,4235.384766,4220.897461,4485.384766,4509.487305,4348.974121,4420.256348,2882.0,0.0,11.0,,,,0.0,4.0,4.0,4.0,4.0,4.0,4.0,4.0,4.0,4.0,4.0,4.0,4.0,4.0,4.0,100.0,,,,,,,,,,,,,,,,,,,,,,,,,,,,,,,,,,,,,,,,,,,,,,,,,,,,,,,,,,,,,,,,,,,,,,,,,,,,,,,,,,,,,,,,,,,,,,,,,,,,,,,,,,,,,,,,,,,,,,,,,,,,,,,,,,,
1725717305.572755,1725717305.574493,175.0,0.0,4281.153809,4240.0,4312.563965,4347.692383,4232.179688,4112.179688,4155.384766,4234.230957,4236.282227,4224.358887,4482.692383,4513.717773,4353.846191,4418.589844,3121.0,0.0,11.0,,,,0.0,4.0,4.0,4.0,4.0,4.0,4.0,4.0,4.0,4.0,4.0,4.0,4.0,4.0,4.0,100.0,,,,,,,,,,,,,,,,,,,,,,,,,,,,,,,,,,,,,,,,,,,,,,,,,,,,,,,,,,,,,,,,,,,,,,,,,,,,,,,,,,,,,,,,,,,,,,,,,,,,,,,,,,,,,,,,,,,,,,,,,,,,,,,,,,,
1725717305.576659,1725717305.578397,176.0,0.0,4280.384766,4245.769043,4311.922852,4350.512695,4232.179688,4105.512695,4158.589844,4234.358887,4236.282227,4228.205078,4480.0,4518.461426,4357.436035,4417.307617,3431.0,0.0,11.0,,,,0.0,4.0,4.0,4.0,4.0,4.0,4.0,4.0,4.0,4.0,4.0,4.0,4.0,4.0,4.0,100.0,,,,,,,,,,,,,,,,,,,,,,,,,,,,,,,,,,,,,,,,,,,,,,,,,,,,,,,,,,,,,,,,,,,,,,,,,,,,,,,,,,,,,,,,,,,,,,,,,,,,,,,,,,,,,,,,,,,,,,,,,,,,,,,,,,,
1725717305.580563,1725717305.582301,177.0,0.0,4280.641113,4249.358887,4312.94873,4353.077148,4232.692383,4101.025879,4162.94873,4233.846191,4235.512695,4231.153809,4482.05127,4520.897461,4359.358887,4417.436035,3854.0,0.0,11.0,,,,0.0,4.0,4.0,4.0,4.0,4.0,4.0,4.0,4.0,4.0,4.0,4.0,4.0,4.0,4.0,100.0,,,,,,,,,,,,,,,,,,,,,,,,,,,,,,,,,,,,,,,,,,,,,,,,,,,,,,,,,,,,,,,,,,,,,,,,,,,,,,,,,,,,,,,,,,,,,,,,,,,,,,,,,,,,,,,,,,,,,,,,,,,,,,,,,,,
1725717305.584467,1725717305.586205,178.0,0.0,4281.922852,4250.0,4315.384766,4354.358887,4233.461426,4098.589844,4166.922852,4233.205078,4234.743652,4232.179688,4489.230957,4519.743652,4360.641113,4418.589844,2882.0,0.0,11.0,,,,0.0,4.0,4.0,4.0,4.0,4.0,4.0,4.0,4.0,4.0,4.0,4.0,4.0,4.0,4.0,100.0,,,,,,,,,,,,,,,,,,,,,,,,,,,,,,,,,,,,,,,,,,,,,,,,,,,,,,,,,,,,,,,,,,,,,,,,,,,,,,,,,,,,,,,,,,,,,,,,,,,,,,,,,,,,,,,,,,,,,,,,,,,,,,,,,,,
1725717305.588371,1725717305.590209,179.0,0.0,4283.589844,4248.717773,4317.94873,4353.974121,4234.230957,4097.436035,4169.230957,4232.820313,4235.0,4231.666504,4497.436035,4516.153809,4362.692383,4419.743652,3121.0,0.0,11.0,,,,0.0,4.0,4.0,4.0,4.0,4.0,4.0,4.0,4.0,4.0,4.0,4.0,4.0,4.0,4.0,100.0,,,,,,,,,,,,,,,,,,,,,,,,,,,,,,,,,,,,,,,,,,,,,,,,,,,,,,,,,,,,,,,,,,,,,,,,,,,,,,,,,,,,,,,,,,,,,,,,,,,,,,,,,,,,,,,,,,,,,,,,,,,,,,,,,,,
1725717305.592275,1725717305.594113,180.0,0.0,4284.102539,4247.179688,4318.717773,4351.666504,4234.615234,4097.307617,4169.871582,4232.820313,4236.153809,4230.769043,4500.512695,4512.436035,4365.128418,4419.358887,3431.0,0.0,11.0,,,,0.0,4.0,4.0,4.0,4.0,4.0,4.0,4.0,4.0,4.0,4.0,4.0,4.0,4.0,4.0,100.0,1.0,75.0,4.0,4.0,4.0,4.0,4.0,4.0,1.0,4.0,4.0,4.0,4.0,4.0,4.0,4.0,1.0,0.0,0.0,,,,,,,,,,,,,,,,,,,,,,,,,,,,,,,,,,,,,0.0,0.0,1.0,0.0,1024.0,0.149077,2.398981,2.468083,0.379012,0.2511,0.088917,11.74836,2.802735,1.617645,0.929981,0.199758,1.852147,1.72201,0.46501,0.173021,0.057402,1.510276,1.995929,0.571237,0.247153,0.100078,0.545231,0.505051,0.525779,0.079229,0.06611,0.548408,0.353855,0.252012,0.080121,0.04134,2.979712,1.454221,0.48436,0.162496,0.049184,1.323412,1.355904,0.780855,0.204767,0.205589,1.899506,1.106958,0.713783,0.328666,0.129328,2.729393,1.630343,0.756802,0.385032,0.128919,4.261782,2.276289,0.690006,0.983718,0.466008,4.257561,3.077633,1.215884,0.45405,0.26844,3.990222,2.288654,0.930299,0.663288,0.344543,3.683312,3.117151,0.840937,0.370805,0.118144
1725717305.596179,1725717305.598017,181.0,0.0,4282.94873,4246.282227,4316.794922,4347.94873,4234.615234,4097.820313,4168.846191,4232.820313,4237.179688,4230.256348,4495.512695,4510.0,4366.025879,4417.05127,3854.0,0.0,11.0,,,,0.0,4.0,4.0,4.0,4.0,4.0,4.0,4.0,4.0,4.0,4.0,4.0,4.0,4.0,4.0,100.0,,,,,,,,,,,,,,,,,,,,,,,,,,,,,,,,,,,,,,,,,,,,,,,,,,,,,,,,,,,,,,,,,,,,,,,,,,,,,,,,,,,,,,,,,,,,,,,,,,,,,,,,,,,,,,,,,,,,,,,,,,,,,,,,,,,
1725717305.600083,1725717305.602021,182.0,0.0,4280.256348,4245.769043,4313.333496,4343.974121,4233.974121,4098.589844,4167.307617,4232.563965,4237.307617,4229.230957,4484.487305,4508.846191,4363.077148,4413.461426,2882.0,0.0,11.0,,,,0.0,4.0,4.0,4.0,4.0,4.0,4.0,4.0,4.0,4.0,4.0,4.0,4.0,4.0,4.0,100.0,,,,,,,,,,,,,,,,,,,,,,,,,,,,,,,,,,,,,,,,,,,,,,,,,,,,,,,,,,,,,,,,,,,,,,,,,,,,,,,,,,,,,,,,,,,,,,,,,,,,,,,,,,,,,,,,,,,,,,,,,,,,,,,,,,,
1725717305.603987,1725717305.605925,183.0,0.0,4277.436035,4245.384766,4310.0,4341.025879,4233.205078,4098.974121,4166.153809,4232.05127,4236.282227,4226.666504,4473.974121,4508.333496,4356.153809,4410.641113,3121.0,0.0,11.0,,,,0.0,4.0,4.0,4.0,4.0,4.0,4.0,4.0,4.0,4.0,4.0,4.0,4.0,4.0,4.0,100.0,,,,,,,,,,,,,,,,,,,,,,,,,,,,,,,,,,,,,,,,,,,,,,,,,,,,,,,,,,,,,,,,,,,,,,,,,,,,,,,,,,,,,,,,,,,,,,,,,,,,,,,,,,,,,,,,,,,,,,,,,,,,,,,,,,,
1725717305.607891,1725717305.609829,184.0,0.0,4276.025879,4245.128418,4307.94873,4339.743652,4232.436035,4099.102539,4166.538574,4231.794922,4234.487305,4222.563965,4469.487305,4508.205078,4349.487305,4409.871582,3431.0,0.0,11.0,,,,0.0,4.0,4.0,4.0,4.0,4.0,4.0,4.0,4.0,4.0,4.0,4.0,4.0,4.0,4.0,100.0,,,,,,,,,,,,,,,,,,,,,,,,,,,,,,,,,,,,,,,,,,,,,,,,,,,,,,,,,,,,,,,,,,,,,,,,,,,,,,,,,,,,,,,,,,,,,,,,,,,,,,,,,,,,,,,,,,,,,,,,,,,,,,,,,,,
1725717305.611796,1725717305.613733,185.0,0.0,4276.794922,4245.128418,4307.436035,4340.128418,4232.307617,4099.230957,4168.077148,4231.922852,4233.205078,4218.333496,4471.666504,4508.077148,4348.846191,4411.153809,3854.0,0.0,11.0,,,,0.0,4.0,4.0,4.0,4.0,4.0,4.0,4.0,4.0,4.0,4.0,4.0,4.0,4.0,4.0,100.0,,,,,,,,,,,,,,,,,,,,,,,,,,,,,,,,,,,,,,,,,,,,,,,,,,,,,,,,,,,,,,,,,,,,,,,,,,,,,,,,,,,,,,,,,,,,,,,,,,,,,,,,,,,,,,,,,,,,,,,,,,,,,,,,,,,
1725717305.6157,1725717305.617737,186.0,0.0,4278.461426,4245.641113,4307.05127,4341.025879,4232.692383,4099.487305,4170.0,4232.436035,4232.436035,4215.641113,4476.666504,4506.794922,4355.769043,4412.692383,2882.0,0.0,11.0,,,,0.0,4.0,4.0,4.0,4.0,4.0,4.0,4.0,4.0,4.0,4.0,4.0,4.0,4.0,4.0,100.0,,,,,,,,,,,,,,,,,,,,,,,,,,,,,,,,,,,,,,,,,,,,,,,,,,,,,,,,,,,,,,,,,,,,,,,,,,,,,,,,,,,,,,,,,,,,,,,,,,,,,,,,,,,,,,,,,,,,,,,,,,,,,,,,,,,
1725717305.619604,1725717305.621641,187.0,0.0,4278.589844,4246.794922,4305.769043,4341.153809,4233.205078,4099.743652,4171.153809,4232.692383,4232.563965,4215.512695,4479.358887,4503.717773,4365.0,4412.436035,3121.0,0.0,11.0,,,,0.0,4.0,4.0,4.0,4.0,4.0,4.0,4.0,4.0,4.0,4.0,4.0,4.0,4.0,4.0,100.0,,,,,,,,,,,,,,,,,,,,,,,,,,,,,,,,,,,,,,,,,,,,,,,,,,,,,,,,,,,,,,,,,,,,,,,,,,,,,,,,,,,,,,,,,,,,,,,,,,,,,,,,,,,,,,,,,,,,,,,,,,,,,,,,,,,
1725717305.623508,1725717305.625546,188.0,0.0,4275.769043,4247.563965,4302.820313,4339.615234,4233.333496,4099.871582,4171.153809,4232.179688,4233.077148,4216.922852,4477.94873,4498.717773,4368.333496,4409.615234,3431.0,0.0,11.0,,,,0.0,4.0,4.0,4.0,4.0,4.0,4.0,4.0,4.0,4.0,4.0,4.0,4.0,4.0,4.0,100.0,,,,,,,,,,,,,,,,,,,,,,,,,,,,,,,,,,,,,,,,,,,,,,,,,,,,,,,,0.0,0.0,1.0,0.0,1024.0,0.149077,,,,,,,,,,,,,,,,,,,,,,,,,,,,,,,,,,,,,,,,,,,,,,,,,,,,,,,,,,,,,,,,,,,,,,
1725717305.627412,1725717305.62945,189.0,0.0,4270.512695,4247.05127,4299.102539,4336.666504,4232.820313,4099.615234,4170.0,4230.897461,4232.692383,4218.077148,4475.256348,4493.333496,4362.436035,4405.512695,3854.0,0.0,11.0,,,,0.0,4.0,4.0,4.0,4.0,4.0,4.0,4.0,4.0,4.0,4.0,4.0,4.0,4.0,4.0,100.0,,,,,,,,,,,,,,,,,,,,,,,,,,,,,,,,,,,,,,,,,,,,,,,,,,,,,,,,,,,,,,,,,,,,,,,,,,,,,,,,,,,,,,,,,,,,,,,,,,,,,,,,,,,,,,,,,,,,,,,,,,,,,,,,,,,
1725717305.631316,1725717305.633354,190.0,0.0,4265.256348,4245.0,4296.153809,4333.846191,4231.922852,4099.487305,4168.846191,4229.487305,4231.153809,4217.307617,4474.230957,4490.0,4350.897461,4402.307617,2882.0,0.0,11.0,,,,0.0,4.0,4.0,4.0,4.0,4.0,4.0,4.0,4.0,4.0,4.0,4.0,4.0,4.0,4.0,100.0,,,,,,,,,,,,,,,,,,,,,,,,,,,,,,,,,,,,,,,,,,,,,,,,,,,,,,,,,,,,,,,,,,,,,,,,,,,,,,,,,,,,,,,,,,,,,,,,,,,,,,,,,,,,,,,,,,,,,,,,,,,,,,,,,,,
1725717305.63522,1725717305.637158,191.0,0.0,4262.820313,4242.94873,4295.128418,4332.692383,4231.282227,4099.743652,4168.461426,4228.589844,4229.102539,4214.871582,4474.871582,4491.025879,4341.282227,4401.794922,3121.0,0.0,11.0,,,,0.0,4.0,4.0,4.0,4.0,4.0,4.0,4.0,4.0,4.0,4.0,4.0,4.0,4.0,4.0,100.0,,,,,,,,,,,,,,,,,,,,,,,,,,,,,,,,,,,,,,,,,,,,,,,,,,,,,,,,,,,,,,,,,,,,,,,,,,,,,,,,,,,,,,,,,,,,,,,,,,,,,,,,,,,,,,,,,,,,,,,,,,,,,,,,,,,
1725717305.639124,1725717305.641062,192.0,0.0,4264.102539,4242.436035,4296.025879,4333.333496,4231.282227,4100.128418,4169.102539,4228.461426,4228.205078,4212.820313,4475.512695,4496.410156,4339.102539,4404.102539,3431.0,0.0,11.0,,,,0.0,4.0,4.0,4.0,4.0,4.0,4.0,4.0,4.0,4.0,4.0,4.0,4.0,4.0,4.0,100.0,,,,,,,,,,,,,,,,,,,,,,,,,,,,,,,,,,,,,,,,,,,,,,,,,,,,,,,,,,,,,,,,,,,,,,,,,,,,,,,,,,,,,,,,,,,,,,,,,,,,,,,,,,,,,,,,,,,,,,,,,,,,,,,,,,,
1725717305.643028,1725717305.644966,193.0,0.0,4267.563965,4243.589844,4298.461426,4334.358887,4231.538574,4100.0,4170.384766,4228.846191,4229.871582,4213.461426,4474.487305,4503.205078,4344.487305,4407.94873,3854.0,0.0,11.0,,,,0.0,4.0,4.0,4.0,4.0,4.0,4.0,4.0,4.0,4.0,4.0,4.0,4.0,4.0,4.0,100.0,,,,,,,,,,,,,,,,,,,,,,,,,,,,,,,,,,,,,,,,,,,,,,,,,,,,,,,,,,,,,,,,,,,,,,,,,,,,,,,,,,,,,,,,,,,,,,,,,,,,,,,,,,,,,,,,,,,,,,,,,,,,,,,,,,,
1725717305.646932,1725717305.64887,194.0,0.0,4271.025879,4245.256348,4301.666504,4335.0,4231.922852,4099.487305,4171.410156,4229.487305,4233.846191,4217.436035,4473.077148,4507.307617,4353.333496,4411.538574,2882.0,0.0,11.0,,,,0.0,4.0,4.0,4.0,4.0,4.0,4.0,4.0,4.0,4.0,4.0,4.0,4.0,4.0,4.0,100.0,,,,,,,,,,,,,,,,,,,,,,,,,,,,,,,,,,,,,,,,,,,,,,,,,,,,,,,,,,,,,,,,,,,,,,,,,,,,,,,,,,,,,,,,,,,,,,,,,,,,,,,,,,,,,,,,,,,,,,,,,,,,,,,,,,,
1725717305.650837,1725717305.652674,195.0,0.0,4273.077148,4246.410156,4305.384766,4335.128418,4231.922852,4099.102539,4171.282227,4230.256348,4238.974121,4223.205078,4473.589844,4507.307617,4360.641113,4413.717773,3121.0,0.0,11.0,,,,0.0,4.0,4.0,4.0,4.0,4.0,4.0,4.0,4.0,4.0,4.0,4.0,4.0,4.0,4.0,100.0,,,,,,,,,,,,,,,,,,,,,,,,,,,,,,,,,,,,,,,,,,,,,,,,,,,,,,,,,,,,,,,,,,,,,,,,,,,,,,,,,,,,,,,,,,,,,,,,,,,,,,,,,,,,,,,,,,,,,,,,,,,,,,,,,,,
1725717305.654741,1725717305.656579,196.0,0.0,4274.102539,4246.922852,4309.102539,4336.153809,4231.282227,4099.487305,4170.0,4231.282227,4243.333496,4228.333496,4477.563965,4504.871582,4364.230957,4414.743652,3431.0,0.0,11.0,,,,0.0,4.0,4.0,4.0,4.0,4.0,4.0,4.0,4.0,4.0,4.0,4.0,4.0,4.0,4.0,100.0,,,,,,,,,,,,,,,,,,,,,,,,,,,,,,,,,,,,,,,,,,,,,,,,,,,,,,,,0.0,0.0,1.0,0.0,1024.0,0.149077,,,,,,,,,,,,,,,,,,,,,,,,,,,,,,,,,,,,,,,,,,,,,,,,,,,,,,,,,,,,,,,,,,,,,,
1725717305.658645,1725717305.660483,197.0,0.0,4275.128418,4247.05127,4311.666504,4338.461426,4230.512695,4100.256348,4168.461426,4232.563965,4245.512695,4231.282227,4483.077148,4503.717773,4364.615234,4415.256348,3854.0,0.0,11.0,,,,0.0,4.0,4.0,4.0,4.0,4.0,4.0,4.0,4.0,4.0,4.0,4.0,4.0,4.0,4.0,100.0,,,,,,,,,,,,,,,,,,,,,,,,,,,,,,,,,,,,,,,,,,,,,,,,,,,,,,,,,,,,,,,,,,,,,,,,,,,,,,,,,,,,,,,,,,,,,,,,,,,,,,,,,,,,,,,,,,,,,,,,,,,,,,,,,,,
1725717305.662549,1725717305.664387,198.0,0.0,4276.538574,4247.563965,4312.05127,4340.769043,4229.743652,4100.384766,4167.563965,4233.717773,4245.512695,4231.794922,4486.153809,4505.769043,4363.846191,4415.641113,2882.0,0.0,11.0,,,,0.0,4.0,4.0,4.0,4.0,4.0,4.0,4.0,4.0,4.0,4.0,4.0,4.0,4.0,4.0,100.0,,,,,,,,,,,,,,,,,,,,,,,,,,,,,,,,,,,,,,,,,,,,,,,,,,,,,,,,,,,,,,,,,,,,,,,,,,,,,,,,,,,,,,,,,,,,,,,,,,,,,,,,,,,,,,,,,,,,,,,,,,,,,,,,,,,
1725717305.666453,1725717305.668191,199.0,0.0,4278.077148,4248.589844,4310.384766,4341.410156,4229.358887,4099.358887,4167.436035,4234.358887,4245.0,4230.897461,4483.589844,4509.743652,4362.692383,4415.769043,3121.0,0.0,11.0,,,,0.0,4.0,4.0,4.0,4.0,4.0,4.0,4.0,4.0,4.0,4.0,4.0,4.0,4.0,4.0,100.0,,,,,,,,,,,,,,,,,,,,,,,,,,,,,,,,,,,,,,,,,,,,,,,,,,,,,,,,,,,,,,,,,,,,,,,,,,,,,,,,,,,,,,,,,,,,,,,,,,,,,,,,,,,,,,,,,,,,,,,,,,,,,,,,,,,
1725717305.670357,1725717305.672095,200.0,0.0,4278.846191,4249.615234,4307.820313,4339.358887,4229.358887,4097.436035,4167.563965,4233.974121,4245.769043,4230.384766,4477.05127,4512.820313,4360.384766,4415.256348,3431.0,0.0,11.0,,,,0.0,4.0,4.0,4.0,4.0,4.0,4.0,4.0,4.0,4.0,4.0,4.0,4.0,4.0,4.0,100.0,,,,,,,,,,,,,,,,,,,,,,,,,,,,,,,,,,,,,,,,,,,,,,,,,,,,,,,,,,,,,,,,,,,,,,,,,,,,,,,,,,,,,,,,,,,,,,,,,,,,,,,,,,,,,,,,,,,,,,,,,,,,,,,,,,,
1725717305.674261,1725717305.675999,201.0,0.0,4278.717773,4250.384766,4306.282227,4335.641113,4229.358887,4095.384521,4167.820313,4233.205078,4247.94873,4231.282227,4472.05127,4513.205078,4356.282227,4413.974121,3854.0,0.0,11.0,,,,0.0,4.0,4.0,4.0,4.0,4.0,4.0,4.0,4.0,4.0,4.0,4.0,4.0,4.0,4.0,100.0,,,,,,,,,,,,,,,,,,,,,,,,,,,,,,,,,,,,,,,,,,,,,,,,,,,,,,,,,,,,,,,,,,,,,,,,,,,,,,,,,,,,,,,,,,,,,,,,,,,,,,,,,,,,,,,,,,,,,,,,,,,,,,,,,,,
1725717305.678165,1725717305.680003,202.0,0.0,4278.205078,4250.512695,4307.05127,4332.820313,4228.589844,4093.846191,4167.94873,4232.94873,4249.358887,4233.205078,4474.230957,4511.538574,4352.05127,4413.077148,2882.0,0.0,11.0,,,,0.0,4.0,4.0,4.0,4.0,4.0,4.0,4.0,4.0,4.0,4.0,4.0,4.0,4.0,4.0,100.0,,,,,,,,,,,,,,,,,,,,,,,,,,,,,,,,,,,,,,,,,,,,,,,,,,,,,,,,,,,,,,,,,,,,,,,,,,,,,,,,,,,,,,,,,,,,,,,,,,,,,,,,,,,,,,,,,,,,,,,,,,,,,,,,,,,
1725717305.682069,1725717305.683907,203.0,0.0,4277.820313,4250.256348,4309.743652,4332.820313,4226.538574,4093.205078,4168.333496,4233.205078,4247.692383,4234.871582,4483.461426,4509.743652,4351.025879,4413.589844,3121.0,0.0,11.0,,,,0.0,4.0,4.0,4.0,4.0,4.0,4.0,4.0,4.0,4.0,4.0,4.0,4.0,4.0,4.0,100.0,,,,,,,,,,,,,,,,,,,,,,,,,,,,,,,,,,,,,,,,,,,,,,,,,,,,,,,,,,,,,,,,,,,,,,,,,,,,,,,,,,,,,,,,,,,,,,,,,,,,,,,,,,,,,,,,,,,,,,,,,,,,,,,,,,,
1725717305.685974,1725717305.687811,204.0,0.0,4277.94873,4249.615234,4312.563965,4335.384766,4223.333496,4093.718018,4168.589844,4233.461426,4242.563965,4234.871582,4493.717773,4509.615234,4355.256348,4415.641113,3431.0,0.0,11.0,,,,0.0,4.0,4.0,4.0,4.0,4.0,4.0,4.0,4.0,4.0,4.0,4.0,4.0,4.0,4.0,100.0,,,,,,,,,,,,,,,,,,,,,,,,,,,,,,,,,,,,,,,,,,,,,,,,,,,,,,,,0.0,0.0,1.0,0.0,1024.0,0.149077,,,,,,,,,,,,,,,,,,,,,,,,,,,,,,,,,,,,,,,,,,,,,,,,,,,,,,,,,,,,,,,,,,,,,,
1725717305.689878,1725717305.691815,205.0,0.0,4278.205078,4248.589844,4313.717773,4338.333496,4219.743652,4094.871826,4167.94873,4233.077148,4236.666504,4232.820313,4497.692383,4510.512695,4362.692383,4418.333496,3854.0,0.0,11.0,,,,0.0,4.0,4.0,4.0,4.0,4.0,4.0,4.0,4.0,4.0,4.0,4.0,4.0,4.0,4.0,100.0,,,,,,,,,,,,,,,,,,,,,,,,,,,,,,,,,,,,,,,,,,,,,,,,,,,,,,,,,,,,,,,,,,,,,,,,,,,,,,,,,,,,,,,,,,,,,,,,,,,,,,,,,,,,,,,,,,,,,,,,,,,,,,,,,,,
1725717305.693782,1725717305.69572,206.0,0.0,4278.333496,4247.563965,4312.563965,4339.102539,4217.307617,4095.512939,4166.666504,4232.820313,4233.717773,4230.256348,4493.333496,4511.410156,4368.717773,4419.871582,2882.0,0.0,11.0,,,,0.0,4.0,4.0,4.0,4.0,4.0,4.0,4.0,4.0,4.0,4.0,4.0,4.0,4.0,4.0,100.0,,,,,,,,,,,,,,,,,,,,,,,,,,,,,,,,,,,,,,,,,,,,,,,,,,,,,,,,,,,,,,,,,,,,,,,,,,,,,,,,,,,,,,,,,,,,,,,,,,,,,,,,,,,,,,,,,,,,,,,,,,,,,,,,,,,
1725717305.697686,1725717305.699624,207.0,0.0,4278.717773,4246.794922,4310.384766,4337.307617,4217.692383,4095.897461,4165.512695,4233.589844,4235.512695,4229.102539,4485.0,4511.410156,4370.0,4419.358887,3121.0,0.0,11.0,,,,0.0,4.0,4.0,4.0,4.0,4.0,4.0,4.0,4.0,4.0,4.0,4.0,4.0,4.0,4.0,100.0,,,,,,,,,,,,,,,,,,,,,,,,,,,,,,,,,,,,,,,,,,,,,,,,,,,,,,,,,,,,,,,,,,,,,,,,,,,,,,,,,,,,,,,,,,,,,,,,,,,,,,,,,,,,,,,,,,,,,,,,,,,,,,,,,,,
1725717305.70159,1725717305.703528,208.0,0.0,4279.615234,4246.794922,4309.230957,4334.487305,4221.410156,4096.666504,4165.384766,4236.282227,4240.769043,4230.128418,4480.128418,4510.641113,4366.922852,4417.307617,3431.0,0.0,11.0,,,,0.0,4.0,4.0,4.0,4.0,4.0,4.0,4.0,4.0,4.0,4.0,4.0,4.0,4.0,4.0,100.0,,,,,,,,,,,,,,,,,,,,,,,,,,,,,,,,,,,,,,,,,,,,,,,,,,,,,,,,,,,,,,,,,,,,,,,,,,,,,,,,,,,,,,,,,,,,,,,,,,,,,,,,,,,,,,,,,,,,,,,,,,,,,,,,,,,
1725717305.705494,1725717305.707532,209.0,0.0,4280.512695,4247.692383,4309.871582,4332.820313,4226.538574,4098.461426,4166.410156,4239.871582,4245.512695,4232.307617,4481.922852,4509.487305,4362.820313,4415.384766,3854.0,0.0,11.0,,,,0.0,4.0,4.0,4.0,4.0,4.0,4.0,4.0,4.0,4.0,4.0,4.0,4.0,4.0,4.0,100.0,,,,,,,,,,,,,,,,,,,,,,,,,,,,,,,,,,,,,,,,,,,,,,,,,,,,,,,,,,,,,,,,,,,,,,,,,,,,,,,,,,,,,,,,,,,,,,,,,,,,,,,,,,,,,,,,,,,,,,,,,,,,,,,,,,,
1725717305.709398,1725717305.711436,210.0,0.0,4280.128418,4249.102539,4311.282227,4333.205078,4230.384766,4100.897461,4167.05127,4242.179688,4246.282227,4233.205078,4487.563965,4508.717773,4360.128418,4415.0,2882.0,0.0,11.0,,,,0.0,4.0,4.0,4.0,4.0,4.0,4.0,4.0,4.0,4.0,4.0,4.0,4.0,4.0,4.0,100.0,,,,,,,,,,,,,,,,,,,,,,,,,,,,,,,,,,,,,,,,,,,,,,,,,,,,,,,,,,,,,,,,,,,,,,,,,,,,,,,,,,,,,,,,,,,,,,,,,,,,,,,,,,,,,,,,,,,,,,,,,,,,,,,,,,,
1725717305.713302,1725717305.71534,211.0,0.0,4277.307617,4250.128418,4311.025879,4334.358887,4230.512695,4102.94873,4165.769043,4241.794922,4242.307617,4231.538574,4490.897461,4508.717773,4358.846191,4415.769043,3121.0,0.0,11.0,,,,0.0,4.0,4.0,4.0,4.0,4.0,4.0,4.0,4.0,4.0,4.0,4.0,4.0,4.0,4.0,100.0,,,,,,,,,,,,,,,,,,,,,,,,,,,,,,,,,,,,,,,,,,,,,,,,,,,,,,,,,,,,,,,,,,,,,,,,,,,,,,,,,,,,,,,,,,,,,,,,,,,,,,,,,,,,,,,,,,,,,,,,,,,,,,,,,,,
1725717305.717206,1725717305.719244,212.0,0.0,4272.563965,4250.769043,4307.692383,4333.974121,4226.666504,4103.333496,4162.05127,4238.589844,4236.025879,4226.666504,4487.179688,4508.461426,4358.333496,4415.897461,3431.0,0.0,11.0,,,,0.0,4.0,4.0,4.0,4.0,4.0,4.0,4.0,4.0,4.0,4.0,4.0,4.0,4.0,4.0,100.0,,,,,,,,,,,,,,,,,1.0,0.0,0.0,,,,,,,,,,,,,,,,,,,,,,,,,,,,,,,,,,,,,0.0,0.0,1.0,0.0,1024.0,0.097907,2.19797,2.105065,0.332008,0.216691,0.082898,13.721158,2.827158,1.887105,1.020341,0.221024,1.678176,1.510514,0.429516,0.157529,0.052759,1.367405,1.690059,0.491359,0.227734,0.096001,0.598226,0.460809,0.487958,0.080313,0.07675,0.54292,0.349284,0.249282,0.073826,0.036289,2.809152,1.41031,0.468819,0.158585,0.052082,1.303877,1.315318,0.651268,0.189334,0.183035,1.705837,0.884402,0.652513,0.337086,0.146192,2.390214,1.45281,0.749095,0.33732,0.119291,3.705168,2.117486,0.59966,0.913053,0.489993,4.070056,2.692318,0.975106,0.38855,0.256281,3.575639,1.980577,0.91126,0.694158,0.364373,3.325419,2.548385,0.667214,0.320002,0.126708
1725717305.72111,1725717305.723248,213.0,0.0,4267.692383,4250.769043,4301.922852,4331.025879,4221.282227,4101.666504,4157.179688,4234.230957,4231.153809,4220.384766,4477.820313,4507.179688,4357.692383,4413.589844,3854.0,0.0,11.0,,,,0.0,4.0,4.0,4.0,4.0,4.0,4.0,4.0,4.0,4.0,4.0,4.0,4.0,4.0,4.0,100.0,,,,,,,,,,,,,,,,,,,,,,,,,,,,,,,,,,,,,,,,,,,,,,,,,,,,,,,,,,,,,,,,,,,,,,,,,,,,,,,,,,,,,,,,,,,,,,,,,,,,,,,,,,,,,,,,,,,,,,,,,,,,,,,,,,,
1725717305.725015,1725717305.727152,214.0,0.0,4264.743652,4250.512695,4296.153809,4326.922852,4217.692383,4098.205078,4153.205078,4231.153809,4230.0,4215.641113,4468.846191,4505.0,4356.538574,4408.846191,2882.0,0.0,11.0,,,,0.0,4.0,4.0,4.0,4.0,4.0,4.0,4.0,4.0,4.0,4.0,4.0,4.0,4.0,4.0,100.0,,,,,,,,,,,,,,,,,,,,,,,,,,,,,,,,,,,,,,,,,,,,,,,,,,,,,,,,,,,,,,,,,,,,,,,,,,,,,,,,,,,,,,,,,,,,,,,,,,,,,,,,,,,,,,,,,,,,,,,,,,,,,,,,,,,
1725717305.728919,1725717305.731056,215.0,0.0,4264.230957,4250.384766,4293.461426,4324.102539,4217.307617,4094.358887,4151.410156,4231.153809,4232.692383,4215.128418,4466.410156,4502.820313,4353.846191,4404.487305,3121.0,0.0,11.0,,,,0.0,4.0,4.0,4.0,4.0,4.0,4.0,4.0,4.0,4.0,4.0,4.0,4.0,4.0,4.0,100.0,,,,,,,,,,,,,,,,,,,,,,,,,,,,,,,,,,,,,,,,,,,,,,,,,,,,,,,,,,,,,,,,,,,,,,,,,,,,,,,,,,,,,,,,,,,,,,,,,,,,,,,,,,,,,,,,,,,,,,,,,,,,,,,,,,,
1725717305.732823,1725717305.73496,216.0,0.0,4264.743652,4250.384766,4294.358887,4323.974121,4219.358887,4091.666748,4151.025879,4233.717773,4237.05127,4219.230957,4471.922852,4501.666504,4349.487305,4402.692383,3431.0,0.0,11.0,,,,0.0,4.0,4.0,4.0,4.0,4.0,4.0,4.0,4.0,4.0,4.0,4.0,4.0,4.0,4.0,100.0,,,,,,,,,,,,,,,,,,,,,,,,,,,,,,,,,,,,,,,,,,,,,,,,,,,,,,,,,,,,,,,,,,,,,,,,,,,,,,,,,,,,,,,,,,,,,,,,,,,,,,,,,,,,,,,,,,,,,,,,,,,,,,,,,,,
1725717305.736727,1725717305.738864,217.0,0.0,4264.358887,4250.384766,4297.179688,4325.641113,4221.538574,4091.410156,4150.512695,4236.922852,4240.128418,4225.384766,4480.128418,4501.794922,4344.230957,4403.589844,3854.0,0.0,11.0,,,,0.0,4.0,4.0,4.0,4.0,4.0,4.0,4.0,4.0,4.0,4.0,4.0,4.0,4.0,4.0,100.0,,,,,,,,,,,,,,,,,,,,,,,,,,,,,,,,,,,,,,,,,,,,,,,,,,,,,,,,,,,,,,,,,,,,,,,,,,,,,,,,,,,,,,,,,,,,,,,,,,,,,,,,,,,,,,,,,,,,,,,,,,,,,,,,,,,
1725717305.740631,1725717305.742669,218.0,0.0,4262.436035,4249.615234,4298.974121,4327.05127,4222.05127,4093.205078,4148.077148,4238.077148,4240.384766,4229.743652,4483.589844,4502.820313,4340.0,4405.641113,2882.0,0.0,11.0,,,,0.0,4.0,4.0,4.0,4.0,4.0,4.0,4.0,4.0,4.0,4.0,4.0,4.0,4.0,4.0,100.0,,,,,,,,,,,,,,,,,,,,,,,,,,,,,,,,,,,,,,,,,,,,,,,,,,,,,,,,,,,,,,,,,,,,,,,,,,,,,,,,,,,,,,,,,,,,,,,,,,,,,,,,,,,,,,,,,,,,,,,,,,,,,,,,,,,
1725717305.744535,1725717305.746573,219.0,0.0,4259.743652,4247.692383,4298.205078,4326.794922,4220.769043,4095.641113,4143.846191,4236.153809,4238.461426,4230.128418,4477.94873,4503.589844,4338.846191,4406.538574,3121.0,0.0,11.0,,,,0.0,4.0,4.0,4.0,4.0,4.0,4.0,4.0,4.0,4.0,4.0,4.0,4.0,4.0,4.0,100.0,,,,,,,,,,,,,,,,,,,,,,,,,,,,,,,,,,,,,,,,,,,,,,,,,,,,,,,,,,,,,,,,,,,,,,,,,,,,,,,,,,,,,,,,,,,,,,,,,,,,,,,,,,,,,,,,,,,,,,,,,,,,,,,,,,,
1725717305.748439,1725717305.750477,220.0,0.0,4257.563965,4245.0,4295.769043,4325.256348,4218.589844,4096.794922,4139.743652,4232.436035,4236.282227,4227.436035,4465.769043,4503.077148,4341.538574,4406.025879,3431.0,0.0,11.0,,,,0.0,4.0,4.0,4.0,4.0,4.0,4.0,4.0,4.0,4.0,4.0,4.0,4.0,4.0,4.0,100.0,,,,,,,,,,,,,,,,,,,,,,,,,,,,,,,,,,,,,,,,,,,,,,,,,,,,,,,,0.0,0.0,1.0,0.0,1024.0,0.097907,,,,,,,,,,,,,,,,,,,,,,,,,,,,,,,,,,,,,,,,,,,,,,,,,,,,,,,,,,,,,,,,,,,,,,
1725717305.752343,1725717305.754381,221.0,0.0,4257.05127,4243.589844,4293.717773,4324.102539,4216.794922,4096.025879,4137.307617,4229.102539,4234.871582,4224.102539,4454.615234,4500.897461,4347.563965,4405.0,3854.0,0.0,11.0,,,,0.0,4.0,4.0,4.0,4.0,4.0,4.0,4.0,4.0,4.0,4.0,4.0,4.0,4.0,4.0,100.0,,,,,,,,,,,,,,,,,,,,,,,,,,,,,,,,,,,,,,,,,,,,,,,,,,,,,,,,,,,,,,,,,,,,,,,,,,,,,,,,,,,,,,,,,,,,,,,,,,,,,,,,,,,,,,,,,,,,,,,,,,,,,,,,,,,
1725717305.756247,1725717305.758185,222.0,0.0,4257.563965,4244.743652,4293.589844,4324.487305,4216.538574,4094.358887,4136.922852,4227.94873,4234.743652,4222.94873,4451.538574,4497.692383,4354.102539,4405.384766,2882.0,0.0,11.0,,,,0.0,4.0,4.0,4.0,4.0,4.0,4.0,4.0,4.0,4.0,4.0,4.0,4.0,4.0,4.0,100.0,,,,,,,,,,,,,,,,,,,,,,,,,,,,,,,,,,,,,,,,,,,,,,,,,,,,,,,,,,,,,,,,,,,,,,,,,,,,,,,,,,,,,,,,,,,,,,,,,,,,,,,,,,,,,,,,,,,,,,,,,,,,,,,,,,,
1725717305.760152,1725717305.762089,223.0,0.0,4258.205078,4248.974121,4294.871582,4326.538574,4218.205078,4094.358887,4137.563965,4229.230957,4235.256348,4224.487305,4458.589844,4494.743652,4358.333496,4407.563965,3121.0,0.0,11.0,,,,0.0,4.0,4.0,4.0,4.0,4.0,4.0,4.0,4.0,4.0,4.0,4.0,4.0,4.0,4.0,100.0,,,,,,,,,,,,,,,,,,,,,,,,,,,,,,,,,,,,,,,,,,,,,,,,,,,,,,,,,,,,,,,,,,,,,,,,,,,,,,,,,,,,,,,,,,,,,,,,,,,,,,,,,,,,,,,,,,,,,,,,,,,,,,,,,,,
1725717305.764056,1725717305.765993,224.0,0.0,4258.205078,4255.128418,4296.282227,4329.615234,4221.282227,4096.794922,4138.077148,4231.410156,4235.256348,4227.179688,4471.922852,4493.205078,4359.358887,4410.384766,3431.0,0.0,11.0,,,,0.0,4.0,4.0,4.0,4.0,4.0,4.0,4.0,4.0,4.0,4.0,4.0,4.0,4.0,4.0,100.0,,,,,,,,,,,,,,,,,,,,,,,,,,,,,,,,,,,,,,,,,,,,,,,,,,,,,,,,,,,,,,,,,,,,,,,,,,,,,,,,,,,,,,,,,,,,,,,,,,,,,,,,,,,,,,,,,,,,,,,,,,,,,,,,,,,
1725717305.767959,1725717305.769898,225.0,0.0,4258.461426,4260.897461,4296.794922,4332.820313,4225.128418,4100.769043,4138.205078,4232.563965,4234.102539,4229.230957,4484.743652,4493.974121,4358.205078,4411.922852,3854.0,0.0,11.0,,,,0.0,4.0,4.0,4.0,4.0,4.0,4.0,4.0,4.0,4.0,4.0,4.0,4.0,4.0,4.0,100.0,,,,,,,,,,,,,,,,,,,,,,,,,,,,,,,,,,,,,,,,,,,,,,,,,,,,,,,,,,,,,,,,,,,,,,,,,,,,,,,,,,,,,,,,,,,,,,,,,,,,,,,,,,,,,,,,,,,,,,,,,,,,,,,,,,,
1725717305.771864,1725717305.773702,226.0,0.0,4260.256348,4264.871582,4297.179688,4336.025879,4228.717773,4104.102539,4138.589844,4231.794922,4232.307617,4230.0,4492.563965,4497.94873,4357.05127,4411.922852,2882.0,0.0,11.0,,,,0.0,4.0,4.0,4.0,4.0,4.0,4.0,4.0,4.0,4.0,4.0,4.0,4.0,4.0,4.0,100.0,,,,,,,,,,,,,,,,,,,,,,,,,,,,,,,,,,,,,,,,,,,,,,,,,,,,,,,,,,,,,,,,,,,,,,,,,,,,,,,,,,,,,,,,,,,,,,,,,,,,,,,,,,,,,,,,,,,,,,,,,,,,,,,,,,,
1725717305.775768,1725717305.777606,227.0,0.0,4263.846191,4266.410156,4298.589844,4339.230957,4231.153809,4105.641113,4139.871582,4230.0,4231.153809,4230.128418,4494.358887,4504.871582,4357.307617,4412.179688,3121.0,0.0,11.0,,,,0.0,4.0,4.0,4.0,4.0,4.0,4.0,4.0,4.0,4.0,4.0,4.0,4.0,4.0,4.0,100.0,,,,,,,,,,,,,,,,,,,,,,,,,,,,,,,,,,,,,,,,,,,,,,,,,,,,,,,,,,,,,,,,,,,,,,,,,,,,,,,,,,,,,,,,,,,,,,,,,,,,,,,,,,,,,,,,,,,,,,,,,,,,,,,,,,,
1725717305.779672,1725717305.78151,228.0,0.0,4268.077148,4266.025879,4302.05127,4342.179688,4232.179688,4105.641113,4141.538574,4229.487305,4231.538574,4230.769043,4492.692383,4513.077148,4358.846191,4414.743652,3431.0,0.0,11.0,,,,0.0,4.0,4.0,4.0,4.0,4.0,4.0,4.0,4.0,4.0,4.0,4.0,4.0,4.0,4.0,100.0,,,,,,,,,,,,,,,,,,,,,,,,,,,,,,,,,,,,,,,,,,,,,,,,,,,,,,,,0.0,0.0,1.0,0.0,1024.0,0.097907,,,,,,,,,,,,,,,,,,,,,,,,,,,,,,,,,,,,,,,,,,,,,,,,,,,,,,,,,,,,,,,,,,,,,,
1725717305.783576,1725717305.785414,229.0,0.0,4270.897461,4265.0,4306.410156,4343.717773,4232.05127,4105.256348,4142.692383,4232.05127,4233.077148,4231.922852,4490.256348,4520.0,4360.384766,4419.615234,3854.0,0.0,11.0,,,,0.0,4.0,4.0,4.0,4.0,4.0,4.0,4.0,4.0,4.0,4.0,4.0,4.0,4.0,4.0,100.0,,,,,,,,,,,,,,,,,,,,,,,,,,,,,,,,,,,,,,,,,,,,,,,,,,,,,,,,,,,,,,,,,,,,,,,,,,,,,,,,,,,,,,,,,,,,,,,,,,,,,,,,,,,,,,,,,,,,,,,,,,,,,,,,,,,
1725717305.78748,1725717305.789318,230.0,0.0,4271.410156,4264.230957,4310.0,4343.333496,4231.794922,4105.384766,4142.436035,4237.179688,4234.358887,4232.94873,4488.589844,4523.333496,4360.512695,4423.846191,2882.0,0.0,11.0,,,,0.0,4.0,4.0,4.0,4.0,4.0,4.0,4.0,4.0,4.0,4.0,4.0,4.0,4.0,4.0,100.0,,,,,,,,,,,,,,,,,,,,,,,,,,,,,,,,,,,,,,,,,,,,,,,,,,,,,,,,,,,,,,,,,,,,,,,,,,,,,,,,,,,,,,,,,,,,,,,,,,,,,,,,,,,,,,,,,,,,,,,,,,,,,,,,,,,
1725717305.791384,1725717305.793222,231.0,0.0,4270.0,4264.230957,4311.794922,4341.922852,4232.179688,4106.153809,4140.897461,4243.077148,4235.0,4233.333496,4487.436035,4522.692383,4359.358887,4423.846191,3121.0,0.0,11.0,,,,0.0,4.0,4.0,4.0,4.0,4.0,4.0,4.0,4.0,4.0,4.0,4.0,4.0,4.0,4.0,100.0,,,,,,,,,,,,,,,,,,,,,,,,,,,,,,,,,,,,,,,,,,,,,,,,,,,,,,,,,,,,,,,,,,,,,,,,,,,,,,,,,,,,,,,,,,,,,,,,,,,,,,,,,,,,,,,,,,,,,,,,,,,,,,,,,,,
1725717305.795288,1725717305.797226,232.0,0.0,4267.820313,4264.615234,4311.794922,4340.769043,4233.205078,4106.922852,4138.717773,4247.307617,4235.769043,4233.077148,4486.025879,4520.256348,4357.692383,4419.487305,3431.0,0.0,11.0,,,,0.0,4.0,4.0,4.0,4.0,4.0,4.0,4.0,4.0,4.0,4.0,4.0,4.0,4.0,4.0,100.0,,,,,,,,,,,,,,,,,,,,,,,,,,,,,,,,,,,,,,,,,,,,,,,,,,,,,,,,,,,,,,,,,,,,,,,,,,,,,,,,,,,,,,,,,,,,,,,,,,,,,,,,,,,,,,,,,,,,,,,,,,,,,,,,,,,
1725717305.799192,1725717305.80113,233.0,0.0,4266.282227,4265.0,4311.025879,4341.153809,4234.102539,4107.179688,4137.179688,4248.974121,4237.94873,4232.94873,4485.512695,4518.461426,4356.538574,4414.102539,3854.0,0.0,11.0,,,,0.0,4.0,4.0,4.0,4.0,4.0,4.0,4.0,4.0,4.0,4.0,4.0,4.0,4.0,4.0,100.0,,,,,,,,,,,,,,,,,,,,,,,,,,,,,,,,,,,,,,,,,,,,,,,,,,,,,,,,,,,,,,,,,,,,,,,,,,,,,,,,,,,,,,,,,,,,,,,,,,,,,,,,,,,,,,,,,,,,,,,,,,,,,,,,,,,
1725717305.803096,1725717305.805034,234.0,0.0,4265.769043,4265.512695,4310.641113,4343.077148,4233.974121,4106.666504,4136.666504,4249.102539,4241.666504,4233.461426,4487.563965,4519.102539,4356.922852,4412.563965,2882.0,0.0,11.0,,,,0.0,4.0,4.0,4.0,4.0,4.0,4.0,4.0,4.0,4.0,4.0,4.0,4.0,4.0,4.0,100.0,,,,,,,,,,,,,,,,,,,,,,,,,,,,,,,,,,,,,,,,,,,,,,,,,,,,,,,,,,,,,,,,,,,,,,,,,,,,,,,,,,,,,,,,,,,,,,,,,,,,,,,,,,,,,,,,,,,,,,,,,,,,,,,,,,,
1725717305.807001,1725717305.808939,235.0,0.0,4266.153809,4266.153809,4311.025879,4345.0,4232.692383,4106.282227,4137.05127,4248.717773,4245.641113,4234.230957,4492.179688,4521.666504,4359.102539,4416.410156,3121.0,0.0,11.0,,,,0.0,4.0,4.0,4.0,4.0,4.0,4.0,4.0,4.0,4.0,4.0,4.0,4.0,4.0,4.0,100.0,,,,,,,,,,,,,,,,,,,,,,,,,,,,,,,,,,,,,,,,,,,,,,,,,,,,,,,,,,,,,,,,,,,,,,,,,,,,,,,,,,,,,,,,,,,,,,,,,,,,,,,,,,,,,,,,,,,,,,,,,,,,,,,,,,,
1725717305.810905,1725717305.812943,236.0,0.0,4266.538574,4266.666504,4311.666504,4345.512695,4231.025879,4106.666504,4137.563965,4248.846191,4248.205078,4234.102539,4496.153809,4524.102539,4362.563965,4423.077148,3431.0,0.0,11.0,,,,0.0,4.0,4.0,4.0,4.0,4.0,4.0,4.0,4.0,4.0,4.0,4.0,4.0,4.0,4.0,100.0,,,,,,,,,,,,,,,,,,,,,,,,,,,,,,,,,,,,,,,,,,,,,,,,,,,,,,,,0.0,0.0,1.0,0.0,1024.0,0.097907,,,,,,,,,,,,,,,,,,,,,,,,,,,,,,,,,,,,,,,,,,,,,,,,,,,,,,,,,,,,,,,,,,,,,,
1725717305.814809,1725717305.816847,237.0,0.0,4266.538574,4266.282227,4311.922852,4343.846191,4229.871582,4107.563965,4137.692383,4248.974121,4248.589844,4232.692383,4496.282227,4524.102539,4366.025879,4428.077148,3854.0,0.0,11.0,,,,0.0,4.0,4.0,4.0,4.0,4.0,4.0,4.0,4.0,4.0,4.0,4.0,4.0,4.0,4.0,100.0,,,,,,,,,,,,,,,,,,,,,,,,,,,,,,,,,,,,,,,,,,,,,,,,,,,,,,,,,,,,,,,,,,,,,,,,,,,,,,,,,,,,,,,,,,,,,,,,,,,,,,,,,,,,,,,,,,,,,,,,,,,,,,,,,,,
1725717305.818713,1725717305.820751,238.0,0.0,4266.410156,4265.256348,4311.794922,4341.538574,4229.487305,4107.179688,4137.05127,4248.205078,4247.436035,4231.153809,4493.077148,4520.384766,4367.820313,4428.846191,2882.0,0.0,11.0,,,,0.0,4.0,4.0,4.0,4.0,4.0,4.0,4.0,4.0,4.0,4.0,4.0,4.0,4.0,4.0,100.0,,,,,,,,,,,,,,,,,,,,,,,,,,,,,,,,,,,,,,,,,,,,,,,,,,,,,,,,,,,,,,,,,,,,,,,,,,,,,,,,,,,,,,,,,,,,,,,,,,,,,,,,,,,,,,,,,,,,,,,,,,,,,,,,,,,
1725717305.822617,1725717305.824655,239.0,0.0,4266.282227,4264.615234,4311.538574,4340.769043,4229.230957,4104.615234,4136.153809,4246.922852,4246.153809,4231.025879,4490.512695,4513.589844,4367.820313,4425.897461,3121.0,0.0,11.0,,,,0.0,4.0,4.0,4.0,4.0,4.0,4.0,4.0,4.0,4.0,4.0,4.0,4.0,4.0,4.0,100.0,,,,,,,,,,,,,,,,,,,,,,,,,,,,,,,,,,,,,,,,,,,,,,,,,,,,,,,,,,,,,,,,,,,,,,,,,,,,,,,,,,,,,,,,,,,,,,,,,,,,,,,,,,,,,,,,,,,,,,,,,,,,,,,,,,,
1725717305.826521,1725717305.828659,240.0,0.0,4266.538574,4265.769043,4311.410156,4341.922852,4228.974121,4100.641113,4135.384766,4246.282227,4246.153809,4232.563965,4491.153809,4506.922852,4366.282227,4421.922852,3431.0,0.0,11.0,,,,0.0,4.0,4.0,4.0,4.0,4.0,4.0,4.0,4.0,4.0,4.0,4.0,4.0,4.0,4.0,100.0,,,,,,,,,,,,,,,,,,,,,,,,,,,,,,,,,,,,,,,,,,,,,,,,,,,,,,,,,,,,,,,,,,,,,,,,,,,,,,,,,,,,,,,,,,,,,,,,,,,,,,,,,,,,,,,,,,,,,,,,,,,,,,,,,,,
1725717305.830425,1725717305.832563,241.0,0.0,4266.794922,4268.974121,4311.282227,4343.333496,4228.589844,4097.307617,4135.256348,4247.307617,4248.077148,4234.743652,4492.436035,4504.102539,4363.461426,4418.846191,3854.0,0.0,11.0,,,,0.0,4.0,4.0,4.0,4.0,4.0,4.0,4.0,4.0,4.0,4.0,4.0,4.0,4.0,4.0,100.0,,,,,,,,,,,,,,,,,,,,,,,,,,,,,,,,,,,,,,,,,,,,,,,,,,,,,,,,,,,,,,,,,,,,,,,,,,,,,,,,,,,,,,,,,,,,,,,,,,,,,,,,,,,,,,,,,,,,,,,,,,,,,,,,,,,
1725717305.834329,1725717305.836467,242.0,0.0,4266.538574,4272.307617,4311.025879,4343.077148,4228.846191,4096.538574,4135.769043,4249.102539,4250.384766,4235.769043,4489.102539,4506.538574,4359.615234,4417.179688,2882.0,0.0,11.0,,,,0.0,4.0,4.0,4.0,4.0,4.0,4.0,4.0,4.0,4.0,4.0,4.0,4.0,4.0,4.0,100.0,,,,,,,,,,,,,,,,,,,,,,,,,,,,,,,,,,,,,,,,,,,,,,,,,,,,,,,,,,,,,,,,,,,,,,,,,,,,,,,,,,,,,,,,,,,,,,,,,,,,,,,,,,,,,,,,,,,,,,,,,,,,,,,,,,,
1725717305.838233,1725717305.840371,243.0,0.0,4265.641113,4273.589844,4310.512695,4341.025879,4229.871582,4098.333496,4136.153809,4249.615234,4251.282227,4234.743652,4479.487305,4511.922852,4355.0,4416.025879,3121.0,0.0,11.0,,,,0.0,4.0,4.0,4.0,4.0,4.0,4.0,4.0,4.0,4.0,4.0,4.0,4.0,4.0,4.0,100.0,,,,,,,,,,,,,,,,,,,,,,,,,,,,,,,,,,,,,,,,,,,,,,,,,,,,,,,,,,,,,,,,,,,,,,,,,,,,,,,,,,,,,,,,,,,,,,,,,,,,,,,,,,,,,,,,,,,,,,,,,,,,,,,,,,,
1725717305.842137,1725717305.844275,244.0,0.0,4264.358887,4272.179688,4309.743652,4339.230957,4231.025879,4101.538574,4135.769043,4247.820313,4249.871582,4232.436035,4467.692383,4515.897461,4350.512695,4414.230957,3431.0,0.0,11.0,,,,0.0,4.0,4.0,4.0,4.0,4.0,4.0,4.0,4.0,4.0,4.0,4.0,4.0,4.0,4.0,100.0,,,,,,,,,,,,,,,,,1.0,0.0,0.0,,,,,,,,,,,,,,,,,,,,,,,,,,,,,,,,,,,,,0.0,0.0,1.0,0.0,2048.0,0.064255,1.970627,1.683099,0.344656,0.210768,0.079144,14.307067,2.706931,2.066241,1.019177,0.233607,1.50677,1.283087,0.434872,0.158385,0.052312,1.27414,1.376459,0.47047,0.221523,0.092649,0.710968,0.389057,0.480649,0.082774,0.087311,0.646604,0.391248,0.281884,0.070711,0.036154,2.540082,1.244928,0.519962,0.150737,0.054934,1.240816,1.233237,0.554441,0.191625,0.161299,1.489702,0.747212,0.652895,0.362647,0.162224,2.125356,1.327717,0.871185,0.332986,0.120455,3.256476,1.904073,0.637938,0.925425,0.550263,3.77317,2.285065,0.791969,0.35735,0.241865,3.336628,1.751275,1.043736,0.725454,0.388163,2.883156,2.000437,0.585585,0.303469,0.141446
1725717305.846042,1725717305.848079,245.0,0.0,4263.589844,4268.846191,4308.974121,4339.102539,4231.666504,4104.358887,4134.230957,4244.871582,4247.436035,4230.897461,4461.282227,4515.769043,4347.436035,4411.922852,3854.0,0.0,11.0,,,,0.0,4.0,4.0,4.0,4.0,4.0,4.0,4.0,4.0,4.0,4.0,4.0,4.0,4.0,4.0,100.0,,,,,,,,,,,,,,,,,,,,,,,,,,,,,,,,,,,,,,,,,,,,,,,,,,,,,,,,,,,,,,,,,,,,,,,,,,,,,,,,,,,,,,,,,,,,,,,,,,,,,,,,,,,,,,,,,,,,,,,,,,,,,,,,,,,
1725717305.849946,1725717305.851984,246.0,0.0,4263.717773,4265.641113,4307.94873,4340.0,4231.666504,4105.641113,4132.307617,4243.077148,4246.282227,4231.794922,4465.256348,4511.794922,4346.153809,4410.128418,2882.0,0.0,11.0,,,,0.0,4.0,4.0,4.0,4.0,4.0,4.0,4.0,4.0,4.0,4.0,4.0,4.0,4.0,4.0,100.0,,,,,,,,,,,,,,,,,,,,,,,,,,,,,,,,,,,,,,,,,,,,,,,,,,,,,,,,,,,,,,,,,,,,,,,,,,,,,,,,,,,,,,,,,,,,,,,,,,,,,,,,,,,,,,,,,,,,,,,,,,,,,,,,,,,
1725717305.85385,1725717305.855888,247.0,0.0,4264.230957,4264.102539,4306.666504,4340.256348,4231.410156,4105.256348,4131.025879,4243.589844,4246.922852,4233.974121,4477.179688,4506.794922,4346.410156,4410.0,3121.0,0.0,11.0,,,,0.0,4.0,4.0,4.0,4.0,4.0,4.0,4.0,4.0,4.0,4.0,4.0,4.0,4.0,4.0,100.0,,,,,,,,,,,,,,,,,,,,,,,,,,,,,,,,,,,,,,,,,,,,,,,,,,,,,,,,,,,,,,,,,,,,,,,,,,,,,,,,,,,,,,,,,,,,,,,,,,,,,,,,,,,,,,,,,,,,,,,,,,,,,,,,,,,
1725717305.857754,1725717305.859792,248.0,0.0,4264.230957,4265.256348,4305.256348,4339.102539,4231.282227,4103.974121,4131.538574,4244.871582,4247.307617,4234.487305,4489.358887,4503.717773,4347.436035,4411.153809,3431.0,0.0,11.0,,,,0.0,4.0,4.0,4.0,4.0,4.0,4.0,4.0,4.0,4.0,4.0,4.0,4.0,4.0,4.0,100.0,,,,,,,,,,,,,,,,,,,,,,,,,,,,,,,,,,,,,,,,,,,,,,,,,,,,,,,,,,,,,,,,,,,,,,,,,,,,,,,,,,,,,,,,,,,,,,,,,,,,,,,,,,,,,,,,,,,,,,,,,,,,,,,,,,,
1725717305.861658,1725717305.863596,249.0,0.0,4263.589844,4268.461426,4303.846191,4337.179688,4231.666504,4103.077148,4133.461426,4244.102539,4245.128418,4231.153809,4493.717773,4503.589844,4348.589844,4412.563965,3854.0,0.0,11.0,,,,0.0,4.0,4.0,4.0,4.0,4.0,4.0,4.0,4.0,4.0,4.0,4.0,4.0,4.0,4.0,100.0,,,,,,,,,,,,,,,,,,,,,,,,,,,,,,,,,,,,,,,,,,,,,,,,,,,,,,,,,,,,,,,,,,,,,,,,,,,,,,,,,,,,,,,,,,,,,,,,,,,,,,,,,,,,,,,,,,,,,,,,,,,,,,,,,,,
1725717305.865562,1725717305.8675,250.0,0.0,4262.436035,4272.692383,4302.436035,4335.897461,4232.179688,4103.333496,4135.512695,4240.512695,4239.871582,4224.871582,4488.205078,4505.128418,4349.743652,4413.077148,2882.0,0.0,11.0,,,,0.0,4.0,4.0,4.0,4.0,4.0,4.0,4.0,4.0,4.0,4.0,4.0,4.0,4.0,4.0,100.0,,,,,,,,,,,,,,,,,,,,,,,,,,,,,,,,,,,,,,,,,,,,,,,,,,,,,,,,,,,,,,,,,,,,,,,,,,,,,,,,,,,,,,,,,,,,,,,,,,,,,,,,,,,,,,,,,,,,,,,,,,,,,,,,,,,
1725717305.869466,1725717305.871404,251.0,0.0,4261.538574,4276.410156,4301.538574,4336.282227,4232.820313,4104.743652,4136.666504,4235.769043,4233.846191,4219.102539,4477.307617,4506.153809,4351.282227,4412.563965,3121.0,0.0,11.0,,,,0.0,4.0,4.0,4.0,4.0,4.0,4.0,4.0,4.0,4.0,4.0,4.0,4.0,4.0,4.0,100.0,,,,,,,,,,,,,,,,,,,,,,,,,,,,,,,,,,,,,,,,,,,,,,,,,,,,,,,,,,,,,,,,,,,,,,,,,,,,,,,,,,,,,,,,,,,,,,,,,,,,,,,,,,,,,,,,,,,,,,,,,,,,,,,,,,,
1725717305.87337,1725717305.875308,252.0,0.0,4261.794922,4278.974121,4301.794922,4338.717773,4233.077148,4106.410156,4136.538574,4232.820313,4230.384766,4217.692383,4468.333496,4505.769043,4353.846191,4411.922852,3431.0,0.0,11.0,,,,0.0,4.0,4.0,4.0,4.0,4.0,4.0,4.0,4.0,4.0,4.0,4.0,4.0,4.0,4.0,100.0,,,,,,,,,,,,,,,,,,,,,,,,,,,,,,,,,,,,,,,,,,,,,,,,,,,,,,,,0.0,0.0,1.0,0.0,2048.0,0.064255,,,,,,,,,,,,,,,,,,,,,,,,,,,,,,,,,,,,,,,,,,,,,,,,,,,,,,,,,,,,,,,,,,,,,,
1725717305.877274,1725717305.879113,253.0,0.0,4262.94873,4280.769043,4303.205078,4342.563965,4232.820313,4107.563965,4135.897461,4232.692383,4231.794922,4221.538574,4466.538574,4504.743652,4356.922852,4411.666504,3854.0,0.0,11.0,,,,0.0,4.0,4.0,4.0,4.0,4.0,4.0,4.0,4.0,4.0,4.0,4.0,4.0,4.0,4.0,100.0,,,,,,,,,,,,,,,,,,,,,,,,,,,,,,,,,,,,,,,,,,,,,,,,,,,,,,,,,,,,,,,,,,,,,,,,,,,,,,,,,,,,,,,,,,,,,,,,,,,,,,,,,,,,,,,,,,,,,,,,,,,,,,,,,,,
1725717305.881179,1725717305.883017,254.0,0.0,4264.358887,4282.05127,4305.641113,4346.410156,4232.563965,4108.205078,4135.769043,4234.615234,4237.05127,4228.077148,4472.563965,4504.871582,4359.487305,4412.307617,2882.0,0.0,11.0,,,,0.0,4.0,4.0,4.0,4.0,4.0,4.0,4.0,4.0,4.0,4.0,4.0,4.0,4.0,4.0,100.0,,,,,,,,,,,,,,,,,,,,,,,,,,,,,,,,,,,,,,,,,,,,,,,,,,,,,,,,,,,,,,,,,,,,,,,,,,,,,,,,,,,,,,,,,,,,,,,,,,,,,,,,,,,,,,,,,,,,,,,,,,,,,,,,,,,
1725717305.885083,1725717305.886921,255.0,0.0,4264.871582,4282.692383,4307.94873,4349.102539,4232.692383,4108.461426,4136.538574,4236.282227,4242.94873,4233.461426,4482.692383,4506.794922,4360.128418,4413.461426,11.0,0.0,11.0,,,,0.0,4.0,4.0,4.0,4.0,4.0,4.0,4.0,4.0,4.0,4.0,4.0,4.0,4.0,4.0,100.0,,,,,,,,,,,,,,,,,,,,,,,,,,,,,,,,,,,,,,,,,,,,,,,,,,,,,,,,,,,,,,,,,,,,,,,,,,,,,,,,,,,,,,,,,,,,,,,,,,,,,,,,,,,,,,,,,,,,,,,,,,,,,,,,,,,
1725717305.888987,1725717305.890725,0.0,0.0,4264.487305,4282.307617,4309.615234,4349.743652,4233.461426,4108.717773,4137.94873,4236.538574,4246.538574,4235.256348,4492.436035,4509.102539,4358.846191,4415.512695,2700.0,0.0,11.0,,,,0.0,4.0,4.0,4.0,4.0,4.0,4.0,4.0,4.0,4.0,4.0,4.0,4.0,4.0,4.0,100.0,,,,,,,,,,,,,,,,,,,,,,,,,,,,,,,,,,,,,,,,,,,,,,,,,,,,,,,,,,,,,,,,,,,,,,,,,,,,,,,,,,,,,,,,,,,,,,,,,,,,,,,,,,,,,,,,,,,,,,,,,,,,,,,,,,,
1725717305.892891,1725717305.894629,1.0,0.0,4263.974121,4281.153809,4310.384766,4348.589844,4234.230957,4108.974121,4139.102539,4236.025879,4246.922852,4234.615234,4497.692383,4510.128418,4357.307617,4418.589844,2581.0,0.0,11.0,,,,0.0,4.0,4.0,4.0,4.0,4.0,4.0,4.0,4.0,4.0,4.0,4.0,4.0,4.0,4.0,100.0,,,,,,,,,,,,,,,,,,,,,,,,,,,,,,,,,,,,,,,,,,,,,,,,,,,,,,,,,,,,,,,,,,,,,,,,,,,,,,,,,,,,,,,,,,,,,,,,,,,,,,,,,,,,,,,,,,,,,,,,,,,,,,,,,,,
1725717305.896795,1725717305.898533,2.0,0.0,4264.487305,4280.384766,4310.256348,4346.282227,4234.743652,4109.230957,4139.358887,4236.538574,4245.769043,4233.717773,4496.410156,4509.743652,4357.05127,4421.794922,2511.0,0.0,11.0,,,,0.0,4.0,4.0,4.0,4.0,4.0,4.0,4.0,4.0,4.0,4.0,4.0,4.0,4.0,4.0,100.0,,,,,,,,,,,,,,,,,,,,,,,,,,,,,,,,,,,,,,,,,,,,,,,,,,,,,,,,,,,,,,,,,,,,,,,,,,,,,,,,,,,,,,,,,,,,,,,,,,,,,,,,,,,,,,,,,,,,,,,,,,,,,,,,,,,
1725717305.900699,1725717305.902537,3.0,0.0,4265.769043,4281.666504,4309.615234,4343.589844,4234.615234,4109.230957,4138.461426,4239.102539,4245.128418,4234.230957,4488.589844,4509.358887,4358.589844,4423.205078,2458.0,0.0,11.0,,,,0.0,4.0,4.0,4.0,4.0,4.0,4.0,4.0,4.0,4.0,4.0,4.0,4.0,4.0,4.0,100.0,,,,,,,,,,,,,,,,,,,,,,,,,,,,,,,,,,,,,,,,,,,,,,,,,,,,,,,,,,,,,,,,,,,,,,,,,,,,,,,,,,,,,,,,,,,,,,,,,,,,,,,,,,,,,,,,,,,,,,,,,,,,,,,,,,,
1725717305.904603,1725717305.906441,4.0,0.0,4267.179688,4284.743652,4308.717773,4341.538574,4233.974121,4109.358887,4137.179688,4243.461426,4245.641113,4235.512695,4478.717773,4510.897461,4360.384766,4421.666504,2446.0,0.0,11.0,,,,0.0,4.0,4.0,4.0,4.0,4.0,4.0,4.0,4.0,4.0,4.0,4.0,4.0,4.0,4.0,100.0,,,,,,,,,,,,,,,,,,,,,,,,,,,,,,,,,,,,,,,,,,,,,,,,,,,,,,,,0.0,0.0,1.0,0.0,2048.0,0.064255,,,,,,,,,,,,,,,,,,,,,,,,,,,,,,,,,,,,,,,,,,,,,,,,,,,,,,,,,,,,,,,,,,,,,,
1725717305.908507,1725717305.910345,5.0,0.0,4267.563965,4288.333496,4308.205078,4340.384766,4233.077148,4109.487305,4136.153809,4247.436035,4246.538574,4236.410156,4473.589844,4514.358887,4361.025879,4418.461426,2393.0,0.0,11.0,,,,0.0,4.0,4.0,4.0,4.0,4.0,4.0,4.0,4.0,4.0,4.0,4.0,4.0,4.0,4.0,100.0,,,,,,,,,,,,,,,,,,,,,,,,,,,,,,,,,,,,,,,,,,,,,,,,,,,,,,,,,,,,,,,,,,,,,,,,,,,,,,,,,,,,,,,,,,,,,,,,,,,,,,,,,,,,,,,,,,,,,,,,,,,,,,,,,,,
1725717305.912411,1725717305.914249,6.0,0.0,4266.410156,4290.512695,4308.461426,4340.641113,4232.05127,4109.743652,4135.769043,4249.358887,4246.538574,4236.153809,4477.436035,4518.205078,4360.384766,4416.666504,2429.0,0.0,11.0,,,,0.0,4.0,4.0,4.0,4.0,4.0,4.0,4.0,4.0,4.0,4.0,4.0,4.0,4.0,4.0,100.0,,,,,,,,,,,,,,,,,,,,,,,,,,,,,,,,,,,,,,,,,,,,,,,,,,,,,,,,,,,,,,,,,,,,,,,,,,,,,,,,,,,,,,,,,,,,,,,,,,,,,,,,,,,,,,,,,,,,,,,,,,,,,,,,,,,
1725717305.916315,1725717305.918253,7.0,0.0,4264.615234,4289.871582,4309.230957,4341.794922,4231.153809,4110.256348,4135.769043,4248.846191,4245.128418,4235.256348,4487.05127,4520.769043,4359.230957,4417.820313,2486.0,0.0,11.0,,,,0.0,4.0,4.0,4.0,4.0,4.0,4.0,4.0,4.0,4.0,4.0,4.0,4.0,4.0,4.0,100.0,,,,,,,,,,,,,,,,,,,,,,,,,,,,,,,,,,,,,,,,,,,,,,,,,,,,,,,,,,,,,,,,,,,,,,,,,,,,,,,,,,,,,,,,,,,,,,,,,,,,,,,,,,,,,,,,,,,,,,,,,,,,,,,,,,,
1725717305.92022,1725717305.922158,8.0,0.0,4263.077148,4286.794922,4309.871582,4342.563965,4230.512695,4110.641113,4135.769043,4247.307617,4242.820313,4234.102539,4494.102539,4521.538574,4357.820313,4421.153809,2471.0,0.0,11.0,,,,0.0,4.0,4.0,4.0,4.0,4.0,4.0,4.0,4.0,4.0,4.0,4.0,4.0,4.0,4.0,100.0,,,,,,,,,,,,,,,,,,,,,,,,,,,,,,,,,,,,,,,,,,,,,,,,,,,,,,,,,,,,,,,,,,,,,,,,,,,,,,,,,,,,,,,,,,,,,,,,,,,,,,,,,,,,,,,,,,,,,,,,,,,,,,,,,,,
1725717305.924124,1725717305.926062,9.0,0.0,4262.94873,4283.589844,4309.615234,4342.179688,4229.871582,4110.128418,4135.512695,4245.897461,4240.641113,4233.461426,4492.307617,4520.641113,4356.410156,4424.230957,2555.0,0.0,11.0,,,,0.0,4.0,4.0,4.0,4.0,4.0,4.0,4.0,4.0,4.0,4.0,4.0,4.0,4.0,4.0,100.0,,,,,,,,,,,,,,,,,,,,,,,,,,,,,,,,,,,,,,,,,,,,,,,,,,,,,,,,,,,,,,,,,,,,,,,,,,,,,,,,,,,,,,,,,,,,,,,,,,,,,,,,,,,,,,,,,,,,,,,,,,,,,,,,,,,
1725717305.928028,1725717305.929966,10.0,0.0,4263.846191,4282.94873,4308.717773,4340.897461,4229.487305,4108.717773,4135.384766,4245.384766,4239.743652,4233.077148,4483.589844,4519.358887,4355.769043,4425.256348,2884.0,0.0,11.0,,,,0.0,4.0,4.0,4.0,4.0,4.0,4.0,4.0,4.0,4.0,4.0,4.0,4.0,4.0,4.0,100.0,,,,,,,,,,,,,,,,,,,,,,,,,,,,,,,,,,,,,,,,,,,,,,,,,,,,,,,,,,,,,,,,,,,,,,,,,,,,,,,,,,,,,,,,,,,,,,,,,,,,,,,,,,,,,,,,,,,,,,,,,,,,,,,,,,,
1725717305.931932,1725717305.93397,11.0,0.0,4265.128418,4286.025879,4307.692383,4340.384766,4229.615234,4107.307617,4135.512695,4245.769043,4240.769043,4232.692383,4475.641113,4518.461426,4356.794922,4423.846191,3121.0,0.0,11.0,,,,0.0,4.0,4.0,4.0,4.0,4.0,4.0,4.0,4.0,4.0,4.0,4.0,4.0,4.0,4.0,100.0,,,,,,,,,,,,,,,,,,,,,,,,,,,,,,,,,,,,,,,,,,,,,,,,,,,,,,,,,,,,,,,,,,,,,,,,,,,,,,,,,,,,,,,,,,,,,,,,,,,,,,,,,,,,,,,,,,,,,,,,,,,,,,,,,,,
1725717305.935836,1725717305.937874,12.0,0.0,4265.897461,4290.769043,4307.05127,4341.666504,4230.512695,4107.307617,4136.025879,4246.922852,4243.717773,4232.436035,4475.256348,4517.692383,4358.974121,4421.153809,3428.0,0.0,11.0,,,,0.0,4.0,4.0,4.0,4.0,4.0,4.0,4.0,4.0,4.0,4.0,4.0,4.0,4.0,4.0,100.0,,,,,,,,,,,,,,,,,,,,,,,,,,,,,,,,,,,,,,,,,,,,,,,,,,,,,,,,0.0,0.0,1.0,0.0,2048.0,0.064255,,,,,,,,,,,,,,,,,,,,,,,,,,,,,,,,,,,,,,,,,,,,,,,,,,,,,,,,,,,,,,,,,,,,,,
1725717305.93974,1725717305.941778,13.0,0.0,4266.025879,4292.179688,4306.922852,4343.717773,4231.153809,4109.487305,4136.282227,4248.333496,4246.922852,4232.563965,4482.05127,4516.282227,4359.743652,4418.589844,3854.0,0.0,11.0,,,,0.0,4.0,4.0,4.0,4.0,4.0,4.0,4.0,4.0,4.0,4.0,4.0,4.0,4.0,4.0,100.0,,,,,,,,,,,,,,,,,,,,,,,,,,,,,,,,,,,,,,,,,,,,,,,,,,,,,,,,,,,,,,,,,,,,,,,,,,,,,,,,,,,,,,,,,,,,,,,,,,,,,,,,,,,,,,,,,,,,,,,,,,,,,,,,,,,
1725717305.943644,1725717305.945682,14.0,0.0,4265.641113,4286.153809,4306.794922,4344.487305,4230.769043,4113.461426,4135.769043,4248.461426,4247.563965,4233.077148,4489.358887,4514.230957,4355.641113,4416.922852,2884.0,0.0,11.0,,,,0.0,4.0,4.0,4.0,4.0,4.0,4.0,4.0,4.0,4.0,4.0,4.0,4.0,4.0,4.0,100.0,,,,,,,,,,,,,,,,,,,,,,,,,,,,,,,,,,,,,,,,,,,,,,,,,,,,,,,,,,,,,,,,,,,,,,,,,,,,,,,,,,,,,,,,,,,,,,,,,,,,,,,,,,,,,,,,,,,,,,,,,,,,,,,,,,,
1725717305.947548,1725717305.949586,15.0,0.0,4264.871582,4272.436035,4306.282227,4342.692383,4229.871582,4117.692383,4135.0,4247.05127,4244.615234,4232.692383,4490.128418,4511.922852,4346.153809,4415.512695,3121.0,0.0,11.0,,,,0.0,4.0,4.0,4.0,4.0,4.0,4.0,4.0,4.0,4.0,4.0,4.0,4.0,4.0,4.0,100.0,,,,,,,,,,,,,,,,,,,,,,,,,,,,,,,,,,,,,,,,,,,,,,,,,,,,,,,,,,,,,,,,,,,,,,,,,,,,,,,,,,,,,,,,,,,,,,,,,,,,,,,,,,,,,,,,,,,,,,,,,,,,,,,,,,,
1725717305.951452,1725717305.95339,16.0,0.0,4263.717773,4255.512695,4305.641113,4339.487305,4229.487305,4120.897461,4135.512695,4244.358887,4239.230957,4231.153809,4482.692383,4509.615234,4335.0,4413.461426,3428.0,0.0,11.0,,,,0.0,4.0,4.0,4.0,4.0,4.0,4.0,4.0,4.0,4.0,4.0,4.0,4.0,4.0,4.0,100.0,,,,,,,,,,,,,,,,,,,,,,,,,,,,,,,,,,,,,,,,,,,,,,,,,,,,,,,,,,,,,,,,,,,,,,,,,,,,,,,,,,,,,,,,,,,,,,,,,,,,,,,,,,,,,,,,,,,,,,,,,,,,,,,,,,,
1725717305.955356,1725717305.957295,17.0,0.0,4262.692383,4240.897461,4305.256348,4336.666504,4230.256348,4122.179688,4138.589844,4242.179688,4234.871582,4229.230957,4472.179688,4507.692383,4328.717773,4411.025879,3854.0,0.0,11.0,,,,0.0,4.0,4.0,4.0,4.0,4.0,4.0,4.0,4.0,4.0,4.0,4.0,4.0,4.0,4.0,100.0,,,,,,,,,,,,,,,,,,,,,,,,,,,,,,,,,,,,,,,,,,,,,,,,,,,,,,,,,,,,,,,,,,,,,,,,,,,,,,,,,,,,,,,,,,,,,,,,,,,,,,,,,,,,,,,,,,,,,,,,,,,,,,,,,,,
1725717305.95926,1725717305.961199,18.0,0.0,4262.179688,4232.563965,4305.897461,4335.384766,4231.282227,4121.538574,4143.846191,4241.922852,4234.871582,4228.461426,4466.666504,4506.153809,4332.307617,4409.743652,2884.0,0.0,11.0,,,,0.0,4.0,4.0,4.0,4.0,4.0,4.0,4.0,4.0,4.0,4.0,4.0,4.0,4.0,4.0,100.0,,,,,,,,,,,,,,,,,,,,,,,,,,,,,,,,,,,,,,,,,,,,,,,,,,,,,,,,,,,,,,,,,,,,,,,,,,,,,,,,,,,,,,,,,,,,,,,,,,,,,,,,,,,,,,,,,,,,,,,,,,,,,,,,,,,
1725717305.963164,1725717305.965103,19.0,0.0,4262.05127,4230.128418,4307.436035,4335.769043,4230.769043,4120.128418,4149.358887,4243.846191,4239.487305,4229.615234,4470.256348,4505.256348,4344.615234,4410.384766,3121.0,0.0,11.0,,,,0.0,4.0,4.0,4.0,4.0,4.0,4.0,4.0,4.0,4.0,4.0,4.0,4.0,4.0,4.0,100.0,,,,,,,,,,,,,,,,,,,,,,,,,,,,,,,,,,,,,,,,,,,,,,,,,,,,,,,,,,,,,,,,,,,,,,,,,,,,,,,,,,,,,,,,,,,,,,,,,,,,,,,,,,,,,,,,,,,,,,,,,,,,,,,,,,,
1725717305.967069,1725717305.968907,20.0,0.0,4261.410156,4230.769043,4309.102539,4336.666504,4228.205078,4118.846191,4152.820313,4246.282227,4245.769043,4232.179688,4478.333496,4504.743652,4358.205078,4411.922852,3428.0,0.0,11.0,,,,0.0,4.0,4.0,4.0,4.0,4.0,4.0,4.0,4.0,4.0,4.0,4.0,4.0,4.0,4.0,100.0,,,,,,,,,,,,,,,,,1.0,0.0,0.0,,,,,,,,,,,,,,,,,,,,,,,,,,,,,,,,,,,,,0.0,0.0,1.0,0.0,2048.0,0.038372,1.837874,1.298966,0.401938,0.229835,0.076674,13.429366,2.448579,2.094549,0.924346,0.230958,1.402891,1.11311,0.481229,0.174878,0.054451,1.277848,1.125567,0.511182,0.231408,0.091141,0.848172,0.31219,0.496117,0.085096,0.095768,0.885552,0.506305,0.351848,0.072291,0.039662,2.266573,1.011233,0.621997,0.14019,0.056999,1.165186,1.133592,0.51315,0.208009,0.145807,1.319539,0.721165,0.708633,0.39643,0.171191,2.030756,1.291524,1.087376,0.365724,0.131654,3.041825,1.691386,0.777202,1.013758,0.633487,3.516572,1.962841,0.705868,0.359753,0.231097,3.364401,1.644299,1.272048,0.748493,0.411412,2.523664,1.574456,0.601384,0.317814,0.158303
1725717305.970973,1725717305.972811,21.0,0.0,4259.230957,4231.538574,4309.871582,4336.922852,4224.615234,4118.589844,4153.461426,4247.436035,4249.743652,4234.358887,4481.922852,4504.743652,4364.102539,4412.307617,3854.0,0.0,11.0,,,,0.0,4.0,4.0,4.0,4.0,4.0,4.0,4.0,4.0,4.0,4.0,4.0,4.0,4.0,4.0,100.0,,,,,,,,,,,,,,,,,,,,,,,,,,,,,,,,,,,,,,,,,,,,,,,,,,,,,,,,,,,,,,,,,,,,,,,,,,,,,,,,,,,,,,,,,,,,,,,,,,,,,,,,,,,,,,,,,,,,,,,,,,,,,,,,,,,
1725717305.974877,1725717305.976715,22.0,0.0,4255.256348,4231.025879,4309.487305,4336.025879,4222.05127,4119.743652,4152.179688,4246.666504,4248.974121,4234.615234,4476.666504,4505.0,4358.589844,4410.128418,2884.0,0.0,11.0,,,,0.0,4.0,4.0,4.0,4.0,4.0,4.0,4.0,4.0,4.0,4.0,4.0,4.0,4.0,4.0,100.0,,,,,,,,,,,,,,,,,,,,,,,,,,,,,,,,,,,,,,,,,,,,,,,,,,,,,,,,,,,,,,,,,,,,,,,,,,,,,,,,,,,,,,,,,,,,,,,,,,,,,,,,,,,,,,,,,,,,,,,,,,,,,,,,,,,
1725717305.978781,1725717305.980619,23.0,0.0,4251.025879,4229.743652,4308.461426,4334.487305,4222.563965,4121.794922,4151.153809,4245.641113,4245.128418,4233.077148,4468.461426,4505.256348,4346.153809,4406.410156,3121.0,0.0,11.0,,,,0.0,4.0,4.0,4.0,4.0,4.0,4.0,4.0,4.0,4.0,4.0,4.0,4.0,4.0,4.0,100.0,,,,,,,,,,,,,,,,,,,,,,,,,,,,,,,,,,,,,,,,,,,,,,,,,,,,,,,,,,,,,,,,,,,,,,,,,,,,,,,,,,,,,,,,,,,,,,,,,,,,,,,,,,,,,,,,,,,,,,,,,,,,,,,,,,,
1725717305.982685,1725717305.984423,24.0,0.0,4248.846191,4229.102539,4307.820313,4333.333496,4225.769043,4123.717773,4151.922852,4246.153809,4241.794922,4230.769043,4467.307617,4505.384766,4336.153809,4403.846191,3428.0,0.0,11.0,,,,0.0,4.0,4.0,4.0,4.0,4.0,4.0,4.0,4.0,4.0,4.0,4.0,4.0,4.0,4.0,100.0,,,,,,,,,,,,,,,,,,,,,,,,,,,,,,,,,,,,,,,,,,,,,,,,,,,,,,,,,,,,,,,,,,,,,,,,,,,,,,,,,,,,,,,,,,,,,,,,,,,,,,,,,,,,,,,,,,,,,,,,,,,,,,,,,,,
1725717305.986589,1725717305.988328,25.0,0.0,4250.256348,4229.615234,4308.077148,4332.94873,4229.871582,4125.128418,4153.846191,4248.333496,4241.282227,4229.358887,4476.538574,4505.512695,4335.256348,4404.487305,3854.0,0.0,11.0,,,,0.0,4.0,4.0,4.0,4.0,4.0,4.0,4.0,4.0,4.0,4.0,4.0,4.0,4.0,4.0,100.0,,,,,,,,,,,,,,,,,,,,,,,,,,,,,,,,,,,,,,,,,,,,,,,,,,,,,,,,,,,,,,,,,,,,,,,,,,,,,,,,,,,,,,,,,,,,,,,,,,,,,,,,,,,,,,,,,,,,,,,,,,,,,,,,,,,
1725717305.990493,1725717305.992232,26.0,0.0,4254.102539,4231.153809,4308.717773,4333.589844,4232.179688,4125.769043,4155.0,4250.128418,4242.94873,4229.102539,4488.461426,4506.538574,4342.307617,4408.077148,2884.0,0.0,11.0,,,,0.0,4.0,4.0,4.0,4.0,4.0,4.0,4.0,4.0,4.0,4.0,4.0,4.0,4.0,4.0,100.0,,,,,,,,,,,,,,,,,,,,,,,,,,,,,,,,,,,,,,,,,,,,,,,,,,,,,,,,,,,,,,,,,,,,,,,,,,,,,,,,,,,,,,,,,,,,,,,,,,,,,,,,,,,,,,,,,,,,,,,,,,,,,,,,,,,
1725717305.994397,1725717305.996036,27.0,0.0,4257.94873,4232.563965,4308.974121,4335.128418,4231.666504,4126.282227,4154.102539,4248.717773,4243.461426,4229.102539,4492.05127,4508.333496,4350.641113,4411.666504,3121.0,0.0,11.0,,,,0.0,4.0,4.0,4.0,4.0,4.0,4.0,4.0,4.0,4.0,4.0,4.0,4.0,4.0,4.0,100.0,,,,,,,,,,,,,,,,,,,,,,,,,,,,,,,,,,,,,,,,,,,,,,,,,,,,,,,,,,,,,,,,,,,,,,,,,,,,,,,,,,,,,,,,,,,,,,,,,,,,,,,,,,,,,,,,,,,,,,,,,,,,,,,,,,,
1725717305.998301,1725717305.99994,28.0,0.0,4259.871582,4232.94873,4308.589844,4337.05127,4229.358887,4127.563965,4152.05127,4243.589844,4241.025879,4228.974121,4482.94873,4510.0,4354.487305,4413.205078,3428.0,0.0,11.0,,,,0.0,4.0,4.0,4.0,4.0,4.0,4.0,4.0,4.0,4.0,4.0,4.0,4.0,4.0,4.0,100.0,,,,,,,,,,,,,,,,,,,,,,,,,,,,,,,,,,,,,,,,,,,,,,,,,,,,,,,,0.0,0.0,1.0,0.0,2048.0,0.038372,,,,,,,,,,,,,,,,,,,,,,,,,,,,,,,,,,,,,,,,,,,,,,,,,,,,,,,,,,,,,,,,,,,,,,
1725717306.002205,1725717306.003844,29.0,0.0,4259.615234,4232.820313,4308.589844,4338.846191,4227.179688,4130.128418,4151.538574,4237.05127,4236.538574,4228.974121,4467.563965,4510.769043,4353.717773,4412.820313,3854.0,0.0,11.0,,,,0.0,4.0,4.0,4.0,4.0,4.0,4.0,4.0,4.0,4.0,4.0,4.0,4.0,4.0,4.0,100.0,,,,,,,,,,,,,,,,,,,,,,,,,,,,,,,,,,,,,,,,,,,,,,,,,,,,,,,,,,,,,,,,,,,,,,,,,,,,,,,,,,,,,,,,,,,,,,,,,,,,,,,,,,,,,,,,,,,,,,,,,,,,,,,,,,,
1725717306.00611,1725717306.007848,30.0,0.0,4258.461426,4233.077148,4309.743652,4340.128418,4227.05127,4133.461426,4154.743652,4232.436035,4232.94873,4229.487305,4456.538574,4510.384766,4352.436035,4411.794922,2884.0,0.0,11.0,,,,0.0,4.0,4.0,4.0,4.0,4.0,4.0,4.0,4.0,4.0,4.0,4.0,4.0,4.0,4.0,100.0,,,,,,,,,,,,,,,,,,,,,,,,,,,,,,,,,,,,,,,,,,,,,,,,,,,,,,,,,,,,,,,,,,,,,,,,,,,,,,,,,,,,,,,,,,,,,,,,,,,,,,,,,,,,,,,,,,,,,,,,,,,,,,,,,,,
1725717306.010014,1725717306.011752,31.0,0.0,4257.436035,4234.102539,4311.282227,4340.512695,4228.974121,4136.025879,4161.153809,4231.538574,4231.922852,4230.384766,4455.897461,4508.846191,4353.333496,4411.025879,3121.0,0.0,11.0,,,,0.0,4.0,4.0,4.0,4.0,4.0,4.0,4.0,4.0,4.0,4.0,4.0,4.0,4.0,4.0,100.0,,,,,,,,,,,,,,,,,,,,,,,,,,,,,,,,,,,,,,,,,,,,,,,,,,,,,,,,,,,,,,,,,,,,,,,,,,,,,,,,,,,,,,,,,,,,,,,,,,,,,,,,,,,,,,,,,,,,,,,,,,,,,,,,,,,
1725717306.013918,1725717306.015656,32.0,0.0,4257.436035,4235.0,4311.538574,4339.871582,4231.794922,4136.538574,4167.820313,4233.461426,4232.820313,4230.256348,4464.871582,4507.05127,4354.871582,4411.025879,0.0,0.0,11.0,,,,0.0,4.0,4.0,4.0,4.0,4.0,4.0,4.0,4.0,4.0,4.0,4.0,4.0,4.0,4.0,100.0,,,,,,,,,,,,,,,,,,,,,,,,,,,,,,,,,,,,,,,,,,,,,,,,,,,,,,,,,,,,,,,,,,,,,,,,,,,,,,,,,,,,,,,,,,,,,,,,,,,,,,,,,,,,,,,,,,,,,,,,,,,,,,,,,,,
1725717306.017822,1725717306.01956,33.0,0.0,4258.205078,4235.256348,4309.743652,4338.077148,4233.717773,4134.358887,4171.282227,4235.384766,4233.205078,4228.717773,4476.538574,4506.025879,4353.333496,4411.666504,0.0,0.0,11.0,,,,0.0,4.0,4.0,4.0,4.0,4.0,4.0,4.0,4.0,4.0,4.0,4.0,4.0,4.0,4.0,100.0,,,,,,,,,,,,,,,,,,,,,,,,,,,,,,,,,,,,,,,,,,,,,,,,,,,,,,,,,,,,,,,,,,,,,,,,,,,,,,,,,,,,,,,,,,,,,,,,,,,,,,,,,,,,,,,,,,,,,,,,,,,,,,,,,,,
1725717306.021726,1725717306.023564,34.0,0.0,4259.358887,4235.0,4306.666504,4336.282227,4233.974121,4130.897461,4170.769043,4235.897461,4232.179688,4226.922852,4483.846191,4506.153809,4346.922852,4412.05127,0.0,0.0,11.0,,,,0.0,4.0,4.0,4.0,4.0,4.0,4.0,4.0,4.0,4.0,4.0,4.0,4.0,4.0,4.0,100.0,,,,,,,,,,,,,,,,,,,,,,,,,,,,,,,,,,,,,,,,,,,,,,,,,,,,,,,,,,,,,,,,,,,,,,,,,,,,,,,,,,,,,,,,,,,,,,,,,,,,,,,,,,,,,,,,,,,,,,,,,,,,,,,,,,,
1725717306.02563,1725717306.027468,35.0,0.0,4260.256348,4235.128418,4304.487305,4335.897461,4233.205078,4128.333496,4167.820313,4235.0,4230.384766,4226.922852,4483.589844,4507.05127,4339.615234,4411.410156,0.0,0.0,11.0,,,,0.0,4.0,4.0,4.0,4.0,4.0,4.0,4.0,4.0,4.0,4.0,4.0,4.0,4.0,4.0,100.0,,,,,,,,,,,,,,,,,,,,,,,,,,,,,,,,,,,,,,,,,,,,,,,,,,,,,,,,,,,,,,,,,,,,,,,,,,,,,,,,,,,,,,,,,,,,,,,,,,,,,,,,,,,,,,,,,,,,,,,,,,,,,,,,,,,
1725717306.029534,1725717306.031373,36.0,0.0,4261.025879,4236.538574,4304.358887,4336.922852,4232.179688,4127.94873,4165.512695,4233.717773,4229.487305,4228.974121,4478.846191,4507.820313,4337.692383,4410.256348,0.0,0.0,11.0,,,,0.0,4.0,4.0,4.0,4.0,4.0,4.0,4.0,4.0,4.0,4.0,4.0,4.0,4.0,4.0,100.0,,,,,,,,,,,,,,,,,,,,,,,,,,,,,,,,,,,,,,,,,,,,,,,,,,,,,,,,0.0,0.0,1.0,0.0,2048.0,0.038372,,,,,,,,,,,,,,,,,,,,,,,,,,,,,,,,,,,,,,,,,,,,,,,,,,,,,,,,,,,,,,,,,,,,,,
1725717306.033438,1725717306.035277,37.0,0.0,4262.05127,4239.615234,4306.153809,4338.077148,4231.410156,4128.974121,4165.384766,4232.94873,4230.384766,4231.153809,4475.384766,4508.077148,4344.871582,4410.256348,0.0,0.0,11.0,,,,0.0,4.0,4.0,4.0,4.0,4.0,4.0,4.0,4.0,4.0,4.0,4.0,4.0,4.0,4.0,100.0,,,,,,,,,,,,,,,,,,,,,,,,,,,,,,,,,,,,,,,,,,,,,,,,,,,,,,,,,,,,,,,,,,,,,,,,,,,,,,,,,,,,,,,,,,,,,,,,,,,,,,,,,,,,,,,,,,,,,,,,,,,,,,,,,,,
1725717306.037342,1725717306.039281,38.0,0.0,4262.94873,4243.589844,4308.974121,4338.205078,4231.025879,4130.0,4167.179688,4232.820313,4232.307617,4230.897461,4477.179688,4508.077148,4358.077148,4413.077148,0.0,0.0,11.0,,,,0.0,4.0,4.0,4.0,4.0,4.0,4.0,4.0,4.0,4.0,4.0,4.0,4.0,4.0,4.0,100.0,,,,,,,,,,,,,,,,,,,,,,,,,,,,,,,,,,,,,,,,,,,,,,,,,,,,,,,,,,,,,,,,,,,,,,,,,,,,,,,,,,,,,,,,,,,,,,,,,,,,,,,,,,,,,,,,,,,,,,,,,,,,,,,,,,,
1725717306.041247,1725717306.043185,39.0,0.0,4263.077148,4247.307617,4311.282227,4337.563965,4231.282227,4130.0,4169.487305,4233.077148,4233.974121,4228.077148,4482.563965,4508.333496,4369.743652,4417.820313,0.0,0.0,11.0,,,,0.0,4.0,4.0,4.0,4.0,4.0,4.0,4.0,4.0,4.0,4.0,4.0,4.0,4.0,4.0,100.0,,,,,,,,,,,,,,,,,,,,,,,,,,,,,,,,,,,,,,,,,,,,,,,,,,,,,,,,,,,,,,,,,,,,,,,,,,,,,,,,,,,,,,,,,,,,,,,,,,,,,,,,,,,,,,,,,,,,,,,,,,,,,,,,,,,
1725717306.045151,1725717306.047089,40.0,0.0,4262.179688,4249.743652,4312.179688,4337.179688,4232.436035,4128.974121,4170.897461,4233.205078,4234.102539,4224.487305,4486.282227,4508.846191,4373.077148,4422.692383,0.0,0.0,11.0,,,,0.0,4.0,4.0,4.0,4.0,4.0,4.0,4.0,4.0,4.0,4.0,4.0,4.0,4.0,4.0,100.0,,,,,,,,,,,,,,,,,,,,,,,,,,,,,,,,,,,,,,,,,,,,,,,,,,,,,,,,,,,,,,,,,,,,,,,,,,,,,,,,,,,,,,,,,,,,,,,,,,,,,,,,,,,,,,,,,,,,,,,,,,,,,,,,,,,
1725717306.049055,1725717306.050993,41.0,0.0,4260.769043,4250.384766,4311.538574,4338.205078,4233.846191,4127.179688,4170.769043,4233.589844,4232.820313,4222.94873,4485.0,4509.487305,4367.563965,4425.384766,0.0,0.0,11.0,,,,0.0,4.0,4.0,4.0,4.0,4.0,4.0,4.0,4.0,4.0,4.0,4.0,4.0,4.0,4.0,100.0,,,,,,,,,,,,,,,,,,,,,,,,,,,,,,,,,,,,,,,,,,,,,,,,,,,,,,,,,,,,,,,,,,,,,,,,,,,,,,,,,,,,,,,,,,,,,,,,,,,,,,,,,,,,,,,,,,,,,,,,,,,,,,,,,,,
1725717306.052959,1725717306.054897,42.0,0.0,4260.512695,4249.615234,4310.256348,4340.128418,4234.358887,4125.512695,4169.743652,4234.615234,4231.410156,4224.871582,4480.256348,4510.0,4359.102539,4425.256348,0.0,0.0,11.0,,,,0.0,4.0,4.0,4.0,4.0,4.0,4.0,4.0,4.0,4.0,4.0,4.0,4.0,4.0,4.0,100.0,,,,,,,,,,,,,,,,,,,,,,,,,,,,,,,,,,,,,,,,,,,,,,,,,,,,,,,,,,,,,,,,,,,,,,,,,,,,,,,,,,,,,,,,,,,,,,,,,,,,,,,,,,,,,,,,,,,,,,,,,,,,,,,,,,,
1725717306.056863,1725717306.058701,43.0,0.0,4261.410156,4248.461426,4309.871582,4341.666504,4233.589844,4125.0,4168.717773,4235.897461,4230.769043,4229.102539,4476.025879,4510.128418,4354.743652,4422.820313,0.0,0.0,11.0,,,,0.0,4.0,4.0,4.0,4.0,4.0,4.0,4.0,4.0,4.0,4.0,4.0,4.0,4.0,4.0,100.0,,,,,,,,,,,,,,,,,,,,,,,,,,,,,,,,,,,,,,,,,,,,,,,,,,,,,,,,,,,,,,,,,,,,,,,,,,,,,,,,,,,,,,,,,,,,,,,,,,,,,,,,,,,,,,,,,,,,,,,,,,,,,,,,,,,
1725717306.060767,1725717306.062605,44.0,0.0,4262.563965,4248.077148,4310.641113,4341.282227,4232.563965,4125.641113,4168.333496,4235.769043,4231.794922,4233.333496,4474.230957,4509.358887,4356.794922,4419.358887,0.0,0.0,11.0,,,,0.0,4.0,4.0,4.0,4.0,4.0,4.0,4.0,4.0,4.0,4.0,4.0,4.0,4.0,4.0,100.0,,,,,,,,,,,,,,,,,,,,,,,,,,,,,,,,,,,,,,,,,,,,,,,,,,,,,,,,0.0,0.0,1.0,0.0,2048.0,0.038372,,,,,,,,,,,,,,,,,,,,,,,,,,,,,,,,,,,,,,,,,,,,,,,,,,,,,,,,,,,,,,,,,,,,,,
1725717306.064671,1725717306.06651,45.0,0.0,4262.307617,4248.589844,4311.666504,4338.846191,4232.307617,4127.179688,4168.846191,4233.589844,4233.589844,4235.384766,4474.615234,4507.692383,4361.538574,4415.769043,0.0,0.0,11.0,,,,0.0,4.0,4.0,4.0,4.0,4.0,4.0,4.0,4.0,4.0,4.0,4.0,4.0,4.0,4.0,100.0,,,,,,,,,,,,,,,,,,,,,,,,,,,,,,,,,,,,,,,,,,,,,,,,,,,,,,,,,,,,,,,,,,,,,,,,,,,,,,,,,,,,,,,,,,,,,,,,,,,,,,,,,,,,,,,,,,,,,,,,,,,,,,,,,,,
1725717306.068575,1725717306.070414,46.0,0.0,4259.871582,4249.487305,4311.282227,4335.256348,4233.461426,4128.846191,4169.615234,4230.897461,4235.0,4234.358887,4476.666504,4505.641113,4363.333496,4412.94873,0.0,0.0,11.0,,,,0.0,4.0,4.0,4.0,4.0,4.0,4.0,4.0,4.0,4.0,4.0,4.0,4.0,4.0,4.0,100.0,,,,,,,,,,,,,,,,,,,,,,,,,,,,,,,,,,,,,,,,,,,,,,,,,,,,,,,,,,,,,,,,,,,,,,,,,,,,,,,,,,,,,,,,,,,,,,,,,,,,,,,,,,,,,,,,,,,,,,,,,,,,,,,,,,,
1725717306.072479,1725717306.074218,47.0,0.0,4256.025879,4250.384766,4309.102539,4331.666504,4234.871582,4130.128418,4170.0,4230.256348,4234.487305,4230.512695,4480.0,4504.358887,4358.717773,4410.512695,0.0,0.0,11.0,,,,0.0,4.0,4.0,4.0,4.0,4.0,4.0,4.0,4.0,4.0,4.0,4.0,4.0,4.0,4.0,100.0,,,,,,,,,,,,,,,,,,,,,,,,,,,,,,,,,,,,,,,,,,,,,,,,,,,,,,,,,,,,,,,,,,,,,,,,,,,,,,,,,,,,,,,,,,,,,,,,,,,,,,,,,,,,,,,,,,,,,,,,,,,,,,,,,,,
1725717306.076383,1725717306.078122,48.0,0.0,4252.436035,4251.025879,4305.512695,4328.589844,4234.230957,4130.641113,4169.487305,4233.205078,4232.436035,4225.384766,4482.820313,4504.358887,4349.615234,4408.461426,0.0,0.0,11.0,,,,0.0,4.0,4.0,4.0,4.0,4.0,4.0,4.0,4.0,4.0,4.0,4.0,4.0,4.0,4.0,100.0,,,,,,,,,,,,,,,,,,,,,,,,,,,,,,,,,,,,,,,,,,,,,,,,,,,,,,,,,,,,,,,,,,,,,,,,,,,,,,,,,,,,,,,,,,,,,,,,,,,,,,,,,,,,,,,,,,,,,,,,,,,,,,,,,,,
1725717306.080288,1725717306.082026,49.0,0.0,4250.128418,4251.666504,4301.666504,4326.282227,4230.0,4130.384766,4166.922852,4238.205078,4230.384766,4220.512695,4482.436035,4505.256348,4341.666504,4406.282227,0.0,0.0,11.0,,,,0.0,4.0,4.0,4.0,4.0,4.0,4.0,4.0,4.0,4.0,4.0,4.0,4.0,4.0,4.0,100.0,,,,,,,,,,,,,,,,,,,,,,,,,,,,,,,,,,,,,,,,,,,,,,,,,,,,,,,,,,,,,,,,,,,,,,,,,,,,,,,,,,,,,,,,,,,,,,,,,,,,,,,,,,,,,,,,,,,,,,,,,,,,,,,,,,,
1725717306.084192,1725717306.08593,50.0,0.0,4249.230957,4252.179688,4298.717773,4325.256348,4223.333496,4129.487305,4162.436035,4241.922852,4230.128418,4217.179688,4477.307617,4505.641113,4339.230957,4404.102539,0.0,0.0,11.0,,,,0.0,4.0,4.0,4.0,4.0,4.0,4.0,4.0,4.0,4.0,4.0,4.0,4.0,4.0,4.0,100.0,,,,,,,,,,,,,,,,,,,,,,,,,,,,,,,,,,,,,,,,,,,,,,,,,,,,,,,,,,,,,,,,,,,,,,,,,,,,,,,,,,,,,,,,,,,,,,,,,,,,,,,,,,,,,,,,,,,,,,,,,,,,,,,,,,,
1725717306.088096,1725717306.089734,51.0,0.0,4249.230957,4252.179688,4297.563965,4326.153809,4217.820313,4128.717773,4157.05127,4242.307617,4231.666504,4215.897461,4468.974121,4504.615234,4341.922852,4402.692383,0.0,0.0,11.0,,,,0.0,4.0,4.0,4.0,4.0,4.0,4.0,4.0,4.0,4.0,4.0,4.0,4.0,4.0,4.0,100.0,,,,,,,,,,,,,,,,,,,,,,,,,,,,,,,,,,,,,,,,,,,,,,,,,,,,,,,,,,,,,,,,,,,,,,,,,,,,,,,,,,,,,,,,,,,,,,,,,,,,,,,,,,,,,,,,,,,,,,,,,,,,,,,,,,,
1725717306.092,1725717306.093638,52.0,0.0,4249.230957,4251.666504,4298.077148,4328.717773,4216.666504,4128.589844,4152.820313,4239.358887,4232.820313,4215.641113,4460.897461,4501.666504,4345.128418,4401.922852,0.0,0.0,11.0,,,,0.0,4.0,4.0,4.0,4.0,4.0,4.0,4.0,4.0,4.0,4.0,4.0,4.0,4.0,4.0,100.0,1.0,91.666664,4.0,4.0,4.0,4.0,4.0,4.0,3.0,4.0,4.0,4.0,4.0,4.0,4.0,4.0,1.0,0.0,0.0,1.0,0.327113,-9.363041,-12.223529,-4.404587,1.0,0.768319,-0.229723,-1.03853,0.044189,1.0,0.34786,3.57985,2.183601,6.196592,0.373936,1.0,0.410013,20.553807,-766.891626,1076.303424,1.0,0.256279,0.116037,0.081359,0.235057,1.0,0.488165,3.183041,-11.911439,19.132923,1.0,0.472577,0.472577,0.0,1.0,0.0,0.0,1.0,0.0,2048.0,0.013284,1.749207,1.016033,0.46581,0.256346,0.073827,11.35404,2.069695,1.934471,0.760473,0.211323,1.378983,1.044914,0.537928,0.19822,0.057143,1.360604,0.975416,0.576599,0.248895,0.091654,0.951512,0.24807,0.51024,0.086009,0.10084,1.267497,0.692573,0.445696,0.079348,0.045128,2.053631,0.775318,0.727155,0.128569,0.057355,1.08228,1.028471,0.512878,0.227076,0.138756,1.194535,0.770008,0.779858,0.423307,0.170179,2.041211,1.33116,1.30202,0.413484,0.148345,2.975139,1.543091,0.933117,1.124048,0.715411,3.274058,1.78452,0.690371,0.374836,0.225615,3.493047,1.633959,1.472042,0.749865,0.429758,2.252797,1.301276,0.660821,0.342341,0.171258
1725717306.095904,1725717306.097543,53.0,0.0,4248.846191,4250.641113,4299.230957,4331.794922,4220.256348,4129.487305,4151.025879,4235.0,4231.025879,4215.256348,4456.153809,4497.563965,4344.615234,4401.025879,0.0,0.0,11.0,,,,0.0,4.0,4.0,4.0,4.0,4.0,4.0,4.0,4.0,4.0,4.0,4.0,4.0,4.0,4.0,100.0,,,,,,,,,,,,,,,,,,,,,,,,,,,,,,,,,,,,,,,,,,,,,,,,,,,,,,,,,,,,,,,,,,,,,,,,,,,,,,,,,,,,,,,,,,,,,,,,,,,,,,,,,,,,,,,,,,,,,,,,,,,,,,,,,,,
1725717306.099808,1725717306.101347,54.0,0.0,4247.692383,4249.487305,4298.974121,4333.461426,4225.641113,4131.410156,4151.282227,4230.641113,4225.384766,4213.974121,4455.256348,4492.94873,4339.615234,4398.461426,0.0,0.0,11.0,,,,0.0,4.0,4.0,4.0,4.0,4.0,4.0,4.0,4.0,4.0,4.0,4.0,4.0,4.0,4.0,100.0,,,,,,,,,,,,,,,,,,,,,,,,,,,,,,,,,,,,,,,,,,,,,,,,,,,,,,,,,,,,,,,,,,,,,,,,,,,,,,,,,,,,,,,,,,,,,,,,,,,,,,,,,,,,,,,,,,,,,,,,,,,,,,,,,,,
1725717306.103712,1725717306.105251,55.0,0.0,4246.282227,4248.333496,4296.922852,4332.820313,4228.589844,4133.461426,4152.179688,4227.436035,4218.333496,4212.436035,4456.538574,4488.461426,4333.461426,4394.743652,0.0,0.0,11.0,,,,0.0,4.0,4.0,4.0,4.0,4.0,4.0,4.0,4.0,4.0,4.0,4.0,4.0,4.0,4.0,100.0,,,,,,,,,,,,,,,,,,,,,,,,,,,,,,,,,,,,,,,,,,,,,,,,,,,,,,,,,,,,,,,,,,,,,,,,,,,,,,,,,,,,,,,,,,,,,,,,,,,,,,,,,,,,,,,,,,,,,,,,,,,,,,,,,,,
1725717306.107616,1725717306.109155,56.0,0.0,4245.641113,4247.436035,4294.230957,4330.128418,4227.05127,4135.0,4152.563965,4226.025879,4213.846191,4211.666504,4458.205078,4485.769043,4330.128418,4392.05127,0.0,0.0,11.0,,,,0.0,4.0,4.0,4.0,4.0,4.0,4.0,4.0,4.0,4.0,4.0,4.0,4.0,4.0,4.0,100.0,,,,,,,,,,,,,,,,,,,,,,,,,,,,,,,,,,,,,,,,,,,,,,,,,,,,,,,,,,,,,,,,,,,,,,,,,,,,,,,,,,,,,,,,,,,,,,,,,,,,,,,,,,,,,,,,,,,,,,,,,,,,,,,,,,,
1725717306.11152,1725717306.113159,57.0,0.0,4246.282227,4247.307617,4293.333496,4326.794922,4222.307617,4135.512695,4152.179688,4227.436035,4214.615234,4212.436035,4460.769043,4486.666504,4331.666504,4392.94873,0.0,0.0,11.0,,,,0.0,4.0,4.0,4.0,4.0,4.0,4.0,4.0,4.0,4.0,4.0,4.0,4.0,4.0,4.0,100.0,,,,,,,,,,,,,,,,,,,,,,,,,,,,,,,,,,,,,,,,,,,,,,,,,,,,,,,,,,,,,,,,,,,,,,,,,,,,,,,,,,,,,,,,,,,,,,,,,,,,,,,,,,,,,,,,,,,,,,,,,,,,,,,,,,,
1725717306.115424,1725717306.117063,58.0,0.0,4248.205078,4248.205078,4295.512695,4324.743652,4217.94873,4135.384766,4151.410156,4231.666504,4220.128418,4214.615234,4465.769043,4491.410156,4337.563965,4398.077148,0.0,0.0,11.0,,,,0.0,4.0,4.0,4.0,4.0,4.0,4.0,4.0,4.0,4.0,4.0,4.0,4.0,4.0,4.0,100.0,,,,,,,,,,,,,,,,,,,,,,,,,,,,,,,,,,,,,,,,,,,,,,,,,,,,,,,,,,,,,,,,,,,,,,,,,,,,,,,,,,,,,,,,,,,,,,,,,,,,,,,,,,,,,,,,,,,,,,,,,,,,,,,,,,,
1725717306.119328,1725717306.120967,59.0,0.0,4250.256348,4250.128418,4299.871582,4324.743652,4217.05127,4135.256348,4150.512695,4237.563965,4226.922852,4217.307617,4473.974121,4498.333496,4345.128418,4405.128418,0.0,0.0,11.0,,,,0.0,4.0,4.0,4.0,4.0,4.0,4.0,4.0,4.0,4.0,4.0,4.0,4.0,4.0,4.0,100.0,,,,,,,,,,,,,,,,,,,,,,,,,,,,,,,,,,,,,,,,,,,,,,,,,,,,,,,,,,,,,,,,,,,,,,,,,,,,,,,,,,,,,,,,,,,,,,,,,,,,,,,,,,,,,,,,,,,,,,,,,,,,,,,,,,,
1725717306.123232,1725717306.124871,60.0,0.0,4251.538574,4252.692383,4303.974121,4325.897461,4220.641113,4135.641113,4149.358887,4243.205078,4231.410156,4219.102539,4483.333496,4504.230957,4351.794922,4411.282227,0.0,0.0,11.0,,,,0.0,4.0,4.0,4.0,4.0,4.0,4.0,4.0,4.0,4.0,4.0,4.0,4.0,4.0,4.0,100.0,,,,,,,,,,,,,,,,,,,,,,,,,,,,,,,,,,,,,,,,,,,,,,,,,,,,,,,,0.0,0.0,1.0,0.0,2048.0,0.013284,,,,,,,,,,,,,,,,,,,,,,,,,,,,,,,,,,,,,,,,,,,,,,,,,,,,,,,,,,,,,,,,,,,,,,
1725717306.127137,1725717306.128875,61.0,0.0,4251.794922,4255.128418,4305.641113,4326.922852,4226.922852,4137.179688,4147.436035,4246.538574,4232.179688,4219.871582,4489.615234,4506.666504,4355.769043,4414.230957,0.0,0.0,11.0,,,,0.0,4.0,4.0,4.0,4.0,4.0,4.0,4.0,4.0,4.0,4.0,4.0,4.0,4.0,4.0,100.0,,,,,,,,,,,,,,,,,,,,,,,,,,,,,,,,,,,,,,,,,,,,,,,,,,,,,,,,,,,,,,,,,,,,,,,,,,,,,,,,,,,,,,,,,,,,,,,,,,,,,,,,,,,,,,,,,,,,,,,,,,,,,,,,,,,
1725717306.131041,1725717306.132779,62.0,0.0,4251.282227,4257.05127,4305.0,4327.436035,4232.307617,4139.358887,4145.128418,4246.666504,4231.025879,4221.025879,4489.487305,4505.512695,4357.436035,4413.461426,0.0,0.0,11.0,,,,0.0,4.0,4.0,4.0,4.0,4.0,4.0,4.0,4.0,4.0,4.0,4.0,4.0,4.0,4.0,100.0,,,,,,,,,,,,,,,,,,,,,,,,,,,,,,,,,,,,,,,,,,,,,,,,,,,,,,,,,,,,,,,,,,,,,,,,,,,,,,,,,,,,,,,,,,,,,,,,,,,,,,,,,,,,,,,,,,,,,,,,,,,,,,,,,,,
1725717306.134945,1725717306.136684,63.0,0.0,4250.512695,4258.589844,4303.461426,4327.563965,4233.717773,4140.897461,4142.820313,4244.487305,4230.512695,4224.230957,4483.333496,4503.205078,4357.436035,4410.512695,0.0,0.0,11.0,,,,0.0,4.0,4.0,4.0,4.0,4.0,4.0,4.0,4.0,4.0,4.0,4.0,4.0,4.0,4.0,100.0,,,,,,,,,,,,,,,,,,,,,,,,,,,,,,,,,,,,,,,,,,,,,,,,,,,,,,,,,,,,,,,,,,,,,,,,,,,,,,,,,,,,,,,,,,,,,,,,,,,,,,,,,,,,,,,,,,,,,,,,,,,,,,,,,,,
1725717306.138849,1725717306.140588,64.0,0.0,4249.487305,4260.0,4302.179688,4327.307617,4231.153809,4141.025879,4140.641113,4242.307617,4231.922852,4229.230957,4475.256348,4502.179688,4356.025879,4407.692383,0.0,0.0,11.0,,,,0.0,4.0,4.0,4.0,4.0,4.0,4.0,4.0,4.0,4.0,4.0,4.0,4.0,4.0,4.0,100.0,,,,,,,,,,,,,,,,,,,,,,,,,,,,,,,,,,,,,,,,,,,,,,,,,,,,,,,,,,,,,,,,,,,,,,,,,,,,,,,,,,,,,,,,,,,,,,,,,,,,,,,,,,,,,,,,,,,,,,,,,,,,,,,,,,,
1725717306.142753,1725717306.144592,65.0,0.0,4248.846191,4261.666504,4301.538574,4327.05127,4226.794922,4139.871582,4138.461426,4242.692383,4234.615234,4233.333496,4471.794922,4503.333496,4354.102539,4407.563965,0.0,0.0,11.0,,,,0.0,4.0,4.0,4.0,4.0,4.0,4.0,4.0,4.0,4.0,4.0,4.0,4.0,4.0,4.0,100.0,,,,,,,,,,,,,,,,,,,,,,,,,,,,,,,,,,,,,,,,,,,,,,,,,,,,,,,,,,,,,,,,,,,,,,,,,,,,,,,,,,,,,,,,,,,,,,,,,,,,,,,,,,,,,,,,,,,,,,,,,,,,,,,,,,,
1725717306.146657,1725717306.148496,66.0,0.0,4248.846191,4263.717773,4301.794922,4326.794922,4223.717773,4139.358887,4137.05127,4245.641113,4236.666504,4234.615234,4476.922852,4505.769043,4353.077148,4410.641113,0.0,0.0,11.0,,,,0.0,4.0,4.0,4.0,4.0,4.0,4.0,4.0,4.0,4.0,4.0,4.0,4.0,4.0,4.0,100.0,,,,,,,,,,,,,,,,,,,,,,,,,,,,,,,,,,,,,,,,,,,,,,,,,,,,,,,,,,,,,,,,,,,,,,,,,,,,,,,,,,,,,,,,,,,,,,,,,,,,,,,,,,,,,,,,,,,,,,,,,,,,,,,,,,,
1725717306.150561,1725717306.1524,67.0,0.0,4249.743652,4266.410156,4303.205078,4326.794922,4223.717773,4140.897461,4136.922852,4248.846191,4237.179688,4233.205078,4488.333496,4507.692383,4354.102539,4415.512695,0.0,0.0,11.0,,,,0.0,4.0,4.0,4.0,4.0,4.0,4.0,4.0,4.0,4.0,4.0,4.0,4.0,4.0,4.0,100.0,,,,,,,,,,,,,,,,,,,,,,,,,,,,,,,,,,,,,,,,,,,,,,,,,,,,,,,,,,,,,,,,,,,,,,,,,,,,,,,,,,,,,,,,,,,,,,,,,,,,,,,,,,,,,,,,,,,,,,,,,,,,,,,,,,,
1725717306.154465,1725717306.156304,68.0,0.0,4251.410156,4268.589844,4305.256348,4327.436035,4226.538574,4145.0,4137.820313,4250.0,4236.794922,4231.153809,4498.205078,4508.974121,4357.307617,4419.487305,0.0,0.0,11.0,,,,0.0,4.0,4.0,4.0,4.0,4.0,4.0,4.0,4.0,4.0,4.0,4.0,4.0,4.0,4.0,100.0,,,,,,,,,,,,,,,,,,,,,,,,,,,,,,,,,,,,,,,,,,,,,,,,,,,,,,,,0.0,0.0,1.0,0.0,2048.0,0.013284,,,,,,,,,,,,,,,,,,,,,,,,,,,,,,,,,,,,,,,,,,,,,,,,,,,,,,,,,,,,,,,,,,,,,,
1725717306.158369,1725717306.160208,69.0,0.0,4253.974121,4268.846191,4307.563965,4328.974121,4230.641113,4150.0,4138.333496,4249.102539,4236.666504,4230.641113,4499.230957,4510.256348,4360.641113,4420.0,0.0,0.0,11.0,,,,0.0,4.0,4.0,4.0,4.0,4.0,4.0,4.0,4.0,4.0,4.0,4.0,4.0,4.0,4.0,100.0,,,,,,,,,,,,,,,,,,,,,,,,,,,,,,,,,,,,,,,,,,,,,,,,,,,,,,,,,,,,,,,,,,,,,,,,,,,,,,,,,,,,,,,,,,,,,,,,,,,,,,,,,,,,,,,,,,,,,,,,,,,,,,,,,,,
1725717306.162274,1725717306.164012,70.0,0.0,4256.794922,4267.307617,4309.615234,4331.666504,4234.230957,4153.205078,4137.436035,4248.205078,4237.05127,4231.794922,4490.0,4512.94873,4360.641113,4417.307617,0.0,0.0,11.0,,,,0.0,4.0,4.0,4.0,4.0,4.0,4.0,4.0,4.0,4.0,4.0,4.0,4.0,4.0,4.0,100.0,,,,,,,,,,,,,,,,,,,,,,,,,,,,,,,,,,,,,,,,,,,,,,,,,,,,,,,,,,,,,,,,,,,,,,,,,,,,,,,,,,,,,,,,,,,,,,,,,,,,,,,,,,,,,,,,,,,,,,,,,,,,,,,,,,,
1725717306.166178,1725717306.167916,71.0,0.0,4259.487305,4265.384766,4311.410156,4335.128418,4235.769043,4153.846191,4134.871582,4248.589844,4237.307617,4233.333496,4476.666504,4517.436035,4355.897461,4413.846191,0.0,0.0,11.0,,,,0.0,4.0,4.0,4.0,4.0,4.0,4.0,4.0,4.0,4.0,4.0,4.0,4.0,4.0,4.0,100.0,,,,,,,,,,,,,,,,,,,,,,,,,,,,,,,,,,,,,,,,,,,,,,,,,,,,,,,,,,,,,,,,,,,,,,,,,,,,,,,,,,,,,,,,,,,,,,,,,,,,,,,,,,,,,,,,,,,,,,,,,,,,,,,,,,,
1725717306.170082,1725717306.17182,72.0,0.0,4261.538574,4265.384766,4312.563965,4338.717773,4235.128418,4152.436035,4131.666504,4250.128418,4236.794922,4233.589844,4468.589844,4522.820313,4348.974121,4413.461426,0.0,0.0,11.0,,,,0.0,4.0,4.0,4.0,4.0,4.0,4.0,4.0,4.0,4.0,4.0,4.0,4.0,4.0,4.0,100.0,,,,,,,,,,,,,,,,,,,,,,,,,,,,,,,,,,,,,,,,,,,,,,,,,,,,,,,,,,,,,,,,,,,,,,,,,,,,,,,,,,,,,,,,,,,,,,,,,,,,,,,,,,,,,,,,,,,,,,,,,,,,,,,,,,,
1725717306.173986,1725717306.175725,73.0,0.0,4263.077148,4267.692383,4312.94873,4341.538574,4233.333496,4150.512695,4129.487305,4251.282227,4235.641113,4232.692383,4471.666504,4526.922852,4344.743652,4417.94873,0.0,0.0,11.0,,,,0.0,4.0,4.0,4.0,4.0,4.0,4.0,4.0,4.0,4.0,4.0,4.0,4.0,4.0,4.0,100.0,,,,,,,,,,,,,,,,,,,,,,,,,,,,,,,,,,,,,,,,,,,,,,,,,,,,,,,,,,,,,,,,,,,,,,,,,,,,,,,,,,,,,,,,,,,,,,,,,,,,,,,,,,,,,,,,,,,,,,,,,,,,,,,,,,,
1725717306.17789,1725717306.179529,74.0,0.0,4264.358887,4270.512695,4312.820313,4343.461426,4231.922852,4149.743652,4129.487305,4251.282227,4234.871582,4232.05127,4484.743652,4528.205078,4346.794922,4425.512695,0.0,0.0,11.0,,,,0.0,4.0,4.0,4.0,4.0,4.0,4.0,4.0,4.0,4.0,4.0,4.0,4.0,4.0,4.0,100.0,,,,,,,,,,,,,,,,,,,,,,,,,,,,,,,,,,,,,,,,,,,,,,,,,,,,,,,,,,,,,,,,,,,,,,,,,,,,,,,,,,,,,,,,,,,,,,,,,,,,,,,,,,,,,,,,,,,,,,,,,,,,,,,,,,,
1725717306.181794,1725717306.183433,75.0,0.0,4265.641113,4271.538574,4313.205078,4344.358887,4232.05127,4150.256348,4131.282227,4250.128418,4235.128418,4233.077148,4499.487305,4526.794922,4353.846191,4432.05127,0.0,0.0,11.0,,,,0.0,4.0,4.0,4.0,4.0,4.0,4.0,4.0,4.0,4.0,4.0,4.0,4.0,4.0,4.0,100.0,,,,,,,,,,,,,,,,,,,,,,,,,,,,,,,,,,,,,,,,,,,,,,,,,,,,,,,,,,,,,,,,,,,,,,,,,,,,,,,,,,,,,,,,,,,,,,,,,,,,,,,,,,,,,,,,,,,,,,,,,,,,,,,,,,,
1725717306.185698,1725717306.187337,76.0,0.0,4266.538574,4270.128418,4313.974121,4344.230957,4233.333496,4151.538574,4133.077148,4248.974121,4236.025879,4235.641113,4507.05127,4524.743652,4361.538574,4433.461426,0.0,0.0,11.0,,,,0.0,4.0,4.0,4.0,4.0,4.0,4.0,4.0,4.0,4.0,4.0,4.0,4.0,4.0,4.0,100.0,,,,,,,,,,,,,,,,,,,,,,,,,,,,,,,,,,,,,,,,,,,,,,,,,,,,,,,,0.0,0.0,1.0,0.0,2048.0,0.013284,,,,,,,,,,,,,,,,,,,,,,,,,,,,,,,,,,,,,,,,,,,,,,,,,,,,,,,,,,,,,,,,,,,,,,
1725717306.189602,1725717306.191141,77.0,0.0,4266.538574,4268.461426,4314.230957,4343.077148,4234.102539,4152.820313,4132.820313,4248.461426,4236.538574,4237.94873,4504.102539,4523.846191,4367.05127,4429.358887,0.0,0.0,11.0,,,,0.0,4.0,4.0,4.0,4.0,4.0,4.0,4.0,4.0,4.0,4.0,4.0,4.0,4.0,4.0,100.0,,,,,,,,,,,,,,,,,,,,,,,,,,,,,,,,,,,,,,,,,,,,,,,,,,,,,,,,,,,,,,,,,,,,,,,,,,,,,,,,,,,,,,,,,,,,,,,,,,,,,,,,,,,,,,,,,,,,,,,,,,,,,,,,,,,
1725717306.193506,1725717306.195045,78.0,0.0,4265.769043,4269.487305,4313.846191,4341.153809,4233.333496,4153.589844,4129.743652,4249.230957,4236.025879,4238.717773,4494.615234,4524.358887,4369.743652,4423.205078,0.0,0.0,11.0,,,,0.0,4.0,4.0,4.0,4.0,4.0,4.0,4.0,4.0,4.0,4.0,4.0,4.0,4.0,4.0,100.0,,,,,,,,,,,,,,,,,,,,,,,,,,,,,,,,,,,,,,,,,,,,,,,,,,,,,,,,,,,,,,,,,,,,,,,,,,,,,,,,,,,,,,,,,,,,,,,,,,,,,,,,,,,,,,,,,,,,,,,,,,,,,,,,,,,
1725717306.19741,1725717306.198949,79.0,0.0,4264.487305,4273.333496,4313.333496,4338.974121,4231.922852,4153.846191,4125.512695,4250.512695,4235.0,4238.205078,4486.666504,4525.128418,4370.769043,4419.487305,0.0,0.0,11.0,,,,0.0,4.0,4.0,4.0,4.0,4.0,4.0,4.0,4.0,4.0,4.0,4.0,4.0,4.0,4.0,100.0,,,,,,,,,,,,,,,,,,,,,,,,,,,,,,,,,,,,,,,,,,,,,,,,,,,,,,,,,,,,,,,,,,,,,,,,,,,,,,,,,,,,,,,,,,,,,,,,,,,,,,,,,,,,,,,,,,,,,,,,,,,,,,,,,,,
1725717306.201315,1725717306.202853,80.0,0.0,4263.846191,4278.077148,4313.461426,4337.179688,4231.538574,4153.717773,4122.563965,4251.282227,4234.487305,4237.820313,4485.128418,4525.0,4370.256348,4420.641113,0.0,0.0,11.0,,,,0.0,4.0,4.0,4.0,4.0,4.0,4.0,4.0,4.0,4.0,4.0,4.0,4.0,4.0,4.0,100.0,,,,,,,,,,,,,,,,,,,,,,,,,,,,,,,,,,,,,,,,,,,,,,,,,,,,,,,,,,,,,,,,,,,,,,,,,,,,,,,,,,,,,,,,,,,,,,,,,,,,,,,,,,,,,,,,,,,,,,,,,,,,,,,,,,,
1725717306.205219,1725717306.206658,81.0,0.0,4263.974121,4280.256348,4313.846191,4335.256348,4232.307617,4153.461426,4121.794922,4249.871582,4234.358887,4237.563965,4489.487305,4522.820313,4367.563965,4424.743652,0.0,0.0,11.0,,,,0.0,4.0,4.0,4.0,4.0,4.0,4.0,4.0,4.0,4.0,4.0,4.0,4.0,4.0,4.0,100.0,,,,,,,,,,,,,,,,,,,,,,,,,,,,,,,,,,,,,,,,,,,,,,,,,,,,,,,,,,,,,,,,,,,,,,,,,,,,,,,,,,,,,,,,,,,,,,,,,,,,,,,,,,,,,,,,,,,,,,,,,,,,,,,,,,,
1725717306.209123,1725717306.210562,82.0,0.0,4264.487305,4278.461426,4313.077148,4332.307617,4232.307617,4153.333496,4122.436035,4245.512695,4233.974121,4235.512695,4494.230957,4518.717773,4363.333496,4427.307617,0.0,0.0,11.0,,,,0.0,4.0,4.0,4.0,4.0,4.0,4.0,4.0,4.0,4.0,4.0,4.0,4.0,4.0,4.0,100.0,,,,,,,,,,,,,,,,,,,,,,,,,,,,,,,,,,,,,,,,,,,,,,,,,,,,,,,,,,,,,,,,,,,,,,,,,,,,,,,,,,,,,,,,,,,,,,,,,,,,,,,,,,,,,,,,,,,,,,,,,,,,,,,,,,,
1725717306.213027,1725717306.214466,83.0,0.0,4263.589844,4273.974121,4310.128418,4327.820313,4230.384766,4153.205078,4121.922852,4239.487305,4231.794922,4229.743652,4493.589844,4513.205078,4358.717773,4425.256348,0.0,0.0,11.0,,,,0.0,4.0,4.0,4.0,4.0,4.0,4.0,4.0,4.0,4.0,4.0,4.0,4.0,4.0,4.0,100.0,,,,,,,,,,,,,,,,,,,,,,,,,,,,,,,,,,,,,,,,,,,,,,,,,,,,,,,,,,,,,,,,,,,,,,,,,,,,,,,,,,,,,,,,,,,,,,,,,,,,,,,,,,,,,,,,,,,,,,,,,,,,,,,,,,,
1725717306.216931,1725717306.21847,84.0,0.0,4259.871582,4268.846191,4304.871582,4322.563965,4226.794922,4152.94873,4118.974121,4234.102539,4226.922852,4220.256348,4485.897461,4506.410156,4353.717773,4417.94873,0.0,0.0,11.0,,,,0.0,4.0,4.0,4.0,4.0,4.0,4.0,4.0,4.0,4.0,4.0,4.0,4.0,4.0,4.0,100.0,,,,,,,,,,,,,,,,,1.0,0.0,0.0,,,,,,,,,,,,,,,,,,,,,,,,,,,,,,,,,,,,,0.0,0.0,1.0,0.0,2048.0,0.007504,1.680177,0.865088,0.497608,0.2695,0.069541,8.814711,1.6706,1.618186,0.573264,0.179874,1.372854,1.088392,0.566822,0.215689,0.058909,1.435017,0.933709,0.616303,0.259723,0.092932,0.972,0.208364,0.498244,0.084376,0.101814,1.663049,0.915244,0.538581,0.090689,0.05073,1.879603,0.593553,0.784252,0.117525,0.055499,1.011155,0.927253,0.519656,0.235485,0.138211,1.111603,0.828088,0.818089,0.426465,0.160695,2.051051,1.399801,1.406772,0.445657,0.163777,2.933293,1.516218,1.015826,1.188147,0.775672,3.038213,1.765818,0.694063,0.376053,0.222237,3.528201,1.676875,1.52672,0.717115,0.440767,2.045154,1.178297,0.693618,0.350899,0.175048
1725717306.220835,1725717306.222374,85.0,0.0,4253.205078,4264.487305,4298.205078,4317.820313,4222.94873,4152.307617,4114.230957,4231.282227,4220.384766,4209.358887,4473.974121,4498.974121,4346.666504,4407.436035,0.0,0.0,11.0,,,,0.0,4.0,4.0,4.0,4.0,4.0,4.0,4.0,4.0,4.0,4.0,4.0,4.0,4.0,4.0,100.0,,,,,,,,,,,,,,,,,,,,,,,,,,,,,,,,,,,,,,,,,,,,,,,,,,,,,,,,,,,,,,,,,,,,,,,,,,,,,,,,,,,,,,,,,,,,,,,,,,,,,,,,,,,,,,,,,,,,,,,,,,,,,,,,,,,
1725717306.224739,1725717306.226278,86.0,0.0,4244.871582,4259.743652,4291.666504,4313.974121,4219.487305,4151.153809,4109.230957,4230.897461,4214.102539,4200.384766,4461.794922,4491.538574,4335.0,4396.153809,0.0,0.0,11.0,,,,0.0,4.0,4.0,4.0,4.0,4.0,4.0,4.0,4.0,4.0,4.0,4.0,4.0,4.0,4.0,100.0,,,,,,,,,,,,,,,,,,,,,,,,,,,,,,,,,,,,,,,,,,,,,,,,,,,,,,,,,,,,,,,,,,,,,,,,,,,,,,,,,,,,,,,,,,,,,,,,,,,,,,,,,,,,,,,,,,,,,,,,,,,,,,,,,,,
1725717306.228643,1725717306.230182,87.0,0.0,4236.410156,4252.436035,4286.410156,4309.871582,4216.282227,4149.615234,4104.743652,4231.153809,4209.743652,4195.0,4451.666504,4484.487305,4318.205078,4385.384766,0.0,0.0,11.0,,,,0.0,4.0,4.0,4.0,4.0,4.0,4.0,4.0,4.0,4.0,4.0,4.0,4.0,4.0,4.0,100.0,,,,,,,,,,,,,,,,,,,,,,,,,,,,,,,,,,,,,,,,,,,,,,,,,,,,,,,,,,,,,,,,,,,,,,,,,,,,,,,,,,,,,,,,,,,,,,,,,,,,,,,,,,,,,,,,,,,,,,,,,,,,,,,,,,,
1725717306.232547,1725717306.234186,88.0,0.0,4229.358887,4242.179688,4282.179688,4305.0,4212.436035,4147.94873,4100.384766,4230.769043,4208.333496,4193.589844,4443.974121,4477.436035,4300.256348,4375.641113,0.0,0.0,11.0,,,,0.0,4.0,4.0,4.0,4.0,4.0,4.0,4.0,4.0,4.0,4.0,4.0,4.0,4.0,4.0,100.0,,,,,,,,,,,,,,,,,,,,,,,,,,,,,,,,,,,,,,,,,,,,,,,,,,,,,,,,,,,,,,,,,,,,,,,,,,,,,,,,,,,,,,,,,,,,,,,,,,,,,,,,,,,,,,,,,,,,,,,,,,,,,,,,,,,
1725717306.236452,1725717306.23809,89.0,0.0,4224.615234,4232.05127,4279.102539,4300.256348,4208.205078,4146.794922,4096.282227,4230.384766,4210.128418,4194.871582,4439.358887,4471.538574,4288.717773,4368.589844,0.0,0.0,11.0,,,,0.0,4.0,4.0,4.0,4.0,4.0,4.0,4.0,4.0,4.0,4.0,4.0,4.0,4.0,4.0,100.0,,,,,,,,,,,,,,,,,,,,,,,,,,,,,,,,,,,,,,,,,,,,,,,,,,,,,,,,,,,,,,,,,,,,,,,,,,,,,,,,,,,,,,,,,,,,,,,,,,,,,,,,,,,,,,,,,,,,,,,,,,,,,,,,,,,
1725717306.240356,1725717306.241994,90.0,0.0,4223.205078,4227.179688,4277.563965,4298.205078,4205.256348,4146.922852,4093.974365,4232.05127,4215.256348,4197.820313,4439.487305,4469.743652,4289.743652,4366.922852,0.0,0.0,11.0,,,,0.0,4.0,4.0,4.0,4.0,4.0,4.0,4.0,4.0,4.0,4.0,4.0,4.0,4.0,4.0,100.0,,,,,,,,,,,,,,,,,,,,,,,,,,,,,,,,,,,,,,,,,,,,,,,,,,,,,,,,,,,,,,,,,,,,,,,,,,,,,,,,,,,,,,,,,,,,,,,,,,,,,,,,,,,,,,,,,,,,,,,,,,,,,,,,,,,
1725717306.24426,1725717306.245899,91.0,0.0,4225.641113,4231.410156,4278.974121,4300.897461,4205.897461,4148.974121,4094.615479,4237.563965,4223.333496,4202.436035,4444.871582,4475.641113,4303.333496,4372.94873,0.0,0.0,11.0,,,,0.0,4.0,4.0,4.0,4.0,4.0,4.0,4.0,4.0,4.0,4.0,4.0,4.0,4.0,4.0,100.0,,,,,,,,,,,,,,,,,,,,,,,,,,,,,,,,,,,,,,,,,,,,,,,,,,,,,,,,,,,,,,,,,,,,,,,,,,,,,,,,,,,,,,,,,,,,,,,,,,,,,,,,,,,,,,,,,,,,,,,,,,,,,,,,,,,
1725717306.248164,1725717306.249903,92.0,0.0,4231.922852,4242.94873,4284.102539,4308.717773,4211.025879,4153.461426,4098.461426,4245.769043,4233.333496,4210.128418,4453.589844,4490.0,4323.717773,4386.282227,0.0,0.0,11.0,,,,0.0,4.0,4.0,4.0,4.0,4.0,4.0,4.0,4.0,4.0,4.0,4.0,4.0,4.0,4.0,100.0,,,,,,,,,,,,,,,,,,,,,,,,,,,,,,,,,,,,,,,,,,,,,,,,,,,,,,,,0.0,0.0,1.0,0.0,2048.0,0.007504,,,,,,,,,,,,,,,,,,,,,,,,,,,,,,,,,,,,,,,,,,,,,,,,,,,,,,,,,,,,,,,,,,,,,,
1725717306.252068,1725717306.253807,93.0,0.0,4240.769043,4256.282227,4291.922852,4318.974121,4219.487305,4159.358887,4103.974121,4253.461426,4242.820313,4221.025879,4462.436035,4508.846191,4343.077148,4402.94873,0.0,0.0,11.0,,,,0.0,4.0,4.0,4.0,4.0,4.0,4.0,4.0,4.0,4.0,4.0,4.0,4.0,4.0,4.0,100.0,,,,,,,,,,,,,,,,,,,,,,,,,,,,,,,,,,,,,,,,,,,,,,,,,,,,,,,,,,,,,,,,,,,,,,,,,,,,,,,,,,,,,,,,,,,,,,,,,,,,,,,,,,,,,,,,,,,,,,,,,,,,,,,,,,,
1725717306.255972,1725717306.257711,94.0,0.0,4250.0,4265.384766,4300.384766,4327.436035,4228.333496,4165.0,4109.230957,4257.05127,4249.230957,4233.077148,4468.974121,4524.615234,4356.025879,4417.563965,0.0,0.0,11.0,,,,0.0,4.0,4.0,4.0,4.0,4.0,4.0,4.0,4.0,4.0,4.0,4.0,4.0,4.0,4.0,100.0,,,,,,,,,,,,,,,,,,,,,,,,,,,,,,,,,,,,,,,,,,,,,,,,,,,,,,,,,,,,,,,,,,,,,,,,,,,,,,,,,,,,,,,,,,,,,,,,,,,,,,,,,,,,,,,,,,,,,,,,,,,,,,,,,,,
1725717306.259876,1725717306.261615,95.0,0.0,4257.179688,4268.333496,4306.922852,4331.410156,4234.102539,4168.846191,4112.307617,4255.384766,4251.538574,4242.94873,4473.846191,4531.666504,4361.666504,4426.282227,0.0,0.0,11.0,,,,0.0,4.0,4.0,4.0,4.0,4.0,4.0,4.0,4.0,4.0,4.0,4.0,4.0,4.0,4.0,100.0,,,,,,,,,,,,,,,,,,,,,,,,,,,,,,,,,,,,,,,,,,,,,,,,,,,,,,,,,,,,,,,,,,,,,,,,,,,,,,,,,,,,,,,,,,,,,,,,,,,,,,,,,,,,,,,,,,,,,,,,,,,,,,,,,,,
1725717306.26378,1725717306.265519,96.0,0.0,4261.282227,4266.794922,4310.128418,4330.384766,4235.256348,4170.0,4112.563965,4251.025879,4250.641113,4247.692383,4479.358887,4529.871582,4362.820313,4428.974121,0.0,0.0,11.0,,,,0.0,4.0,4.0,4.0,4.0,4.0,4.0,4.0,4.0,4.0,4.0,4.0,4.0,4.0,4.0,100.0,,,,,,,,,,,,,,,,,,,,,,,,,,,,,,,,,,,,,,,,,,,,,,,,,,,,,,,,,,,,,,,,,,,,,,,,,,,,,,,,,,,,,,,,,,,,,,,,,,,,,,,,,,,,,,,,,,,,,,,,,,,,,,,,,,,
1725717306.267684,1725717306.269323,97.0,0.0,4262.563965,4264.871582,4310.641113,4326.666504,4232.820313,4168.589844,4110.641113,4247.692383,4248.589844,4246.794922,4486.922852,4524.358887,4362.436035,4428.461426,0.0,0.0,11.0,,,,0.0,4.0,4.0,4.0,4.0,4.0,4.0,4.0,4.0,4.0,4.0,4.0,4.0,4.0,4.0,100.0,,,,,,,,,,,,,,,,,,,,,,,,,,,,,,,,,,,,,,,,,,,,,,,,,,,,,,,,,,,,,,,,,,,,,,,,,,,,,,,,,,,,,,,,,,,,,,,,,,,,,,,,,,,,,,,,,,,,,,,,,,,,,,,,,,,
1725717306.271588,1725717306.273227,98.0,0.0,4262.563965,4265.256348,4310.0,4323.974121,4230.128418,4166.922852,4108.461426,4246.794922,4246.922852,4242.307617,4495.128418,4521.025879,4362.307617,4427.563965,0.0,0.0,11.0,,,,0.0,4.0,4.0,4.0,4.0,4.0,4.0,4.0,4.0,4.0,4.0,4.0,4.0,4.0,4.0,100.0,,,,,,,,,,,,,,,,,,,,,,,,,,,,,,,,,,,,,,,,,,,,,,,,,,,,,,,,,,,,,,,,,,,,,,,,,,,,,,,,,,,,,,,,,,,,,,,,,,,,,,,,,,,,,,,,,,,,,,,,,,,,,,,,,,,
1725717306.275493,1725717306.277131,99.0,0.0,4262.692383,4268.333496,4310.0,4324.102539,4229.615234,4166.794922,4107.563965,4246.922852,4245.769043,4236.922852,4500.384766,4521.922852,4361.922852,4427.563965,0.0,0.0,11.0,,,,0.0,4.0,4.0,4.0,4.0,4.0,4.0,4.0,4.0,4.0,4.0,4.0,4.0,4.0,4.0,100.0,,,,,,,,,,,,,,,,,,,,,,,,,,,,,,,,,,,,,,,,,,,,,,,,,,,,,,,,,,,,,,,,,,,,,,,,,,,,,,,,,,,,,,,,,,,,,,,,,,,,,,,,,,,,,,,,,,,,,,,,,,,,,,,,,,,
1725717306.279396,1725717306.281035,100.0,0.0,4263.205078,4272.94873,4310.512695,4326.410156,4231.282227,4168.333496,4107.692383,4245.256348,4244.230957,4233.333496,4499.230957,4525.128418,4361.282227,4427.563965,0.0,0.0,11.0,,,,0.0,4.0,4.0,4.0,4.0,4.0,4.0,4.0,4.0,4.0,4.0,4.0,4.0,4.0,4.0,100.0,,,,,,,,,,,,,,,,,,,,,,,,,,,,,,,,,,,,,,,,,,,,,,,,,,,,,,,,0.0,0.0,1.0,0.0,2048.0,0.007504,,,,,,,,,,,,,,,,,,,,,,,,,,,,,,,,,,,,,,,,,,,,,,,,,,,,,,,,,,,,,,,,,,,,,,
1725717306.283301,1725717306.28484,101.0,0.0,4263.717773,4276.666504,4310.897461,4327.820313,4232.563965,4169.487305,4107.94873,4240.769043,4241.538574,4232.820313,4491.794922,4526.025879,4361.410156,4426.794922,0.0,0.0,11.0,,,,0.0,4.0,4.0,4.0,4.0,4.0,4.0,4.0,4.0,4.0,4.0,4.0,4.0,4.0,4.0,100.0,,,,,,,,,,,,,,,,,,,,,,,,,,,,,,,,,,,,,,,,,,,,,,,,,,,,,,,,,,,,,,,,,,,,,,,,,,,,,,,,,,,,,,,,,,,,,,,,,,,,,,,,,,,,,,,,,,,,,,,,,,,,,,,,,,,
1725717306.287205,1725717306.288744,102.0,0.0,4263.461426,4278.333496,4310.256348,4326.922852,4231.922852,4168.333496,4106.794922,4235.256348,4237.94873,4235.512695,4481.922852,4521.410156,4363.717773,4424.358887,0.0,0.0,11.0,,,,0.0,4.0,4.0,4.0,4.0,4.0,4.0,4.0,4.0,4.0,4.0,4.0,4.0,4.0,4.0,100.0,,,,,,,,,,,,,,,,,,,,,,,,,,,,,,,,,,,,,,,,,,,,,,,,,,,,,,,,,,,,,,,,,,,,,,,,,,,,,,,,,,,,,,,,,,,,,,,,,,,,,,,,,,,,,,,,,,,,,,,,,,,,,,,,,,,
1725717306.291109,1725717306.292648,103.0,0.0,4262.307617,4278.077148,4308.333496,4325.0,4229.358887,4164.743652,4104.358887,4231.410156,4234.743652,4240.256348,4474.615234,4512.692383,4367.436035,4421.025879,0.0,0.0,11.0,,,,0.0,4.0,4.0,4.0,4.0,4.0,4.0,4.0,4.0,4.0,4.0,4.0,4.0,4.0,4.0,100.0,,,,,,,,,,,,,,,,,,,,,,,,,,,,,,,,,,,,,,,,,,,,,,,,,,,,,,,,,,,,,,,,,,,,,,,,,,,,,,,,,,,,,,,,,,,,,,,,,,,,,,,,,,,,,,,,,,,,,,,,,,,,,,,,,,,
1725717306.295013,1725717306.296452,104.0,0.0,4260.512695,4277.307617,4306.025879,4324.487305,4226.794922,4160.641113,4101.153809,4230.256348,4233.205078,4244.230957,4473.077148,4504.615234,4370.384766,4417.820313,0.0,0.0,11.0,,,,0.0,4.0,4.0,4.0,4.0,4.0,4.0,4.0,4.0,4.0,4.0,4.0,4.0,4.0,4.0,100.0,,,,,,,,,,,,,,,,,,,,,,,,,,,,,,,,,,,,,,,,,,,,,,,,,,,,,,,,,,,,,,,,,,,,,,,,,,,,,,,,,,,,,,,,,,,,,,,,,,,,,,,,,,,,,,,,,,,,,,,,,,,,,,,,,,,
1725717306.298917,1725717306.300356,105.0,0.0,4258.589844,4277.563965,4304.102539,4326.410156,4225.256348,4158.974121,4098.461426,4231.538574,4233.333496,4245.0,4476.153809,4501.538574,4370.512695,4415.641113,0.0,0.0,11.0,,,,0.0,4.0,4.0,4.0,4.0,4.0,4.0,4.0,4.0,4.0,4.0,4.0,4.0,4.0,4.0,100.0,,,,,,,,,,,,,,,,,,,,,,,,,,,,,,,,,,,,,,,,,,,,,,,,,,,,,,,,,,,,,,,,,,,,,,,,,,,,,,,,,,,,,,,,,,,,,,,,,,,,,,,,,,,,,,,,,,,,,,,,,,,,,,,,,,,
1725717306.302821,1725717306.30426,106.0,0.0,4257.307617,4278.974121,4303.205078,4330.0,4225.384766,4160.897461,4096.538574,4233.077148,4233.974121,4241.794922,4480.0,4503.589844,4367.436035,4414.358887,0.0,0.0,11.0,,,,0.0,4.0,4.0,4.0,4.0,4.0,4.0,4.0,4.0,4.0,4.0,4.0,4.0,4.0,4.0,100.0,,,,,,,,,,,,,,,,,,,,,,,,,,,,,,,,,,,,,,,,,,,,,,,,,,,,,,,,,,,,,,,,,,,,,,,,,,,,,,,,,,,,,,,,,,,,,,,,,,,,,,,,,,,,,,,,,,,,,,,,,,,,,,,,,,,
1725717306.306725,1725717306.308164,107.0,0.0,4256.794922,4280.512695,4303.974121,4333.846191,4226.666504,4164.871582,4095.256348,4233.717773,4233.974121,4236.666504,4482.179688,4507.179688,4362.692383,4413.077148,0.0,0.0,11.0,,,,0.0,4.0,4.0,4.0,4.0,4.0,4.0,4.0,4.0,4.0,4.0,4.0,4.0,4.0,4.0,100.0,,,,,,,,,,,,,,,,,,,,,,,,,,,,,,,,,,,,,,,,,,,,,,,,,,,,,,,,,,,,,,,,,,,,,,,,,,,,,,,,,,,,,,,,,,,,,,,,,,,,,,,,,,,,,,,,,,,,,,,,,,,,,,,,,,,
1725717306.310629,1725717306.311969,108.0,0.0,4257.563965,4280.897461,4305.641113,4336.153809,4228.205078,4167.692383,4094.615479,4233.205078,4233.333496,4233.077148,4483.333496,4508.589844,4359.102539,4412.307617,0.0,0.0,11.0,,,,0.0,4.0,4.0,4.0,4.0,4.0,4.0,4.0,4.0,4.0,4.0,4.0,4.0,4.0,4.0,100.0,,,,,,,,,,,,,,,,,,,,,,,,,,,,,,,,,,,,,,,,,,,,,,,,,,,,,,,,0.0,0.0,1.0,0.0,2048.0,0.007504,,,,,,,,,,,,,,,,,,,,,,,,,,,,,,,,,,,,,,,,,,,,,,,,,,,,,,,,,,,,,,,,,,,,,,
1725717306.314533,1725717306.315873,109.0,0.0,4259.871582,4280.0,4307.692383,4336.410156,4229.102539,4167.436035,4094.487061,4232.692383,4232.820313,4232.94873,4486.025879,4508.589844,4358.205078,4413.205078,0.0,0.0,11.0,,,,0.0,4.0,4.0,4.0,4.0,4.0,4.0,4.0,4.0,4.0,4.0,4.0,4.0,4.0,4.0,100.0,,,,,,,,,,,,,,,,,,,,,,,,,,,,,,,,,,,,,,,,,,,,,,,,,,,,,,,,,,,,,,,,,,,,,,,,,,,,,,,,,,,,,,,,,,,,,,,,,,,,,,,,,,,,,,,,,,,,,,,,,,,,,,,,,,,
1725717306.318437,1725717306.319777,110.0,0.0,4263.077148,4279.102539,4309.230957,4335.384766,4229.358887,4165.0,4094.487061,4233.205078,4233.077148,4235.128418,4490.641113,4510.384766,4360.128418,4416.282227,0.0,0.0,11.0,,,,0.0,4.0,4.0,4.0,4.0,4.0,4.0,4.0,4.0,4.0,4.0,4.0,4.0,4.0,4.0,100.0,,,,,,,,,,,,,,,,,,,,,,,,,,,,,,,,,,,,,,,,,,,,,,,,,,,,,,,,,,,,,,,,,,,,,,,,,,,,,,,,,,,,,,,,,,,,,,,,,,,,,,,,,,,,,,,,,,,,,,,,,,,,,,,,,,,
1725717306.322342,1725717306.323781,111.0,0.0,4265.512695,4279.230957,4310.128418,4334.743652,4229.102539,4162.94873,4093.846191,4234.615234,4233.846191,4236.922852,4494.871582,4515.769043,4362.692383,4420.256348,0.0,0.0,11.0,,,,0.0,4.0,4.0,4.0,4.0,4.0,4.0,4.0,4.0,4.0,4.0,4.0,4.0,4.0,4.0,100.0,,,,,,,,,,,,,,,,,,,,,,,,,,,,,,,,,,,,,,,,,,,,,,,,,,,,,,,,,,,,,,,,,,,,,,,,,,,,,,,,,,,,,,,,,,,,,,,,,,,,,,,,,,,,,,,,,,,,,,,,,,,,,,,,,,,
1725717306.326246,1725717306.327685,112.0,0.0,4265.769043,4280.897461,4310.512695,4335.256348,4229.102539,4163.077148,4092.179443,4235.897461,4234.230957,4236.153809,4496.025879,4521.666504,4364.230957,4422.563965,0.0,0.0,11.0,,,,0.0,4.0,4.0,4.0,4.0,4.0,4.0,4.0,4.0,4.0,4.0,4.0,4.0,4.0,4.0,100.0,,,,,,,,,,,,,,,,,,,,,,,,,,,,,,,,,,,,,,,,,,,,,,,,,,,,,,,,,,,,,,,,,,,,,,,,,,,,,,,,,,,,,,,,,,,,,,,,,,,,,,,,,,,,,,,,,,,,,,,,,,,,,,,,,,,
1725717306.33015,1725717306.331589,113.0,0.0,4264.102539,4282.820313,4310.256348,4336.282227,4229.487305,4165.256348,4089.615479,4235.897461,4233.717773,4232.820313,4493.333496,4522.94873,4364.102539,4421.794922,0.0,0.0,11.0,,,,0.0,4.0,4.0,4.0,4.0,4.0,4.0,4.0,4.0,4.0,4.0,4.0,4.0,4.0,4.0,100.0,,,,,,,,,,,,,,,,,,,,,,,,,,,,,,,,,,,,,,,,,,,,,,,,,,,,,,,,,,,,,,,,,,,,,,,,,,,,,,,,,,,,,,,,,,,,,,,,,,,,,,,,,,,,,,,,,,,,,,,,,,,,,,,,,,,
1725717306.334054,1725717306.335593,114.0,0.0,4261.794922,4283.717773,4309.487305,4337.05127,4229.871582,4168.205078,4086.281982,4234.615234,4232.436035,4228.717773,4487.563965,4518.077148,4363.205078,4419.358887,0.0,0.0,11.0,,,,0.0,4.0,4.0,4.0,4.0,4.0,4.0,4.0,4.0,4.0,4.0,4.0,4.0,4.0,4.0,100.0,,,,,,,,,,,,,,,,,,,,,,,,,,,,,,,,,,,,,,,,,,,,,,,,,,,,,,,,,,,,,,,,,,,,,,,,,,,,,,,,,,,,,,,,,,,,,,,,,,,,,,,,,,,,,,,,,,,,,,,,,,,,,,,,,,,
1725717306.337958,1725717306.339497,115.0,0.0,4260.512695,4282.820313,4308.846191,4337.179688,4229.358887,4170.0,4082.94873,4233.461426,4231.282227,4226.538574,4480.128418,4511.153809,4362.692383,4417.94873,0.0,0.0,11.0,,,,0.0,4.0,4.0,4.0,4.0,4.0,4.0,4.0,4.0,4.0,4.0,4.0,4.0,4.0,4.0,100.0,,,,,,,,,,,,,,,,,,,,,,,,,,,,,,,,,,,,,,,,,,,,,,,,,,,,,,,,,,,,,,,,,,,,,,,,,,,,,,,,,,,,,,,,,,,,,,,,,,,,,,,,,,,,,,,,,,,,,,,,,,,,,,,,,,,
1725717306.341862,1725717306.343401,116.0,0.0,4260.512695,4281.410156,4308.974121,4337.05127,4228.077148,4170.0,4080.0,4233.717773,4231.282227,4227.820313,4473.846191,4508.205078,4363.846191,4419.871582,0.0,0.0,11.0,,,,0.0,4.0,4.0,4.0,4.0,4.0,4.0,4.0,4.0,4.0,4.0,4.0,4.0,4.0,4.0,100.0,,,,,,,,,,,,,,,,,1.0,0.0,0.0,,,,,,,,,,,,,,,,,,,,,,,,,,,,,,,,,,,,,0.0,0.0,1.0,0.0,2048.0,0.0,1.548325,0.846758,0.476983,0.257861,0.063808,6.56719,1.374706,1.234629,0.412988,0.14694,1.351495,1.218456,0.542966,0.217571,0.058998,1.437366,0.979953,0.59286,0.253769,0.092957,0.90576,0.19646,0.450562,0.080637,0.099171,2.012303,1.114929,0.603456,0.103249,0.054843,1.751036,0.492974,0.761807,0.108411,0.052034,0.948607,0.840463,0.498328,0.226464,0.139276,1.028509,0.849993,0.795935,0.397876,0.147526,1.94298,1.456259,1.345572,0.43977,0.171885,2.770562,1.634485,0.981531,1.167829,0.806495,2.746829,1.880492,0.67341,0.34897,0.215048,3.318842,1.738026,1.403265,0.652324,0.447444,1.839249,1.190596,0.65715,0.328319,0.16819
1725717306.345766,1725717306.347305,117.0,0.0,4260.769043,4282.179688,4310.512695,4336.666504,4226.794922,4168.974121,4078.333252,4235.384766,4232.820313,4231.410156,4471.025879,4512.436035,4366.538574,4424.102539,0.0,0.0,11.0,,,,0.0,4.0,4.0,4.0,4.0,4.0,4.0,4.0,4.0,4.0,4.0,4.0,4.0,4.0,4.0,100.0,,,,,,,,,,,,,,,,,,,,,,,,,,,,,,,,,,,,,,,,,,,,,,,,,,,,,,,,,,,,,,,,,,,,,,,,,,,,,,,,,,,,,,,,,,,,,,,,,,,,,,,,,,,,,,,,,,,,,,,,,,,,,,,,,,,
1725717306.34967,1725717306.351209,118.0,0.0,4259.487305,4286.282227,4312.307617,4335.769043,4226.794922,4168.333496,4077.94873,4236.666504,4235.384766,4234.743652,4473.077148,4520.256348,4369.487305,4427.94873,0.0,0.0,11.0,,,,0.0,4.0,4.0,4.0,4.0,4.0,4.0,4.0,4.0,4.0,4.0,4.0,4.0,4.0,4.0,100.0,,,,,,,,,,,,,,,,,,,,,,,,,,,,,,,,,,,,,,,,,,,,,,,,,,,,,,,,,,,,,,,,,,,,,,,,,,,,,,,,,,,,,,,,,,,,,,,,,,,,,,,,,,,,,,,,,,,,,,,,,,,,,,,,,,,
1725717306.353574,1725717306.355213,119.0,0.0,4255.512695,4292.05127,4312.436035,4333.846191,4228.077148,4168.846191,4077.820557,4236.410156,4238.846191,4236.025879,4479.102539,4525.128418,4369.871582,4428.077148,0.0,0.0,11.0,,,,0.0,4.0,4.0,4.0,4.0,4.0,4.0,4.0,4.0,4.0,4.0,4.0,4.0,4.0,4.0,100.0,,,,,,,,,,,,,,,,,,,,,,,,,,,,,,,,,,,,,,,,,,,,,,,,,,,,,,,,,,,,,,,,,,,,,,,,,,,,,,,,,,,,,,,,,,,,,,,,,,,,,,,,,,,,,,,,,,,,,,,,,,,,,,,,,,,
1725717306.357479,1725717306.359118,120.0,0.0,4250.128418,4295.641113,4309.615234,4330.384766,4230.0,4170.0,4077.435791,4234.871582,4242.179688,4235.512695,4485.897461,4522.179688,4366.025879,4423.589844,0.0,0.0,11.0,,,,0.0,4.0,4.0,4.0,4.0,4.0,4.0,4.0,4.0,4.0,4.0,4.0,4.0,4.0,4.0,100.0,,,,,,,,,,,,,,,,,,,,,,,,,,,,,,,,,,,,,,,,,,,,,,,,,,,,,,,,,,,,,,,,,,,,,,,,,,,,,,,,,,,,,,,,,,,,,,,,,,,,,,,,,,,,,,,,,,,,,,,,,,,,,,,,,,,
1725717306.361383,1725717306.363022,121.0,0.0,4246.538574,4294.230957,4304.230957,4326.666504,4231.025879,4170.897461,4076.410156,4233.974121,4244.487305,4234.743652,4489.743652,4513.205078,4358.846191,4416.153809,0.0,0.0,11.0,,,,0.0,4.0,4.0,4.0,4.0,4.0,4.0,4.0,4.0,4.0,4.0,4.0,4.0,4.0,4.0,100.0,,,,,,,,,,,,,,,,,,,,,,,,,,,,,,,,,,,,,,,,,,,,,,,,,,,,,,,,,,,,,,,,,,,,,,,,,,,,,,,,,,,,,,,,,,,,,,,,,,,,,,,,,,,,,,,,,,,,,,,,,,,,,,,,,,,
1725717306.365287,1725717306.366926,122.0,0.0,4247.307617,4288.461426,4298.717773,4324.487305,4231.282227,4171.666504,4075.384521,4235.897461,4244.871582,4234.358887,4488.589844,4503.974121,4351.794922,4409.871582,0.0,0.0,11.0,,,,0.0,4.0,4.0,4.0,4.0,4.0,4.0,4.0,4.0,4.0,4.0,4.0,4.0,4.0,4.0,100.0,,,,,,,,,,,,,,,,,,,,,,,,,,,,,,,,,,,,,,,,,,,,,,,,,,,,,,,,,,,,,,,,,,,,,,,,,,,,,,,,,,,,,,,,,,,,,,,,,,,,,,,,,,,,,,,,,,,,,,,,,,,,,,,,,,,
1725717306.369191,1725717306.37093,123.0,0.0,4251.538574,4281.922852,4295.128418,4324.871582,4230.769043,4172.307617,4074.487061,4240.0,4243.333496,4233.974121,4483.333496,4500.512695,4348.717773,4407.436035,0.0,0.0,11.0,,,,0.0,4.0,4.0,4.0,4.0,4.0,4.0,4.0,4.0,4.0,4.0,4.0,4.0,4.0,4.0,100.0,,,,,,,,,,,,,,,,,,,,,,,,,,,,,,,,,,,,,,,,,,,,,,,,,,,,,,,,,,,,,,,,,,,,,,,,,,,,,,,,,,,,,,,,,,,,,,,,,,,,,,,,,,,,,,,,,,,,,,,,,,,,,,,,,,,
1725717306.373095,1725717306.374834,124.0,0.0,4255.256348,4278.589844,4294.615234,4327.05127,4230.384766,4172.563965,4073.846191,4243.974121,4240.512695,4232.820313,4477.05127,4503.461426,4350.384766,4408.974121,0.0,0.0,11.0,,,,0.0,4.0,4.0,4.0,4.0,4.0,4.0,4.0,4.0,4.0,4.0,4.0,4.0,4.0,4.0,100.0,,,,,,,,,,,,,,,,,,,,,,,,,,,,,,,,,,,,,,,,,,,,,,,,,,,,,,,,0.0,0.0,1.0,0.0,2048.0,0.0,,,,,,,,,,,,,,,,,,,,,,,,,,,,,,,,,,,,,,,,,,,,,,,,,,,,,,,,,,,,,,,,,,,,,,
1725717306.376999,1725717306.378738,125.0,0.0,4255.384766,4279.743652,4296.153809,4328.846191,4230.512695,4172.436035,4073.333252,4245.0,4237.436035,4231.282227,4472.820313,4508.589844,4354.102539,4412.05127,0.0,0.0,11.0,,,,0.0,4.0,4.0,4.0,4.0,4.0,4.0,4.0,4.0,4.0,4.0,4.0,4.0,4.0,4.0,100.0,,,,,,,,,,,,,,,,,,,,,,,,,,,,,,,,,,,,,,,,,,,,,,,,,,,,,,,,,,,,,,,,,,,,,,,,,,,,,,,,,,,,,,,,,,,,,,,,,,,,,,,,,,,,,,,,,,,,,,,,,,,,,,,,,,,
1725717306.380903,1725717306.382642,126.0,0.0,4252.436035,4283.974121,4298.205078,4328.717773,4231.025879,4172.179688,4072.179443,4241.922852,4235.0,4230.128418,4471.922852,4510.897461,4356.538574,4413.846191,0.0,0.0,11.0,,,,0.0,4.0,4.0,4.0,4.0,4.0,4.0,4.0,4.0,4.0,4.0,4.0,4.0,4.0,4.0,100.0,,,,,,,,,,,,,,,,,,,,,,,,,,,,,,,,,,,,,,,,,,,,,,,,,,,,,,,,,,,,,,,,,,,,,,,,,,,,,,,,,,,,,,,,,,,,,,,,,,,,,,,,,,,,,,,,,,,,,,,,,,,,,,,,,,,
1725717306.384807,1725717306.386546,127.0,0.0,4249.358887,4288.205078,4298.846191,4327.436035,4231.666504,4173.077148,4070.512939,4236.410156,4233.717773,4230.0,4473.205078,4508.589844,4356.538574,4413.589844,0.0,0.0,11.0,,,,0.0,4.0,4.0,4.0,4.0,4.0,4.0,4.0,4.0,4.0,4.0,4.0,4.0,4.0,4.0,100.0,,,,,,,,,,,,,,,,,,,,,,,,,,,,,,,,,,,,,,,,,,,,,,,,,,,,,,,,,,,,,,,,,,,,,,,,,,,,,,,,,,,,,,,,,,,,,,,,,,,,,,,,,,,,,,,,,,,,,,,,,,,,,,,,,,,
1725717306.388711,1725717306.39035,128.0,0.0,4249.358887,4290.384766,4297.94873,4326.666504,4231.794922,4175.512695,4068.205078,4231.538574,4233.205078,4230.769043,4474.615234,4504.230957,4355.384766,4412.436035,2700.0,0.0,11.0,,,,0.0,4.0,4.0,4.0,4.0,4.0,4.0,4.0,4.0,4.0,4.0,4.0,4.0,4.0,4.0,100.0,,,,,,,,,,,,,,,,,,,,,,,,,,,,,,,,,,,,,,,,,,,,,,,,,,,,,,,,,,,,,,,,,,,,,,,,,,,,,,,,,,,,,,,,,,,,,,,,,,,,,,,,,,,,,,,,,,,,,,,,,,,,,,,,,,,
1725717306.392615,1725717306.394254,129.0,0.0,4252.436035,4290.384766,4296.538574,4327.94873,4231.538574,4179.102539,4065.769287,4229.871582,4232.820313,4231.666504,4475.128418,4502.307617,4355.512695,4411.794922,2570.0,0.0,11.0,,,,0.0,4.0,4.0,4.0,4.0,4.0,4.0,4.0,4.0,4.0,4.0,4.0,4.0,4.0,4.0,100.0,,,,,,,,,,,,,,,,,,,,,,,,,,,,,,,,,,,,,,,,,,,,,,,,,,,,,,,,,,,,,,,,,,,,,,,,,,,,,,,,,,,,,,,,,,,,,,,,,,,,,,,,,,,,,,,,,,,,,,,,,,,,,,,,,,,
1725717306.39652,1725717306.398159,130.0,0.0,4256.410156,4290.256348,4295.769043,4330.897461,4231.410156,4182.692383,4063.461426,4231.410156,4232.307617,4232.05127,4475.128418,4504.230957,4357.94873,4412.05127,2510.0,0.0,11.0,,,,0.0,4.0,4.0,4.0,4.0,4.0,4.0,4.0,4.0,4.0,4.0,4.0,4.0,4.0,4.0,100.0,,,,,,,,,,,,,,,,,,,,,,,,,,,,,,,,,,,,,,,,,,,,,,,,,,,,,,,,,,,,,,,,,,,,,,,,,,,,,,,,,,,,,,,,,,,,,,,,,,,,,,,,,,,,,,,,,,,,,,,,,,,,,,,,,,,
1725717306.400424,1725717306.401963,131.0,0.0,4258.589844,4291.410156,4296.922852,4333.846191,4232.179688,4184.615234,4061.923096,4233.974121,4231.922852,4231.666504,4476.794922,4508.077148,4361.410156,4412.94873,2458.0,0.0,11.0,,,,0.0,4.0,4.0,4.0,4.0,4.0,4.0,4.0,4.0,4.0,4.0,4.0,4.0,4.0,4.0,100.0,,,,,,,,,,,,,,,,,,,,,,,,,,,,,,,,,,,,,,,,,,,,,,,,,,,,,,,,,,,,,,,,,,,,,,,,,,,,,,,,,,,,,,,,,,,,,,,,,,,,,,,,,,,,,,,,,,,,,,,,,,,,,,,,,,,
1725717306.404328,1725717306.405867,132.0,0.0,4258.333496,4293.589844,4300.0,4335.128418,4233.846191,4184.102539,4061.153809,4235.0,4232.436035,4231.153809,4481.025879,4510.641113,4363.846191,4414.230957,2441.0,0.0,11.0,,,,0.0,4.0,4.0,4.0,4.0,4.0,4.0,4.0,4.0,4.0,4.0,4.0,4.0,4.0,4.0,100.0,,,,,,,,,,,,,,,,,,,,,,,,,,,,,,,,,,,,,,,,,,,,,,,,,,,,,,,,0.0,0.0,1.0,0.0,2048.0,0.0,,,,,,,,,,,,,,,,,,,,,,,,,,,,,,,,,,,,,,,,,,,,,,,,,,,,,,,,,,,,,,,,,,,,,,
1725717306.408232,1725717306.409771,133.0,0.0,4257.179688,4295.0,4303.974121,4335.128418,4234.743652,4182.05127,4060.384521,4234.102539,4233.461426,4230.769043,4485.0,4510.641113,4363.077148,4415.256348,2384.0,0.0,11.0,,,,0.0,4.0,4.0,4.0,4.0,4.0,4.0,4.0,4.0,4.0,4.0,4.0,4.0,4.0,4.0,100.0,,,,,,,,,,,,,,,,,,,,,,,,,,,,,,,,,,,,,,,,,,,,,,,,,,,,,,,,,,,,,,,,,,,,,,,,,,,,,,,,,,,,,,,,,,,,,,,,,,,,,,,,,,,,,,,,,,,,,,,,,,,,,,,,,,,
1725717306.412136,1725717306.413675,134.0,0.0,4256.794922,4294.102539,4307.307617,4335.641113,4234.230957,4180.128418,4058.333252,4232.307617,4234.230957,4230.641113,4484.230957,4509.102539,4358.589844,4415.128418,2431.0,0.0,11.0,,,,0.0,4.0,4.0,4.0,4.0,4.0,4.0,4.0,4.0,4.0,4.0,4.0,4.0,4.0,4.0,100.0,,,,,,,,,,,,,,,,,,,,,,,,,,,,,,,,,,,,,,,,,,,,,,,,,,,,,,,,,,,,,,,,,,,,,,,,,,,,,,,,,,,,,,,,,,,,,,,,,,,,,,,,,,,,,,,,,,,,,,,,,,,,,,,,,,,
1725717306.41604,1725717306.417479,135.0,0.0,4257.692383,4292.179688,4309.102539,4337.692383,4232.820313,4180.256348,4054.743652,4231.153809,4233.846191,4230.256348,4477.563965,4508.205078,4352.436035,4413.846191,2501.0,0.0,11.0,,,,0.0,4.0,4.0,4.0,4.0,4.0,4.0,4.0,4.0,4.0,4.0,4.0,4.0,4.0,4.0,100.0,,,,,,,,,,,,,,,,,,,,,,,,,,,,,,,,,,,,,,,,,,,,,,,,,,,,,,,,,,,,,,,,,,,,,,,,,,,,,,,,,,,,,,,,,,,,,,,,,,,,,,,,,,,,,,,,,,,,,,,,,,,,,,,,,,,
1725717306.419944,1725717306.421383,136.0,0.0,4259.615234,4291.538574,4309.358887,4340.897461,4232.820313,4183.077148,4050.384521,4231.282227,4232.307617,4229.615234,4470.256348,4508.846191,4347.94873,4412.692383,2471.0,0.0,11.0,,,,0.0,4.0,4.0,4.0,4.0,4.0,4.0,4.0,4.0,4.0,4.0,4.0,4.0,4.0,4.0,100.0,,,,,,,,,,,,,,,,,,,,,,,,,,,,,,,,,,,,,,,,,,,,,,,,,,,,,,,,,,,,,,,,,,,,,,,,,,,,,,,,,,,,,,,,,,,,,,,,,,,,,,,,,,,,,,,,,,,,,,,,,,,,,,,,,,,
1725717306.423848,1725717306.425288,137.0,0.0,4261.153809,4293.333496,4309.102539,4343.205078,4235.384766,4187.179688,4046.794922,4232.307617,4230.384766,4229.102539,4469.743652,4511.153809,4347.436035,4413.717773,2555.0,0.0,11.0,,,,0.0,4.0,4.0,4.0,4.0,4.0,4.0,4.0,4.0,4.0,4.0,4.0,4.0,4.0,4.0,100.0,,,,,,,,,,,,,,,,,,,,,,,,,,,,,,,,,,,,,,,,,,,,,,,,,,,,,,,,,,,,,,,,,,,,,,,,,,,,,,,,,,,,,,,,,,,,,,,,,,,,,,,,,,,,,,,,,,,,,,,,,,,,,,,,,,,
1725717306.427752,1725717306.429292,138.0,0.0,4261.153809,4295.769043,4309.487305,4342.563965,4238.846191,4190.384766,4044.871826,4233.333496,4229.358887,4230.0,4477.94873,4514.615234,4350.512695,4417.692383,2892.0,0.0,11.0,,,,0.0,4.0,4.0,4.0,4.0,4.0,4.0,4.0,4.0,4.0,4.0,4.0,4.0,4.0,4.0,100.0,,,,,,,,,,,,,,,,,,,,,,,,,,,,,,,,,,,,,,,,,,,,,,,,,,,,,,,,,,,,,,,,,,,,,,,,,,,,,,,,,,,,,,,,,,,,,,,,,,,,,,,,,,,,,,,,,,,,,,,,,,,,,,,,,,,
1725717306.431656,1725717306.433196,139.0,0.0,4259.871582,4295.897461,4310.512695,4339.487305,4240.897461,4190.641113,4044.102539,4234.230957,4230.0,4231.666504,4489.102539,4519.230957,4353.846191,4422.692383,3122.0,0.0,11.0,,,,0.0,4.0,4.0,4.0,4.0,4.0,4.0,4.0,4.0,4.0,4.0,4.0,4.0,4.0,4.0,100.0,,,,,,,,,,,,,,,,,,,,,,,,,,,,,,,,,,,,,,,,,,,,,,,,,,,,,,,,,,,,,,,,,,,,,,,,,,,,,,,,,,,,,,,,,,,,,,,,,,,,,,,,,,,,,,,,,,,,,,,,,,,,,,,,,,,
1725717306.435561,1725717306.4371,140.0,0.0,4258.461426,4292.692383,4311.410156,4335.769043,4240.128418,4188.846191,4043.076904,4234.871582,4232.179688,4233.205078,4495.256348,4523.846191,4355.512695,4425.641113,3398.0,0.0,11.0,,,,0.0,4.0,4.0,4.0,4.0,4.0,4.0,4.0,4.0,4.0,4.0,4.0,4.0,4.0,4.0,100.0,,,,,,,,,,,,,,,,,,,,,,,,,,,,,,,,,,,,,,,,,,,,,,,,,,,,,,,,0.0,0.0,1.0,0.0,2048.0,0.0,,,,,,,,,,,,,,,,,,,,,,,,,,,,,,,,,,,,,,,,,,,,,,,,,,,,,,,,,,,,,,,,,,,,,,
1725717306.439465,1725717306.441104,141.0,0.0,4257.94873,4287.820313,4310.641113,4333.461426,4237.94873,4187.179688,4039.871826,4234.871582,4234.743652,4233.717773,4492.820313,4526.282227,4355.897461,4425.128418,3862.0,0.0,11.0,,,,0.0,4.0,4.0,4.0,4.0,4.0,4.0,4.0,4.0,4.0,4.0,4.0,4.0,4.0,4.0,100.0,,,,,,,,,,,,,,,,,,,,,,,,,,,,,,,,,,,,,,,,,,,,,,,,,,,,,,,,,,,,,,,,,,,,,,,,,,,,,,,,,,,,,,,,,,,,,,,,,,,,,,,,,,,,,,,,,,,,,,,,,,,,,,,,,,,
1725717306.443369,1725717306.445008,142.0,0.0,4258.333496,4284.743652,4307.692383,4333.205078,4236.922852,4188.077148,4034.487061,4234.102539,4236.538574,4233.589844,4485.384766,4524.615234,4357.05127,4421.666504,2892.0,0.0,11.0,,,,0.0,4.0,4.0,4.0,4.0,4.0,4.0,4.0,4.0,4.0,4.0,4.0,4.0,4.0,4.0,100.0,,,,,,,,,,,,,,,,,,,,,,,,,,,,,,,,,,,,,,,,,,,,,,,,,,,,,,,,,,,,,,,,,,,,,,,,,,,,,,,,,,,,,,,,,,,,,,,,,,,,,,,,,,,,,,,,,,,,,,,,,,,,,,,,,,,
1725717306.447273,1725717306.448912,143.0,0.0,4259.102539,4285.128418,4303.846191,4334.230957,4238.589844,4191.666504,4028.205078,4233.461426,4236.922852,4233.077148,4480.128418,4519.358887,4359.230957,4417.563965,3122.0,0.0,11.0,,,,0.0,4.0,4.0,4.0,4.0,4.0,4.0,4.0,4.0,4.0,4.0,4.0,4.0,4.0,4.0,100.0,,,,,,,,,,,,,,,,,,,,,,,,,,,,,,,,,,,,,,,,,,,,,,,,,,,,,,,,,,,,,,,,,,,,,,,,,,,,,,,,,,,,,,,,,,,,,,,,,,,,,,,,,,,,,,,,,,,,,,,,,,,,,,,,,,,
1725717306.451177,1725717306.452816,144.0,0.0,4260.256348,4288.589844,4301.410156,4335.384766,4241.794922,4196.282227,4023.205078,4235.128418,4236.153809,4231.666504,4481.666504,4513.077148,4359.615234,4415.0,3398.0,0.0,11.0,,,,0.0,4.0,4.0,4.0,4.0,4.0,4.0,4.0,4.0,4.0,4.0,4.0,4.0,4.0,4.0,100.0,,,,,,,,,,,,,,,,,,,,,,,,,,,,,,,,,,,,,,,,,,,,,,,,,,,,,,,,,,,,,,,,,,,,,,,,,,,,,,,,,,,,,,,,,,,,,,,,,,,,,,,,,,,,,,,,,,,,,,,,,,,,,,,,,,,
1725717306.455081,1725717306.45672,145.0,0.0,4262.05127,4292.820313,4302.179688,4336.282227,4244.102539,4200.0,4020.384521,4240.0,4235.256348,4228.974121,4488.077148,4508.846191,4355.897461,4414.615234,3862.0,0.0,11.0,,,,0.0,4.0,4.0,4.0,4.0,4.0,4.0,4.0,4.0,4.0,4.0,4.0,4.0,4.0,4.0,100.0,,,,,,,,,,,,,,,,,,,,,,,,,,,,,,,,,,,,,,,,,,,,,,,,,,,,,,,,,,,,,,,,,,,,,,,,,,,,,,,,,,,,,,,,,,,,,,,,,,,,,,,,,,,,,,,,,,,,,,,,,,,,,,,,,,,
1725717306.458985,1725717306.460724,146.0,0.0,4263.461426,4295.0,4304.743652,4336.666504,4243.589844,4201.282227,4018.589844,4246.025879,4235.256348,4225.769043,4493.077148,4508.589844,4348.589844,4415.897461,2892.0,0.0,11.0,,,,0.0,4.0,4.0,4.0,4.0,4.0,4.0,4.0,4.0,4.0,4.0,4.0,4.0,4.0,4.0,100.0,,,,,,,,,,,,,,,,,,,,,,,,,,,,,,,,,,,,,,,,,,,,,,,,,,,,,,,,,,,,,,,,,,,,,,,,,,,,,,,,,,,,,,,,,,,,,,,,,,,,,,,,,,,,,,,,,,,,,,,,,,,,,,,,,,,
