Timestamp,OriginalTimestamp,EEG.Counter,EEG.Interpolated,EEG.AF3,EEG.F7,EEG.F3,EEG.FC5,EEG.T7,EEG.P7,EEG.O1,EEG.O2,EEG.P8,EEG.T8,EEG.FC6,EEG.F4,EEG.F8,EEG.AF4,EEG.RawCq,EEG.Battery,EEG.BatteryPercent,MarkerIndex,MarkerType,MarkerValueInt,EEG.MarkerHardware,CQ.AF3,CQ.F7,CQ.F3,CQ.FC5,CQ.T7,CQ.P7,CQ.O1,CQ.O2,CQ.P8,CQ.T8,CQ.FC6,CQ.F4,CQ.F8,CQ.AF4,CQ.Overall,EQ.SampleRateQuality,EQ.OVERALL,EQ.AF3,EQ.F7,EQ.F3,EQ.FC5,EQ.T7,EQ.P7,EQ.O1,EQ.O2,EQ.P8,EQ.T8,EQ.FC6,EQ.F4,EQ.F8,EQ.AF4,MC.Action,MC.ActionPower,MC.IsActive,PM.Attention.IsActive,PM.Attention.Scaled,PM.Attention.Raw,PM.Attention.Min,PM.Attention.Max,PM.Engagement.IsActive,PM.Engagement.Scaled,PM.Engagement.Raw,PM.Engagement.Min,PM.Engagement.Max,PM.Excitement.IsActive,PM.Excitement.Scaled,PM.Excitement.Raw,PM.Excitement.Min,PM.Excitement.Max,PM.LongTermExcitement,PM.Stress.IsActive,PM.Stress.Scaled,PM.Stress.Raw,PM.Stress.Min,PM.Stress.Max,PM.Relaxation.IsActive,PM.Relaxation.Scaled,PM.Relaxation.Raw,PM.Relaxation.Min,PM.Relaxation.Max,PM.Interest.IsActive,PM.Interest.Scaled,PM.Interest.Raw,PM.Interest.Min,PM.Interest.Max,PM.Focus.IsActive,PM.Focus.Scaled,PM.Focus.Raw,PM.Focus.Min,PM.Focus.Max,FE.BlinkWink,FE.HorizontalEyesDirection,FE.UpperFaceAction,FE.UpperFaceActionPower,FE.LowerFaceAction,FE.LowerFaceActionPower,POW.AF3.Theta,POW.AF3.Alpha,POW.AF3.BetaL,POW.AF3.BetaH,POW.AF3.Gamma,POW.F7.Theta,POW.F7.Alpha,POW.F7.BetaL,POW.F7.BetaH,POW.F7.Gamma,POW.F3.Theta,POW.F3.Alpha,POW.F3.BetaL,POW.F3.BetaH,POW.F3.Gamma,POW.FC5.Theta,POW.FC5.Alpha,POW.FC5.BetaL,POW.FC5.BetaH,POW.FC5.Gamma,POW.T7.Theta,POW.T7.Alpha,POW.T7.BetaL,POW.T7.BetaH,POW.T7.Gamma,POW.P7.Theta,POW.P7.Alpha,POW.P7.BetaL,POW.P7.BetaH,POW.P7.Gamma,POW.O1.Theta,POW.O1.Alpha,POW.O1.BetaL,POW.O1.BetaH,POW.O1.Gamma,POW.O2.Theta,POW.O2.Alpha,POW.O2.BetaL,POW.O2.BetaH,POW.O2.Gamma,POW.P8.Theta,POW.P8.Alpha,POW.P8.BetaL,POW.P8.BetaH,POW.P8.Gamma,POW.T8.Theta,POW.T8.Alpha,POW.T8.BetaL,POW.T8.BetaH,POW.T8.Gamma,POW.FC6.Theta,POW.FC6.Alpha,POW.FC6.BetaL,POW.FC6.BetaH,POW.FC6.Gamma,POW.F4.Theta,POW.F4.Alpha,POW.F4.BetaL,POW.F4.BetaH,POW.F4.Gamma,POW.F8.Theta,POW.F8.Alpha,POW.F8.BetaL,POW.F8.BetaH,POW.F8.Gamma,POW.AF4.Theta,POW.AF4.Alpha,POW.AF4.BetaL,POW.AF4.BetaH,POW.AF4.Gamma
1725710377.138324,1725710377.140453,228.0,0.0,4251.538574,4256.410156,4262.179688,4291.538574,4213.589844,4225.897461,4633.846191,4220.897461,4227.05127,4201.153809,4517.179688,4511.410156,4371.794922,4446.538574,3423.0,1.0,15.0,5.0,1.0,1.0,0.0,4.0,4.0,4.0,4.0,4.0,4.0,4.0,4.0,4.0,4.0,4.0,4.0,4.0,4.0,100.0,,,,,,,,,,,,,,,,,,,,,,,,,,,,,,,,,,,,,,,,,,,,,,,,,,,,,,,,,,,,,,,,,,,,,,,,,,,,,,,,,,,,,,,,,,,,,,,,,,,,,,,,,,,,,,,,,,,,,,,,,,,,,,,,,,,
1725710377.142228,1725710377.144357,229.0,0.0,4255.384766,4256.153809,4264.230957,4293.077148,4213.205078,4229.743652,4630.641113,4216.794922,4230.256348,4200.256348,4520.256348,4508.333496,4368.589844,4444.230957,3922.0,1.0,15.0,,,,0.0,4.0,4.0,4.0,4.0,4.0,4.0,4.0,4.0,4.0,4.0,4.0,4.0,4.0,4.0,100.0,,,,,,,,,,,,,,,,,,,,,,,,,,,,,,,,,,,,,,,,,,,,,,,,,,,,,,,,,,,,,,,,,,,,,,,,,,,,,,,,,,,,,,,,,,,,,,,,,,,,,,,,,,,,,,,,,,,,,,,,,,,,,,,,,,,
1725710377.146132,1725710377.148261,230.0,0.0,4261.282227,4258.461426,4265.256348,4296.538574,4213.205078,4232.94873,4628.205078,4210.256348,4231.153809,4202.307617,4528.589844,4506.282227,4369.871582,4443.717773,2909.0,1.0,15.0,,,,0.0,4.0,4.0,4.0,4.0,4.0,4.0,4.0,4.0,4.0,4.0,4.0,4.0,4.0,4.0,100.0,,,,,,,,,,,,,,,,,,,,,,,,,,,,,,,,,,,,,,,,,,,,,,,,,,,,,,,,,,,,,,,,,,,,,,,,,,,,,,,,,,,,,,,,,,,,,,,,,,,,,,,,,,,,,,,,,,,,,,,,,,,,,,,,,,,
1725710377.150036,1725710377.152065,231.0,0.0,4265.384766,4262.436035,4264.743652,4299.743652,4212.692383,4234.358887,4625.512695,4203.846191,4230.256348,4206.922852,4535.769043,4505.384766,4374.871582,4444.230957,3144.0,1.0,15.0,,,,0.0,4.0,4.0,4.0,4.0,4.0,4.0,4.0,4.0,4.0,4.0,4.0,4.0,4.0,4.0,100.0,,,,,,,,,,,,,,,,,,,,,,,,,,,,,,,,,,,,,,,,,,,,,,,,,,,,,,,,,,,,,,,,,,,,,,,,,,,,,,,,,,,,,,,,,,,,,,,,,,,,,,,,,,,,,,,,,,,,,,,,,,,,,,,,,,,
1725710377.153941,1725710377.155969,232.0,0.0,4264.743652,4266.025879,4263.589844,4301.153809,4210.512695,4233.846191,4622.307617,4199.487305,4228.974121,4211.922852,4536.153809,4505.384766,4380.256348,4444.230957,3423.0,1.0,15.0,,,,0.0,4.0,4.0,4.0,4.0,4.0,4.0,4.0,4.0,4.0,4.0,4.0,4.0,4.0,4.0,100.0,,,,,,,,,,,,,,,,,,,,,,,,,,,,,,,,,,,,,,,,,,,,,,,,,,,,,,,,0.0,0.0,1.0,0.0,1.0,0.0,,,,,,,,,,,,,,,,,,,,,,,,,,,,,,,,,,,,,,,,,,,,,,,,,,,,,,,,,,,,,,,,,,,,,,
1725710377.157845,1725710377.159973,233.0,0.0,4259.615234,4267.179688,4262.94873,4300.0,4207.179688,4232.436035,4619.358887,4197.820313,4228.846191,4215.0,4529.358887,4505.512695,4382.692383,4443.205078,3922.0,1.0,15.0,,,,0.0,4.0,4.0,4.0,4.0,4.0,4.0,4.0,4.0,4.0,4.0,4.0,4.0,4.0,4.0,100.0,,,,,,,,,,,,,,,,,,,,,,,,,,,,,,,,,,,,,,,,,,,,,,,,,,,,,,,,,,,,,,,,,,,,,,,,,,,,,,,,,,,,,,,,,,,,,,,,,,,,,,,,,,,,,,,,,,,,,,,,,,,,,,,,,,,
1725710377.161749,1725710377.163878,234.0,0.0,4253.077148,4265.641113,4262.820313,4297.692383,4203.717773,4231.153809,4617.436035,4198.717773,4230.512695,4215.512695,4520.384766,4505.769043,4380.641113,4441.410156,2909.0,1.0,15.0,,,,0.0,4.0,4.0,4.0,4.0,4.0,4.0,4.0,4.0,4.0,4.0,4.0,4.0,4.0,4.0,100.0,,,,,,,,,,,,,,,,,,,,,,,,,,,,,,,,,,,,,,,,,,,,,,,,,,,,,,,,,,,,,,,,,,,,,,,,,,,,,,,,,,,,,,,,,,,,,,,,,,,,,,,,,,,,,,,,,,,,,,,,,,,,,,,,,,,
1725710377.165653,1725710377.167782,235.0,0.0,4248.333496,4263.205078,4262.179688,4296.282227,4201.922852,4230.641113,4617.05127,4201.153809,4232.563965,4214.358887,4516.025879,4505.769043,4375.512695,4439.871582,3144.0,1.0,15.0,,,,0.0,4.0,4.0,4.0,4.0,4.0,4.0,4.0,4.0,4.0,4.0,4.0,4.0,4.0,4.0,100.0,,,,,,,,,,,,,,,,,,,,,,,,,,,,,,,,,,,,,,,,,,,,,,,,,,,,,,,,,,,,,,,,,,,,,,,,,,,,,,,,,,,,,,,,,,,,,,,,,,,,,,,,,,,,,,,,,,,,,,,,,,,,,,,,,,,
1725710377.169557,1725710377.171686,236.0,0.0,4247.179688,4261.794922,4260.384766,4297.179688,4201.794922,4231.025879,4617.820313,4204.487305,4233.077148,4213.461426,4519.487305,4506.025879,4370.897461,4439.615234,3423.0,1.0,15.0,,,,0.0,4.0,4.0,4.0,4.0,4.0,4.0,4.0,4.0,4.0,4.0,4.0,4.0,4.0,4.0,100.0,,,,,,,,,,,,,,,,,,,,,,,,,,,,,,,,,,,,,,,,,,,,,,,,,,,,,,,,,,,,,,,,,,,,,,,,,,,,,,,,,,,,,,,,,,,,,,,,,,,,,,,,,,,,,,,,,,,,,,,,,,,,,,,,,,,
1725710377.173461,1725710377.17559,237.0,0.0,4248.846191,4261.922852,4257.436035,4299.230957,4202.692383,4231.410156,4618.717773,4208.077148,4231.538574,4214.230957,4527.94873,4506.538574,4369.615234,4440.256348,3922.0,1.0,15.0,,,,0.0,4.0,4.0,4.0,4.0,4.0,4.0,4.0,4.0,4.0,4.0,4.0,4.0,4.0,4.0,100.0,,,,,,,,,,,,,,,,,,,,,,,,,,,,,,,,,,,,,,,,,,,,,,,,,,,,,,,,,,,,,,,,,,,,,,,,,,,,,,,,,,,,,,,,,,,,,,,,,,,,,,,,,,,,,,,,,,,,,,,,,,,,,,,,,,,
1725710377.177365,1725710377.179594,238.0,0.0,4250.769043,4262.436035,4253.974121,4299.743652,4203.333496,4231.153809,4618.205078,4211.538574,4229.743652,4216.410156,4535.256348,4507.179688,4372.436035,4441.538574,2909.0,1.0,15.0,,,,0.0,4.0,4.0,4.0,4.0,4.0,4.0,4.0,4.0,4.0,4.0,4.0,4.0,4.0,4.0,100.0,,,,,,,,,,,,,,,,,,,,,,,,,,,,,,,,,,,,,,,,,,,,,,,,,,,,,,,,,,,,,,,,,,,,,,,,,,,,,,,,,,,,,,,,,,,,,,,,,,,,,,,,,,,,,,,,,,,,,,,,,,,,,,,,,,,
1725710377.181269,1725710377.183498,239.0,0.0,4250.641113,4261.666504,4250.897461,4296.410156,4203.717773,4230.0,4615.769043,4214.615234,4230.0,4217.820313,4537.05127,4507.563965,4377.05127,4442.179688,3144.0,1.0,15.0,,,,0.0,4.0,4.0,4.0,4.0,4.0,4.0,4.0,4.0,4.0,4.0,4.0,4.0,4.0,4.0,100.0,,,,,,,,,,,,,,,,,,,,,,,,,,,,,,,,,,,,,,,,,,,,,,,,,,,,,,,,,,,,,,,,,,,,,,,,,,,,,,,,,,,,,,,,,,,,,,,,,,,,,,,,,,,,,,,,,,,,,,,,,,,,,,,,,,,
1725710377.185173,1725710377.187402,240.0,0.0,4248.333496,4259.102539,4250.0,4290.128418,4203.846191,4228.589844,4611.282227,4217.692383,4234.102539,4217.05127,4533.846191,4508.205078,4381.025879,4442.307617,3423.0,1.0,15.0,,,,0.0,4.0,4.0,4.0,4.0,4.0,4.0,4.0,4.0,4.0,4.0,4.0,4.0,4.0,4.0,100.0,,,,,,,,,,,,,,,,,1.0,0.0,0.0,,,,,,,,,,,,,,,,,,,,,,,,,,,,,,,,,,,,,0.0,0.0,1.0,0.0,1024.0,0.061846,0.861467,0.358673,0.295785,0.105583,0.046507,1.519707,0.579484,0.376432,0.179476,0.115035,1.002601,0.680283,0.457443,0.10311,0.067322,2.108486,0.449331,0.677924,0.20167,0.145916,0.408222,0.192699,0.268418,0.083651,0.084622,0.179388,0.159855,0.060115,0.04028,0.041549,10.36896,2.118581,0.394252,0.271519,0.071973,0.537722,0.867386,0.354414,0.296525,0.184515,1.273294,1.003965,0.211918,0.158998,0.112594,1.15402,1.526582,0.593747,0.314135,0.15219,2.322155,1.54936,0.982604,0.458471,0.305609,1.368361,1.154137,1.258092,0.444596,0.215579,2.585984,1.272827,0.816406,0.448633,0.188706,1.612195,1.380062,0.815934,0.356636,0.131802
1725710377.189078,1725710377.191306,241.0,0.0,4246.153809,4256.282227,4252.05127,4284.230957,4203.974121,4227.563965,4606.538574,4220.384766,4240.769043,4214.871582,4530.769043,4508.974121,4382.692383,4442.307617,3922.0,1.0,15.0,,,,0.0,4.0,4.0,4.0,4.0,4.0,4.0,4.0,4.0,4.0,4.0,4.0,4.0,4.0,4.0,100.0,,,,,,,,,,,,,,,,,,,,,,,,,,,,,,,,,,,,,,,,,,,,,,,,,,,,,,,,,,,,,,,,,,,,,,,,,,,,,,,,,,,,,,,,,,,,,,,,,,,,,,,,,,,,,,,,,,,,,,,,,,,,,,,,,,,
1725710377.192982,1725710377.19531,242.0,0.0,4245.769043,4255.897461,4256.282227,4281.922852,4203.974121,4227.436035,4602.820313,4221.922852,4247.05127,4213.589844,4531.922852,4509.743652,4382.563965,4442.692383,2909.0,1.0,15.0,,,,0.0,4.0,4.0,4.0,4.0,4.0,4.0,4.0,4.0,4.0,4.0,4.0,4.0,4.0,4.0,100.0,,,,,,,,,,,,,,,,,,,,,,,,,,,,,,,,,,,,,,,,,,,,,,,,,,,,,,,,,,,,,,,,,,,,,,,,,,,,,,,,,,,,,,,,,,,,,,,,,,,,,,,,,,,,,,,,,,,,,,,,,,,,,,,,,,,
1725710377.196886,1725710377.199214,243.0,0.0,4247.179688,4258.333496,4260.384766,4284.871582,4203.461426,4228.205078,4600.897461,4221.794922,4249.230957,4214.743652,4536.794922,4509.358887,4381.922852,4443.589844,3144.0,1.0,15.0,,,,0.0,4.0,4.0,4.0,4.0,4.0,4.0,4.0,4.0,4.0,4.0,4.0,4.0,4.0,4.0,100.0,,,,,,,,,,,,,,,,,,,,,,,,,,,,,,,,,,,,,,,,,,,,,,,,,,,,,,,,,,,,,,,,,,,,,,,,,,,,,,,,,,,,,,,,,,,,,,,,,,,,,,,,,,,,,,,,,,,,,,,,,,,,,,,,,,,
1725710377.20079,1725710377.203118,244.0,0.0,4249.358887,4261.538574,4262.179688,4291.282227,4202.820313,4229.487305,4600.384766,4220.128418,4246.410156,4217.05127,4540.897461,4507.94873,4382.05127,4444.358887,3423.0,1.0,15.0,,,,0.0,4.0,4.0,4.0,4.0,4.0,4.0,4.0,4.0,4.0,4.0,4.0,4.0,4.0,4.0,100.0,,,,,,,,,,,,,,,,,,,,,,,,,,,,,,,,,,,,,,,,,,,,,,,,,,,,,,,,,,,,,,,,,,,,,,,,,,,,,,,,,,,,,,,,,,,,,,,,,,,,,,,,,,,,,,,,,,,,,,,,,,,,,,,,,,,
1725710377.204694,1725710377.207022,245.0,0.0,4251.025879,4262.307617,4260.641113,4297.692383,4202.563965,4230.641113,4600.512695,4217.820313,4240.256348,4217.307617,4539.230957,4506.410156,4382.94873,4444.615234,3922.0,1.0,15.0,,,,0.0,4.0,4.0,4.0,4.0,4.0,4.0,4.0,4.0,4.0,4.0,4.0,4.0,4.0,4.0,100.0,,,,,,,,,,,,,,,,,,,,,,,,,,,,,,,,,,,,,,,,,,,,,,,,,,,,,,,,,,,,,,,,,,,,,,,,,,,,,,,,,,,,,,,,,,,,,,,,,,,,,,,,,,,,,,,,,,,,,,,,,,,,,,,,,,,
1725710377.208598,1725710377.210927,246.0,0.0,4251.410156,4259.743652,4256.922852,4300.769043,4203.461426,4231.410156,4599.615234,4216.025879,4234.487305,4213.461426,4531.922852,4505.512695,4383.717773,4444.615234,2909.0,1.0,15.0,,,,0.0,4.0,4.0,4.0,4.0,4.0,4.0,4.0,4.0,4.0,4.0,4.0,4.0,4.0,4.0,100.0,,,,,,,,,,,,,,,,,,,,,,,,,,,,,,,,,,,,,,,,,,,,,,,,,,,,,,,,,,,,,,,,,,,,,,,,,,,,,,,,,,,,,,,,,,,,,,,,,,,,,,,,,,,,,,,,,,,,,,,,,,,,,,,,,,,
1725710377.212502,1725710377.214731,247.0,0.0,4250.897461,4255.256348,4253.461426,4299.230957,4205.256348,4231.666504,4596.410156,4215.256348,4231.282227,4206.794922,4523.589844,4505.384766,4383.717773,4444.743652,3144.0,1.0,15.0,,,,0.0,4.0,4.0,4.0,4.0,4.0,4.0,4.0,4.0,4.0,4.0,4.0,4.0,4.0,4.0,100.0,,,,,,,,,,,,,,,,,,,,,,,,,,,,,,,,,,,,,,,,,,,,,,,,,,,,,,,,,,,,,,,,,,,,,,,,,,,,,,,,,,,,,,,,,,,,,,,,,,,,,,,,,,,,,,,,,,,,,,,,,,,,,,,,,,,
1725710377.216406,1725710377.218635,248.0,0.0,4250.0,4252.307617,4252.692383,4295.256348,4206.666504,4231.794922,4591.025879,4215.384766,4231.153809,4201.410156,4520.256348,4506.025879,4382.692383,4445.512695,3423.0,1.0,15.0,,,,0.0,4.0,4.0,4.0,4.0,4.0,4.0,4.0,4.0,4.0,4.0,4.0,4.0,4.0,4.0,100.0,,,,,,,,,,,,,,,,,,,,,,,,,,,,,,,,,,,,,,,,,,,,,,,,,,,,,,,,0.0,0.0,1.0,0.0,1024.0,0.061846,,,,,,,,,,,,,,,,,,,,,,,,,,,,,,,,,,,,,,,,,,,,,,,,,,,,,,,,,,,,,,,,,,,,,,
1725710377.22031,1725710377.222539,249.0,0.0,4249.743652,4252.94873,4255.128418,4292.179688,4207.05127,4231.922852,4585.0,4215.512695,4232.692383,4200.384766,4524.615234,4507.05127,4381.666504,4446.538574,3922.0,1.0,15.0,,,,0.0,4.0,4.0,4.0,4.0,4.0,4.0,4.0,4.0,4.0,4.0,4.0,4.0,4.0,4.0,100.0,,,,,,,,,,,,,,,,,,,,,,,,,,,,,,,,,,,,,,,,,,,,,,,,,,,,,,,,,,,,,,,,,,,,,,,,,,,,,,,,,,,,,,,,,,,,,,,,,,,,,,,,,,,,,,,,,,,,,,,,,,,,,,,,,,,
1725710377.224214,1725710377.226343,250.0,0.0,4250.384766,4257.436035,4259.230957,4291.922852,4206.410156,4232.05127,4580.128418,4213.846191,4233.846191,4203.589844,4533.846191,4507.94873,4381.538574,4447.436035,2909.0,1.0,15.0,,,,0.0,4.0,4.0,4.0,4.0,4.0,4.0,4.0,4.0,4.0,4.0,4.0,4.0,4.0,4.0,100.0,,,,,,,,,,,,,,,,,,,,,,,,,,,,,,,,,,,,,,,,,,,,,,,,,,,,,,,,,,,,,,,,,,,,,,,,,,,,,,,,,,,,,,,,,,,,,,,,,,,,,,,,,,,,,,,,,,,,,,,,,,,,,,,,,,,
1725710377.228119,1725710377.230247,251.0,0.0,4251.666504,4262.94873,4262.436035,4294.230957,4205.641113,4231.922852,4576.410156,4208.974121,4233.461426,4208.205078,4541.538574,4508.333496,4382.563965,4447.307617,3144.0,1.0,15.0,,,,0.0,4.0,4.0,4.0,4.0,4.0,4.0,4.0,4.0,4.0,4.0,4.0,4.0,4.0,4.0,100.0,,,,,,,,,,,,,,,,,,,,,,,,,,,,,,,,,,,,,,,,,,,,,,,,,,,,,,,,,,,,,,,,,,,,,,,,,,,,,,,,,,,,,,,,,,,,,,,,,,,,,,,,,,,,,,,,,,,,,,,,,,,,,,,,,,,
1725710377.232023,1725710377.234151,252.0,0.0,4252.436035,4266.410156,4263.333496,4296.794922,4205.512695,4231.410156,4572.436035,4201.666504,4231.666504,4210.641113,4541.282227,4507.692383,4383.717773,4446.025879,3423.0,1.0,15.0,,,,0.0,4.0,4.0,4.0,4.0,4.0,4.0,4.0,4.0,4.0,4.0,4.0,4.0,4.0,4.0,100.0,,,,,,,,,,,,,,,,,,,,,,,,,,,,,,,,,,,,,,,,,,,,,,,,,,,,,,,,,,,,,,,,,,,,,,,,,,,,,,,,,,,,,,,,,,,,,,,,,,,,,,,,,,,,,,,,,,,,,,,,,,,,,,,,,,,
1725710377.235927,1725710377.238155,253.0,0.0,4252.307617,4265.897461,4262.307617,4297.563965,4205.897461,4230.512695,4567.05127,4195.128418,4228.974121,4209.230957,4532.179688,4506.410156,4383.846191,4443.846191,3922.0,1.0,15.0,,,,0.0,4.0,4.0,4.0,4.0,4.0,4.0,4.0,4.0,4.0,4.0,4.0,4.0,4.0,4.0,100.0,,,,,,,,,,,,,,,,,,,,,,,,,,,,,,,,,,,,,,,,,,,,,,,,,,,,,,,,,,,,,,,,,,,,,,,,,,,,,,,,,,,,,,,,,,,,,,,,,,,,,,,,,,,,,,,,,,,,,,,,,,,,,,,,,,,
1725710377.239831,1725710377.24206,254.0,0.0,4251.538574,4262.692383,4260.897461,4296.666504,4206.282227,4229.487305,4560.897461,4191.922852,4225.384766,4205.0,4520.128418,4504.487305,4382.05127,4442.436035,2909.0,1.0,15.0,,,,0.0,4.0,4.0,4.0,4.0,4.0,4.0,4.0,4.0,4.0,4.0,4.0,4.0,4.0,4.0,100.0,,,,,,,,,,,,,,,,,,,,,,,,,,,,,,,,,,,,,,,,,,,,,,,,,,,,,,,,,,,,,,,,,,,,,,,,,,,,,,,,,,,,,,,,,,,,,,,,,,,,,,,,,,,,,,,,,,,,,,,,,,,,,,,,,,,
1725710377.243735,1725710377.245964,255.0,0.0,4250.897461,4259.615234,4260.384766,4295.769043,4206.282227,4228.846191,4555.769043,4192.179688,4220.897461,4200.897461,4513.333496,4502.692383,4380.0,4442.94873,15.0,1.0,15.0,,,,0.0,4.0,4.0,4.0,4.0,4.0,4.0,4.0,4.0,4.0,4.0,4.0,4.0,4.0,4.0,100.0,,,,,,,,,,,,,,,,,,,,,,,,,,,,,,,,,,,,,,,,,,,,,,,,,,,,,,,,,,,,,,,,,,,,,,,,,,,,,,,,,,,,,,,,,,,,,,,,,,,,,,,,,,,,,,,,,,,,,,,,,,,,,,,,,,,
1725710377.247639,1725710377.249868,0.0,0.0,4251.025879,4259.487305,4261.153809,4296.025879,4206.153809,4228.846191,4552.307617,4194.230957,4216.410156,4199.358887,4516.282227,4502.179688,4380.128418,4445.256348,2702.0,1.0,15.0,,,,0.0,4.0,4.0,4.0,4.0,4.0,4.0,4.0,4.0,4.0,4.0,4.0,4.0,4.0,4.0,100.0,,,,,,,,,,,,,,,,,,,,,,,,,,,,,,,,,,,,,,,,,,,,,,,,,,,,,,,,0.0,0.0,1.0,0.0,1024.0,0.061846,,,,,,,,,,,,,,,,,,,,,,,,,,,,,,,,,,,,,,,,,,,,,,,,,,,,,,,,,,,,,,,,,,,,,,
1725710377.251543,1725710377.253872,1.0,0.0,4251.538574,4262.563965,4262.436035,4297.307617,4206.025879,4229.615234,4549.102539,4196.538574,4214.358887,4200.512695,4526.410156,4503.589844,4383.205078,4447.436035,2583.0,1.0,15.0,,,,0.0,4.0,4.0,4.0,4.0,4.0,4.0,4.0,4.0,4.0,4.0,4.0,4.0,4.0,4.0,100.0,,,,,,,,,,,,,,,,,,,,,,,,,,,,,,,,,,,,,,,,,,,,,,,,,,,,,,,,,,,,,,,,,,,,,,,,,,,,,,,,,,,,,,,,,,,,,,,,,,,,,,,,,,,,,,,,,,,,,,,,,,,,,,,,,,,
1725710377.255447,1725710377.257776,2.0,0.0,4251.922852,4266.282227,4263.717773,4298.461426,4206.025879,4230.897461,4544.230957,4199.102539,4216.666504,4202.820313,4536.794922,4506.282227,4387.307617,4447.436035,2510.0,1.0,15.0,,,,0.0,4.0,4.0,4.0,4.0,4.0,4.0,4.0,4.0,4.0,4.0,4.0,4.0,4.0,4.0,100.0,,,,,,,,,,,,,,,,,,,,,,,,,,,,,,,,,,,,,,,,,,,,,,,,,,,,,,,,,,,,,,,,,,,,,,,,,,,,,,,,,,,,,,,,,,,,,,,,,,,,,,,,,,,,,,,,,,,,,,,,,,,,,,,,,,,
1725710377.259351,1725710377.26168,3.0,0.0,4251.282227,4267.05127,4264.615234,4298.333496,4206.025879,4232.05127,4536.922852,4202.820313,4222.820313,4204.487305,4541.922852,4508.717773,4388.077148,4444.230957,2476.0,1.0,15.0,,,,0.0,4.0,4.0,4.0,4.0,4.0,4.0,4.0,4.0,4.0,4.0,4.0,4.0,4.0,4.0,100.0,,,,,,,,,,,,,,,,,,,,,,,,,,,,,,,,,,,,,,,,,,,,,,,,,,,,,,,,,,,,,,,,,,,,,,,,,,,,,,,,,,,,,,,,,,,,,,,,,,,,,,,,,,,,,,,,,,,,,,,,,,,,,,,,,,,
1725710377.263255,1725710377.265684,4.0,0.0,4249.743652,4263.589844,4265.0,4297.05127,4206.025879,4232.692383,4528.589844,4208.205078,4230.0,4204.743652,4540.256348,4508.717773,4382.436035,4438.589844,2441.0,1.0,15.0,,,,0.0,4.0,4.0,4.0,4.0,4.0,4.0,4.0,4.0,4.0,4.0,4.0,4.0,4.0,4.0,100.0,,,,,,,,,,,,,,,,,,,,,,,,,,,,,,,,,,,,,,,,,,,,,,,,,,,,,,,,,,,,,,,,,,,,,,,,,,,,,,,,,,,,,,,,,,,,,,,,,,,,,,,,,,,,,,,,,,,,,,,,,,,,,,,,,,,
1725710377.26716,1725710377.269588,5.0,0.0,4247.820313,4257.563965,4264.743652,4295.641113,4206.025879,4232.820313,4521.794922,4214.230957,4234.871582,4204.358887,4534.487305,4505.769043,4371.922852,4432.692383,2408.0,1.0,15.0,,,,0.0,4.0,4.0,4.0,4.0,4.0,4.0,4.0,4.0,4.0,4.0,4.0,4.0,4.0,4.0,100.0,,,,,,,,,,,,,,,,,,,,,,,,,,,,,,,,,,,,,,,,,,,,,,,,,,,,,,,,,,,,,,,,,,,,,,,,,,,,,,,,,,,,,,,,,,,,,,,,,,,,,,,,,,,,,,,,,,,,,,,,,,,,,,,,,,,
1725710377.271064,1725710377.273492,6.0,0.0,4246.025879,4252.179688,4263.077148,4295.0,4206.025879,4232.563965,4517.820313,4218.333496,4236.282227,4204.102539,4527.563965,4500.512695,4361.410156,4428.461426,2434.0,1.0,15.0,,,,0.0,4.0,4.0,4.0,4.0,4.0,4.0,4.0,4.0,4.0,4.0,4.0,4.0,4.0,4.0,100.0,,,,,,,,,,,,,,,,,,,,,,,,,,,,,,,,,,,,,,,,,,,,,,,,,,,,,,,,,,,,,,,,,,,,,,,,,,,,,,,,,,,,,,,,,,,,,,,,,,,,,,,,,,,,,,,,,,,,,,,,,,,,,,,,,,,
1725710377.274968,1725710377.277396,7.0,0.0,4245.0,4249.102539,4259.358887,4295.769043,4206.025879,4232.307617,4516.538574,4218.974121,4234.871582,4203.846191,4521.666504,4494.358887,4356.410156,4426.153809,2483.0,1.0,15.0,,,,0.0,4.0,4.0,4.0,4.0,4.0,4.0,4.0,4.0,4.0,4.0,4.0,4.0,4.0,4.0,100.0,,,,,,,,,,,,,,,,,,,,,,,,,,,,,,,,,,,,,,,,,,,,,,,,,,,,,,,,,,,,,,,,,,,,,,,,,,,,,,,,,,,,,,,,,,,,,,,,,,,,,,,,,,,,,,,,,,,,,,,,,,,,,,,,,,,
1725710377.278872,1725710377.2813,8.0,0.0,4244.487305,4248.589844,4254.615234,4296.922852,4206.025879,4232.05127,4516.922852,4216.666504,4232.820313,4203.077148,4516.666504,4489.743652,4358.717773,4425.384766,2469.0,1.0,15.0,,,,0.0,4.0,4.0,4.0,4.0,4.0,4.0,4.0,4.0,4.0,4.0,4.0,4.0,4.0,4.0,100.0,,,,,,,,,,,,,,,,,,,,,,,,,,,,,,,,,,,,,,,,,,,,,,,,,,,,,,,,0.0,0.0,1.0,0.0,1024.0,0.061846,,,,,,,,,,,,,,,,,,,,,,,,,,,,,,,,,,,,,,,,,,,,,,,,,,,,,,,,,,,,,,,,,,,,,,
1725710377.282776,1725710377.285304,9.0,0.0,4244.230957,4249.358887,4250.641113,4297.307617,4206.025879,4232.05127,4518.333496,4213.717773,4231.538574,4201.666504,4512.05127,4487.94873,4365.384766,4425.256348,2568.0,1.0,15.0,,,,0.0,4.0,4.0,4.0,4.0,4.0,4.0,4.0,4.0,4.0,4.0,4.0,4.0,4.0,4.0,100.0,,,,,,,,,,,,,,,,,,,,,,,,,,,,,,,,,,,,,,,,,,,,,,,,,,,,,,,,,,,,,,,,,,,,,,,,,,,,,,,,,,,,,,,,,,,,,,,,,,,,,,,,,,,,,,,,,,,,,,,,,,,,,,,,,,,
1725710377.28668,1725710377.289208,10.0,0.0,4243.717773,4250.128418,4248.974121,4296.025879,4206.025879,4232.436035,4519.743652,4212.307617,4231.282227,4200.256348,4507.94873,4488.717773,4371.025879,4425.769043,2905.0,1.0,15.0,,,,0.0,4.0,4.0,4.0,4.0,4.0,4.0,4.0,4.0,4.0,4.0,4.0,4.0,4.0,4.0,100.0,,,,,,,,,,,,,,,,,,,,,,,,,,,,,,,,,,,,,,,,,,,,,,,,,,,,,,,,,,,,,,,,,,,,,,,,,,,,,,,,,,,,,,,,,,,,,,,,,,,,,,,,,,,,,,,,,,,,,,,,,,,,,,,,,,,
1725710377.290584,1725710377.293113,11.0,0.0,4243.077148,4250.256348,4249.743652,4293.846191,4206.025879,4232.94873,4519.615234,4213.205078,4232.05127,4199.871582,4505.0,4489.871582,4371.794922,4426.538574,3144.0,1.0,15.0,,,,0.0,4.0,4.0,4.0,4.0,4.0,4.0,4.0,4.0,4.0,4.0,4.0,4.0,4.0,4.0,100.0,,,,,,,,,,,,,,,,,,,,,,,,,,,,,,,,,,,,,,,,,,,,,,,,,,,,,,,,,,,,,,,,,,,,,,,,,,,,,,,,,,,,,,,,,,,,,,,,,,,,,,,,,,,,,,,,,,,,,,,,,,,,,,,,,,,
1725710377.294488,1725710377.297017,12.0,0.0,4242.820313,4250.641113,4251.666504,4292.179688,4205.897461,4233.077148,4518.077148,4215.384766,4233.205078,4201.025879,4503.974121,4490.0,4368.077148,4427.179688,3420.0,1.0,15.0,,,,0.0,4.0,4.0,4.0,4.0,4.0,4.0,4.0,4.0,4.0,4.0,4.0,4.0,4.0,4.0,100.0,,,,,,,,,,,,,,,,,,,,,,,,,,,,,,,,,,,,,,,,,,,,,,,,,,,,,,,,,,,,,,,,,,,,,,,,,,,,,,,,,,,,,,,,,,,,,,,,,,,,,,,,,,,,,,,,,,,,,,,,,,,,,,,,,,,
1725710377.298392,1725710377.300821,13.0,0.0,4243.461426,4252.307617,4252.820313,4291.794922,4205.641113,4232.692383,4516.410156,4217.179688,4234.358887,4202.307617,4505.0,4488.974121,4363.333496,4427.692383,3922.0,1.0,15.0,,,,0.0,4.0,4.0,4.0,4.0,4.0,4.0,4.0,4.0,4.0,4.0,4.0,4.0,4.0,4.0,100.0,,,,,,,,,,,,,,,,,,,,,,,,,,,,,,,,,,,,,,,,,,,,,,,,,,,,,,,,,,,,,,,,,,,,,,,,,,,,,,,,,,,,,,,,,,,,,,,,,,,,,,,,,,,,,,,,,,,,,,,,,,,,,,,,,,,
1725710377.302297,1725710377.304725,14.0,0.0,4244.871582,4255.256348,4251.922852,4292.307617,4205.384766,4231.922852,4515.641113,4217.436035,4234.743652,4202.692383,4508.461426,4488.717773,4362.05127,4428.205078,2905.0,1.0,15.0,,,,0.0,4.0,4.0,4.0,4.0,4.0,4.0,4.0,4.0,4.0,4.0,4.0,4.0,4.0,4.0,100.0,,,,,,,,,,,,,,,,,,,,,,,,,,,,,,,,,,,,,,,,,,,,,,,,,,,,,,,,,,,,,,,,,,,,,,,,,,,,,,,,,,,,,,,,,,,,,,,,,,,,,,,,,,,,,,,,,,,,,,,,,,,,,,,,,,,
1725710377.3062,1725710377.308629,15.0,0.0,4246.666504,4258.846191,4250.128418,4293.077148,4205.641113,4231.153809,4516.282227,4215.897461,4233.846191,4202.179688,4514.487305,4491.025879,4365.384766,4429.487305,3144.0,1.0,15.0,,,,0.0,4.0,4.0,4.0,4.0,4.0,4.0,4.0,4.0,4.0,4.0,4.0,4.0,4.0,4.0,100.0,,,,,,,,,,,,,,,,,,,,,,,,,,,,,,,,,,,,,,,,,,,,,,,,,,,,,,,,,,,,,,,,,,,,,,,,,,,,,,,,,,,,,,,,,,,,,,,,,,,,,,,,,,,,,,,,,,,,,,,,,,,,,,,,,,,
1725710377.310104,1725710377.312533,16.0,0.0,4248.333496,4261.666504,4249.871582,4293.589844,4206.282227,4231.025879,4517.563965,4214.102539,4232.179688,4202.179688,4522.820313,4495.641113,4371.666504,4432.436035,3420.0,1.0,15.0,,,,0.0,4.0,4.0,4.0,4.0,4.0,4.0,4.0,4.0,4.0,4.0,4.0,4.0,4.0,4.0,100.0,1.0,50.0,4.0,4.0,4.0,4.0,4.0,1.0,1.0,4.0,4.0,4.0,4.0,4.0,4.0,4.0,1.0,0.0,0.0,,,,,,,,,,,,,,,,,,,,,,,,,,,,,,,,,,,,,0.0,0.0,1.0,0.0,1024.0,0.001702,1.104413,0.407053,0.339373,0.10414,0.050652,1.759778,0.663487,0.441954,0.196346,0.126794,1.373372,0.739722,0.511076,0.093287,0.072401,2.288775,0.492951,0.775218,0.20374,0.160673,0.561317,0.218419,0.317409,0.090272,0.092226,0.180288,0.225112,0.079044,0.049738,0.049504,10.738707,1.740907,0.491039,0.216809,0.059599,0.526123,0.75197,0.372582,0.308953,0.199189,1.346901,1.107931,0.257808,0.199914,0.124034,1.274506,1.72295,0.788104,0.370592,0.16882,2.666041,1.735977,1.226389,0.489743,0.332161,1.603315,1.083588,1.49547,0.494782,0.231968,3.215056,1.593598,0.924573,0.446068,0.193942,2.068195,1.445928,0.96655,0.355609,0.136186
1725710377.314009,1725710377.316437,17.0,0.0,4249.487305,4262.692383,4252.563965,4294.102539,4206.538574,4231.666504,4518.333496,4213.333496,4230.769043,4203.333496,4531.794922,4501.538574,4377.94873,4437.05127,3922.0,1.0,15.0,,,,0.0,4.0,4.0,4.0,4.0,4.0,4.0,4.0,4.0,4.0,4.0,4.0,4.0,4.0,4.0,100.0,,,,,,,,,,,,,,,,,,,,,,,,,,,,,,,,,,,,,,,,,,,,,,,,,,,,,,,,,,,,,,,,,,,,,,,,,,,,,,,,,,,,,,,,,,,,,,,,,,,,,,,,,,,,,,,,,,,,,,,,,,,,,,,,,,,
1725710377.317913,1725710377.320241,18.0,0.0,4249.871582,4261.666504,4257.436035,4294.487305,4206.153809,4232.820313,4517.436035,4214.487305,4230.0,4205.769043,4538.974121,4506.922852,4382.05127,4442.436035,2905.0,1.0,15.0,,,,0.0,4.0,4.0,4.0,4.0,4.0,4.0,4.0,4.0,4.0,4.0,4.0,4.0,4.0,4.0,100.0,,,,,,,,,,,,,,,,,,,,,,,,,,,,,,,,,,,,,,,,,,,,,,,,,,,,,,,,,,,,,,,,,,,,,,,,,,,,,,,,,,,,,,,,,,,,,,,,,,,,,,,,,,,,,,,,,,,,,,,,,,,,,,,,,,,
1725710377.321817,1725710377.324146,19.0,0.0,4249.615234,4259.230957,4261.153809,4294.487305,4205.0,4233.974121,4514.743652,4216.282227,4229.743652,4208.077148,4541.794922,4510.256348,4383.077148,4446.666504,3144.0,1.0,15.0,,,,0.0,4.0,4.0,4.0,4.0,4.0,4.0,4.0,4.0,4.0,4.0,4.0,4.0,4.0,4.0,100.0,,,,,,,,,,,,,,,,,,,,,,,,,,,,,,,,,,,,,,,,,,,,,,,,,,,,,,,,,,,,,,,,,,,,,,,,,,,,,,,,,,,,,,,,,,,,,,,,,,,,,,,,,,,,,,,,,,,,,,,,,,,,,,,,,,,
1725710377.325721,1725710377.32805,20.0,0.0,4249.230957,4256.538574,4261.666504,4293.333496,4204.487305,4234.358887,4511.538574,4216.794922,4229.871582,4208.589844,4538.717773,4510.641113,4380.897461,4447.820313,3420.0,1.0,15.0,,,,0.0,4.0,4.0,4.0,4.0,4.0,4.0,4.0,4.0,4.0,4.0,4.0,4.0,4.0,4.0,100.0,,,,,,,,,,,,,,,,,,,,,,,,,,,,,,,,,,,,,,,,,,,,,,,,,,,,,,,,,,,,,,,,,,,,,,,,,,,,,,,,,,,,,,,,,,,,,,,,,,,,,,,,,,,,,,,,,,,,,,,,,,,,,,,,,,,
1725710377.329625,1725710377.331854,21.0,0.0,4249.102539,4254.487305,4258.974121,4291.410156,4205.512695,4233.846191,4509.230957,4214.230957,4229.871582,4207.307617,4530.897461,4508.077148,4376.153809,4445.0,3922.0,1.0,15.0,,,,0.0,4.0,4.0,4.0,4.0,4.0,4.0,4.0,4.0,4.0,4.0,4.0,4.0,4.0,4.0,100.0,,,,,,,,,,,,,,,,,,,,,,,,,,,,,,,,,,,,,,,,,,,,,,,,,,,,,,,,,,,,,,,,,,,,,,,,,,,,,,,,,,,,,,,,,,,,,,,,,,,,,,,,,,,,,,,,,,,,,,,,,,,,,,,,,,,
1725710377.333529,1725710377.335758,22.0,0.0,4249.102539,4254.102539,4255.641113,4290.0,4208.461426,4233.077148,4509.102539,4208.589844,4229.358887,4205.256348,4521.922852,4503.589844,4370.512695,4439.487305,2905.0,1.0,15.0,,,,0.0,4.0,4.0,4.0,4.0,4.0,4.0,4.0,4.0,4.0,4.0,4.0,4.0,4.0,4.0,100.0,,,,,,,,,,,,,,,,,,,,,,,,,,,,,,,,,,,,,,,,,,,,,,,,,,,,,,,,,,,,,,,,,,,,,,,,,,,,,,,,,,,,,,,,,,,,,,,,,,,,,,,,,,,,,,,,,,,,,,,,,,,,,,,,,,,
1725710377.337433,1725710377.339662,23.0,0.0,4249.102539,4255.641113,4254.230957,4290.512695,4212.179688,4232.436035,4510.512695,4201.794922,4228.589844,4203.589844,4516.025879,4498.717773,4366.922852,4433.461426,3144.0,1.0,15.0,,,,0.0,4.0,4.0,4.0,4.0,4.0,4.0,4.0,4.0,4.0,4.0,4.0,4.0,4.0,4.0,100.0,,,,,,,,,,,,,,,,,,,,,,,,,,,,,,,,,,,,,,,,,,,,,,,,,,,,,,,,,,,,,,,,,,,,,,,,,,,,,,,,,,,,,,,,,,,,,,,,,,,,,,,,,,,,,,,,,,,,,,,,,,,,,,,,,,,
1725710377.341337,1725710377.343666,24.0,0.0,4248.974121,4259.358887,4255.641113,4293.589844,4214.743652,4232.307617,4512.05127,4196.922852,4228.077148,4202.692383,4515.256348,4494.230957,4368.077148,4429.230957,3420.0,1.0,15.0,,,,0.0,4.0,4.0,4.0,4.0,4.0,4.0,4.0,4.0,4.0,4.0,4.0,4.0,4.0,4.0,100.0,,,,,,,,,,,,,,,,,,,,,,,,,,,,,,,,,,,,,,,,,,,,,,,,,,,,,,,,0.0,0.0,1.0,0.0,1024.0,0.001702,,,,,,,,,,,,,,,,,,,,,,,,,,,,,,,,,,,,,,,,,,,,,,,,,,,,,,,,,,,,,,,,,,,,,,
1725710377.345241,1725710377.34757,25.0,0.0,4248.846191,4263.846191,4258.717773,4298.205078,4214.871582,4232.563965,4512.179688,4195.769043,4228.205078,4202.692383,4518.333496,4491.025879,4373.974121,4428.077148,3922.0,1.0,15.0,,,,0.0,4.0,4.0,4.0,4.0,4.0,4.0,4.0,4.0,4.0,4.0,4.0,4.0,4.0,4.0,100.0,,,,,,,,,,,,,,,,,,,,,,,,,,,,,,,,,,,,,,,,,,,,,,,,,,,,,,,,,,,,,,,,,,,,,,,,,,,,,,,,,,,,,,,,,,,,,,,,,,,,,,,,,,,,,,,,,,,,,,,,,,,,,,,,,,,
1725710377.349146,1725710377.351474,26.0,0.0,4249.230957,4267.179688,4261.282227,4302.436035,4212.820313,4232.94873,4510.769043,4197.307617,4229.102539,4203.205078,4522.05127,4489.615234,4380.897461,4429.487305,2905.0,1.0,15.0,,,,0.0,4.0,4.0,4.0,4.0,4.0,4.0,4.0,4.0,4.0,4.0,4.0,4.0,4.0,4.0,100.0,,,,,,,,,,,,,,,,,,,,,,,,,,,,,,,,,,,,,,,,,,,,,,,,,,,,,,,,,,,,,,,,,,,,,,,,,,,,,,,,,,,,,,,,,,,,,,,,,,,,,,,,,,,,,,,,,,,,,,,,,,,,,,,,,,,
1725710377.35305,1725710377.355378,27.0,0.0,4249.743652,4268.205078,4261.794922,4304.487305,4210.512695,4232.94873,4508.846191,4199.743652,4230.0,4204.487305,4523.717773,4490.128418,4384.871582,4431.922852,3144.0,1.0,15.0,,,,0.0,4.0,4.0,4.0,4.0,4.0,4.0,4.0,4.0,4.0,4.0,4.0,4.0,4.0,4.0,100.0,,,,,,,,,,,,,,,,,,,,,,,,,,,,,,,,,,,,,,,,,,,,,,,,,,,,,,,,,,,,,,,,,,,,,,,,,,,,,,,,,,,,,,,,,,,,,,,,,,,,,,,,,,,,,,,,,,,,,,,,,,,,,,,,,,,
1725710377.356954,1725710377.359283,28.0,0.0,4249.743652,4267.05127,4260.384766,4304.230957,4210.0,4232.820313,4507.179688,4201.410156,4230.384766,4206.794922,4522.05127,4492.692383,4384.358887,4434.102539,3420.0,1.0,15.0,,,,0.0,4.0,4.0,4.0,4.0,4.0,4.0,4.0,4.0,4.0,4.0,4.0,4.0,4.0,4.0,100.0,,,,,,,,,,,,,,,,,,,,,,,,,,,,,,,,,,,,,,,,,,,,,,,,,,,,,,,,,,,,,,,,,,,,,,,,,,,,,,,,,,,,,,,,,,,,,,,,,,,,,,,,,,,,,,,,,,,,,,,,,,,,,,,,,,,
1725710377.360858,1725710377.363087,29.0,0.0,4249.230957,4265.641113,4258.461426,4301.922852,4211.922852,4232.563965,4506.025879,4202.436035,4230.384766,4209.615234,4518.589844,4496.666504,4381.538574,4435.641113,3922.0,1.0,15.0,,,,0.0,4.0,4.0,4.0,4.0,4.0,4.0,4.0,4.0,4.0,4.0,4.0,4.0,4.0,4.0,100.0,,,,,,,,,,,,,,,,,,,,,,,,,,,,,,,,,,,,,,,,,,,,,,,,,,,,,,,,,,,,,,,,,,,,,,,,,,,,,,,,,,,,,,,,,,,,,,,,,,,,,,,,,,,,,,,,,,,,,,,,,,,,,,,,,,,
1725710377.364762,1725710377.366991,30.0,0.0,4248.589844,4265.512695,4257.692383,4299.487305,4215.256348,4232.563965,4505.0,4204.230957,4230.512695,4212.307617,4516.410156,4501.153809,4379.487305,4437.05127,2905.0,1.0,15.0,,,,0.0,4.0,4.0,4.0,4.0,4.0,4.0,4.0,4.0,4.0,4.0,4.0,4.0,4.0,4.0,100.0,,,,,,,,,,,,,,,,,,,,,,,,,,,,,,,,,,,,,,,,,,,,,,,,,,,,,,,,,,,,,,,,,,,,,,,,,,,,,,,,,,,,,,,,,,,,,,,,,,,,,,,,,,,,,,,,,,,,,,,,,,,,,,,,,,,
1725710377.368666,1725710377.370995,31.0,0.0,4248.717773,4266.538574,4258.461426,4298.205078,4217.307617,4232.563965,4503.974121,4208.333496,4231.538574,4214.615234,4517.692383,4505.256348,4379.743652,4438.974121,3144.0,1.0,15.0,,,,0.0,4.0,4.0,4.0,4.0,4.0,4.0,4.0,4.0,4.0,4.0,4.0,4.0,4.0,4.0,100.0,,,,,,,,,,,,,,,,,,,,,,,,,,,,,,,,,,,,,,,,,,,,,,,,,,,,,,,,,,,,,,,,,,,,,,,,,,,,,,,,,,,,,,,,,,,,,,,,,,,,,,,,,,,,,,,,,,,,,,,,,,,,,,,,,,,
1725710377.37257,1725710377.374899,32.0,0.0,4250.256348,4267.563965,4260.128418,4299.487305,4216.666504,4232.563965,4503.846191,4213.846191,4233.461426,4216.410156,4523.077148,4508.717773,4381.153809,4441.282227,0.0,1.0,15.0,,,,0.0,4.0,4.0,4.0,4.0,4.0,4.0,4.0,4.0,4.0,4.0,4.0,4.0,4.0,4.0,100.0,,,,,,,,,,,,,,,,,,,,,,,,,,,,,,,,,,,,,,,,,,,,,,,,,,,,,,,,0.0,0.0,1.0,0.0,1024.0,0.001702,,,,,,,,,,,,,,,,,,,,,,,,,,,,,,,,,,,,,,,,,,,,,,,,,,,,,,,,,,,,,,,,,,,,,,
1725710377.376474,1725710377.378803,33.0,0.0,4253.717773,4267.436035,4261.666504,4303.205078,4214.358887,4232.563965,4505.256348,4218.846191,4235.256348,4216.922852,4530.897461,4511.153809,4381.538574,4443.333496,0.0,1.0,15.0,,,,0.0,4.0,4.0,4.0,4.0,4.0,4.0,4.0,4.0,4.0,4.0,4.0,4.0,4.0,4.0,100.0,,,,,,,,,,,,,,,,,,,,,,,,,,,,,,,,,,,,,,,,,,,,,,,,,,,,,,,,,,,,,,,,,,,,,,,,,,,,,,,,,,,,,,,,,,,,,,,,,,,,,,,,,,,,,,,,,,,,,,,,,,,,,,,,,,,
1725710377.380378,1725710377.382707,34.0,0.0,4258.333496,4266.025879,4262.692383,4307.563965,4212.820313,4232.563965,4507.307617,4221.153809,4235.897461,4215.641113,4537.94873,4512.05127,4379.871582,4444.615234,0.0,1.0,15.0,,,,0.0,4.0,4.0,4.0,4.0,4.0,4.0,4.0,4.0,4.0,4.0,4.0,4.0,4.0,4.0,100.0,,,,,,,,,,,,,,,,,,,,,,,,,,,,,,,,,,,,,,,,,,,,,,,,,,,,,,,,,,,,,,,,,,,,,,,,,,,,,,,,,,,,,,,,,,,,,,,,,,,,,,,,,,,,,,,,,,,,,,,,,,,,,,,,,,,
1725710377.384282,1725710377.386711,35.0,0.0,4261.794922,4264.487305,4263.461426,4309.871582,4213.077148,4232.820313,4508.974121,4220.769043,4235.641113,4213.333496,4541.025879,4511.410156,4377.05127,4444.743652,0.0,1.0,15.0,,,,0.0,4.0,4.0,4.0,4.0,4.0,4.0,4.0,4.0,4.0,4.0,4.0,4.0,4.0,4.0,100.0,,,,,,,,,,,,,,,,,,,,,,,,,,,,,,,,,,,,,,,,,,,,,,,,,,,,,,,,,,,,,,,,,,,,,,,,,,,,,,,,,,,,,,,,,,,,,,,,,,,,,,,,,,,,,,,,,,,,,,,,,,,,,,,,,,,
1725710377.388187,1725710377.390615,36.0,0.0,4262.307617,4263.717773,4263.589844,4308.333496,4214.230957,4233.077148,4509.230957,4219.358887,4235.641113,4211.282227,4539.743652,4509.487305,4374.487305,4444.102539,0.0,1.0,15.0,,,,0.0,4.0,4.0,4.0,4.0,4.0,4.0,4.0,4.0,4.0,4.0,4.0,4.0,4.0,4.0,100.0,,,,,,,,,,,,,,,,,,,,,,,,,,,,,,,,,,,,,,,,,,,,,,,,,,,,,,,,,,,,,,,,,,,,,,,,,,,,,,,,,,,,,,,,,,,,,,,,,,,,,,,,,,,,,,,,,,,,,,,,,,,,,,,,,,,
1725710377.392091,1725710377.394519,37.0,0.0,4259.615234,4263.205078,4262.820313,4303.205078,4214.230957,4232.94873,4508.077148,4218.717773,4236.410156,4210.256348,4535.897461,4507.436035,4372.94873,4443.205078,0.0,1.0,15.0,,,,0.0,4.0,4.0,4.0,4.0,4.0,4.0,4.0,4.0,4.0,4.0,4.0,4.0,4.0,4.0,100.0,,,,,,,,,,,,,,,,,,,,,,,,,,,,,,,,,,,,,,,,,,,,,,,,,,,,,,,,,,,,,,,,,,,,,,,,,,,,,,,,,,,,,,,,,,,,,,,,,,,,,,,,,,,,,,,,,,,,,,,,,,,,,,,,,,,
1725710377.395995,1725710377.398423,38.0,0.0,4255.769043,4262.307617,4261.025879,4296.794922,4211.922852,4232.436035,4506.282227,4219.102539,4237.94873,4210.641113,4532.820313,4506.282227,4371.922852,4442.436035,0.0,1.0,15.0,,,,0.0,4.0,4.0,4.0,4.0,4.0,4.0,4.0,4.0,4.0,4.0,4.0,4.0,4.0,4.0,100.0,,,,,,,,,,,,,,,,,,,,,,,,,,,,,,,,,,,,,,,,,,,,,,,,,,,,,,,,,,,,,,,,,,,,,,,,,,,,,,,,,,,,,,,,,,,,,,,,,,,,,,,,,,,,,,,,,,,,,,,,,,,,,,,,,,,
1725710377.399899,1725710377.402328,39.0,0.0,4253.333496,4261.666504,4259.615234,4292.94873,4208.205078,4232.05127,4505.384766,4219.487305,4239.487305,4212.563965,4532.692383,4506.794922,4371.025879,4441.922852,0.0,1.0,15.0,,,,0.0,4.0,4.0,4.0,4.0,4.0,4.0,4.0,4.0,4.0,4.0,4.0,4.0,4.0,4.0,100.0,,,,,,,,,,,,,,,,,,,,,,,,,,,,,,,,,,,,,,,,,,,,,,,,,,,,,,,,,,,,,,,,,,,,,,,,,,,,,,,,,,,,,,,,,,,,,,,,,,,,,,,,,,,,,,,,,,,,,,,,,,,,,,,,,,,
1725710377.403803,1725710377.406132,40.0,0.0,4253.333496,4261.922852,4259.743652,4293.846191,4205.0,4232.307617,4506.538574,4219.230957,4239.743652,4215.769043,4534.871582,4508.846191,4370.641113,4442.692383,0.0,1.0,15.0,,,,0.0,4.0,4.0,4.0,4.0,4.0,4.0,4.0,4.0,4.0,4.0,4.0,4.0,4.0,4.0,100.0,,,,,,,,,,,,,,,,,,,,,,,,,,,,,,,,,,,,,,,,,,,,,,,,,,,,,,,,0.0,0.0,1.0,0.0,1024.0,0.001702,,,,,,,,,,,,,,,,,,,,,,,,,,,,,,,,,,,,,,,,,,,,,,,,,,,,,,,,,,,,,,,,,,,,,,
1725710377.407707,1725710377.410036,41.0,0.0,4255.256348,4263.205078,4261.538574,4298.077148,4203.461426,4233.077148,4508.589844,4218.077148,4238.589844,4218.974121,4537.05127,4511.666504,4371.922852,4444.615234,0.0,1.0,15.0,,,,0.0,4.0,4.0,4.0,4.0,4.0,4.0,4.0,4.0,4.0,4.0,4.0,4.0,4.0,4.0,100.0,,,,,,,,,,,,,,,,,,,,,,,,,,,,,,,,,,,,,,,,,,,,,,,,,,,,,,,,,,,,,,,,,,,,,,,,,,,,,,,,,,,,,,,,,,,,,,,,,,,,,,,,,,,,,,,,,,,,,,,,,,,,,,,,,,,
1725710377.411611,1725710377.41394,42.0,0.0,4257.563965,4264.358887,4262.820313,4301.282227,4203.461426,4234.487305,4509.230957,4216.794922,4236.410156,4220.384766,4536.666504,4513.717773,4375.256348,4446.922852,0.0,1.0,15.0,,,,0.0,4.0,4.0,4.0,4.0,4.0,4.0,4.0,4.0,4.0,4.0,4.0,4.0,4.0,4.0,100.0,,,,,,,,,,,,,,,,,,,,,,,,,,,,,,,,,,,,,,,,,,,,,,,,,,,,,,,,,,,,,,,,,,,,,,,,,,,,,,,,,,,,,,,,,,,,,,,,,,,,,,,,,,,,,,,,,,,,,,,,,,,,,,,,,,,
1725710377.415515,1725710377.417844,43.0,0.0,4258.077148,4264.102539,4261.666504,4299.487305,4203.846191,4235.256348,4506.410156,4216.025879,4234.871582,4217.820313,4532.436035,4513.077148,4379.102539,4447.94873,0.0,1.0,15.0,,,,0.0,4.0,4.0,4.0,4.0,4.0,4.0,4.0,4.0,4.0,4.0,4.0,4.0,4.0,4.0,100.0,,,,,,,,,,,,,,,,,,,,,,,,,,,,,,,,,,,,,,,,,,,,,,,,,,,,,,,,,,,,,,,,,,,,,,,,,,,,,,,,,,,,,,,,,,,,,,,,,,,,,,,,,,,,,,,,,,,,,,,,,,,,,,,,,,,
1725710377.419419,1725710377.421748,44.0,0.0,4255.512695,4261.282227,4258.077148,4292.436035,4203.461426,4234.743652,4500.384766,4215.769043,4234.871582,4211.153809,4525.641113,4508.333496,4380.641113,4446.153809,0.0,1.0,15.0,,,,0.0,4.0,4.0,4.0,4.0,4.0,4.0,4.0,4.0,4.0,4.0,4.0,4.0,4.0,4.0,100.0,,,,,,,,,,,,,,,,,,,,,,,,,,,,,,,,,,,,,,,,,,,,,,,,,,,,,,,,,,,,,,,,,,,,,,,,,,,,,,,,,,,,,,,,,,,,,,,,,,,,,,,,,,,,,,,,,,,,,,,,,,,,,,,,,,,
1725710377.423324,1725710377.425552,45.0,0.0,4249.871582,4256.025879,4253.717773,4284.230957,4202.05127,4233.205078,4493.974121,4215.769043,4235.897461,4202.307617,4518.717773,4500.384766,4377.563965,4440.769043,0.0,1.0,15.0,,,,0.0,4.0,4.0,4.0,4.0,4.0,4.0,4.0,4.0,4.0,4.0,4.0,4.0,4.0,4.0,100.0,,,,,,,,,,,,,,,,,,,,,,,,,,,,,,,,,,,,,,,,,,,,,,,,,,,,,,,,,,,,,,,,,,,,,,,,,,,,,,,,,,,,,,,,,,,,,,,,,,,,,,,,,,,,,,,,,,,,,,,,,,,,,,,,,,,
1725710377.427228,1725710377.429457,46.0,0.0,4243.205078,4249.615234,4250.769043,4278.974121,4199.743652,4231.538574,4489.871582,4215.897461,4235.128418,4193.846191,4513.846191,4491.538574,4369.487305,4431.922852,0.0,1.0,15.0,,,,0.0,4.0,4.0,4.0,4.0,4.0,4.0,4.0,4.0,4.0,4.0,4.0,4.0,4.0,4.0,100.0,,,,,,,,,,,,,,,,,,,,,,,,,,,,,,,,,,,,,,,,,,,,,,,,,,,,,,,,,,,,,,,,,,,,,,,,,,,,,,,,,,,,,,,,,,,,,,,,,,,,,,,,,,,,,,,,,,,,,,,,,,,,,,,,,,,
1725710377.431132,1725710377.433361,47.0,0.0,4237.307617,4243.205078,4249.487305,4277.94873,4197.05127,4230.512695,4488.461426,4216.282227,4230.384766,4187.436035,4510.769043,4483.717773,4358.461426,4421.153809,0.0,1.0,15.0,,,,0.0,4.0,4.0,4.0,4.0,4.0,4.0,4.0,4.0,4.0,4.0,4.0,4.0,4.0,4.0,100.0,,,,,,,,,,,,,,,,,,,,,,,,,,,,,,,,,,,,,,,,,,,,,,,,,,,,,,,,,,,,,,,,,,,,,,,,,,,,,,,,,,,,,,,,,,,,,,,,,,,,,,,,,,,,,,,,,,,,,,,,,,,,,,,,,,,
1725710377.435036,1725710377.437165,48.0,0.0,4232.820313,4237.05127,4248.205078,4278.461426,4193.461426,4230.512695,4487.563965,4216.666504,4222.692383,4182.820313,4507.820313,4477.436035,4347.307617,4410.641113,0.0,1.0,15.0,,,,0.0,4.0,4.0,4.0,4.0,4.0,4.0,4.0,4.0,4.0,4.0,4.0,4.0,4.0,4.0,100.0,,,,,,,,,,,,,,,,,1.0,0.0,0.0,,,,,,,,,,,,,,,,,,,,,,,,,,,,,,,,,,,,,0.0,0.0,1.0,0.0,1024.0,0.0,1.310327,0.480783,0.370234,0.109884,0.061379,1.923747,0.689436,0.463403,0.217245,0.133935,1.674212,0.727581,0.522887,0.083734,0.078851,2.344065,0.498605,0.804673,0.211606,0.17422,0.686555,0.238959,0.35431,0.095609,0.094802,0.164353,0.29748,0.100899,0.05926,0.056677,9.892258,1.459992,0.589531,0.18046,0.05041,0.498486,0.749091,0.434116,0.299517,0.205258,1.352696,1.232751,0.308292,0.234825,0.128511,1.316005,1.79351,0.920695,0.396264,0.179471,2.79689,1.80203,1.396305,0.526674,0.362643,1.832733,0.991822,1.635839,0.508677,0.232912,3.587628,1.826889,0.94225,0.409163,0.200099,2.394081,1.40843,1.048414,0.331192,0.130926
1725710377.43894,1725710377.441069,49.0,0.0,4229.358887,4231.410156,4244.743652,4276.922852,4189.358887,4230.897461,4485.0,4216.153809,4215.769043,4179.871582,4504.230957,4472.563965,4339.102539,4403.205078,0.0,1.0,15.0,,,,0.0,4.0,4.0,4.0,4.0,4.0,4.0,4.0,4.0,4.0,4.0,4.0,4.0,4.0,4.0,100.0,,,,,,,,,,,,,,,,,,,,,,,,,,,,,,,,,,,,,,,,,,,,,,,,,,,,,,,,,,,,,,,,,,,,,,,,,,,,,,,,,,,,,,,,,,,,,,,,,,,,,,,,,,,,,,,,,,,,,,,,,,,,,,,,,,,
1725710377.442844,1725710377.444973,50.0,0.0,4226.922852,4227.05127,4239.102539,4272.05127,4185.641113,4231.282227,4480.897461,4214.358887,4213.846191,4179.102539,4501.025879,4469.487305,4335.897461,4400.769043,0.0,1.0,15.0,,,,0.0,4.0,4.0,4.0,4.0,4.0,4.0,4.0,4.0,4.0,4.0,4.0,4.0,4.0,4.0,100.0,,,,,,,,,,,,,,,,,,,,,,,,,,,,,,,,,,,,,,,,,,,,,,,,,,,,,,,,,,,,,,,,,,,,,,,,,,,,,,,,,,,,,,,,,,,,,,,,,,,,,,,,,,,,,,,,,,,,,,,,,,,,,,,,,,,
1725710377.446748,1725710377.448977,51.0,0.0,4225.897461,4225.512695,4233.846191,4266.153809,4184.102539,4231.538574,4477.820313,4212.563965,4218.205078,4181.153809,4501.025879,4469.615234,4338.589844,4404.102539,0.0,1.0,15.0,,,,0.0,4.0,4.0,4.0,4.0,4.0,4.0,4.0,4.0,4.0,4.0,4.0,4.0,4.0,4.0,100.0,,,,,,,,,,,,,,,,,,,,,,,,,,,,,,,,,,,,,,,,,,,,,,,,,,,,,,,,,,,,,,,,,,,,,,,,,,,,,,,,,,,,,,,,,,,,,,,,,,,,,,,,,,,,,,,,,,,,,,,,,,,,,,,,,,,
1725710377.450652,1725710377.452881,52.0,0.0,4227.692383,4227.692383,4232.692383,4263.589844,4185.897461,4231.922852,4477.820313,4212.563965,4226.410156,4185.769043,4506.025879,4474.615234,4346.025879,4412.179688,0.0,1.0,15.0,,,,0.0,4.0,4.0,4.0,4.0,4.0,4.0,4.0,4.0,4.0,4.0,4.0,4.0,4.0,4.0,100.0,,,,,,,,,,,,,,,,,,,,,,,,,,,,,,,,,,,,,,,,,,,,,,,,,,,,,,,,,,,,,,,,,,,,,,,,,,,,,,,,,,,,,,,,,,,,,,,,,,,,,,,,,,,,,,,,,,,,,,,,,,,,,,,,,,,
1725710377.454556,1725710377.456785,53.0,0.0,4232.820313,4233.077148,4237.563965,4267.179688,4190.769043,4232.94873,4481.282227,4215.641113,4233.846191,4191.410156,4515.128418,4484.230957,4355.641113,4421.922852,0.0,1.0,15.0,,,,0.0,4.0,4.0,4.0,4.0,4.0,4.0,4.0,4.0,4.0,4.0,4.0,4.0,4.0,4.0,100.0,,,,,,,,,,,,,,,,,,,,,,,,,,,,,,,,,,,,,,,,,,,,,,,,,,,,,,,,,,,,,,,,,,,,,,,,,,,,,,,,,,,,,,,,,,,,,,,,,,,,,,,,,,,,,,,,,,,,,,,,,,,,,,,,,,,
1725710377.45846,1725710377.460689,54.0,0.0,4240.0,4240.128418,4246.922852,4276.282227,4196.538574,4234.487305,4486.538574,4220.512695,4237.05127,4197.05127,4524.487305,4495.384766,4363.717773,4430.128418,0.0,1.0,15.0,,,,0.0,4.0,4.0,4.0,4.0,4.0,4.0,4.0,4.0,4.0,4.0,4.0,4.0,4.0,4.0,100.0,,,,,,,,,,,,,,,,,,,,,,,,,,,,,,,,,,,,,,,,,,,,,,,,,,,,,,,,,,,,,,,,,,,,,,,,,,,,,,,,,,,,,,,,,,,,,,,,,,,,,,,,,,,,,,,,,,,,,,,,,,,,,,,,,,,
1725710377.462365,1725710377.464693,55.0,0.0,4247.05127,4246.922852,4256.025879,4287.179688,4201.410156,4235.769043,4491.153809,4224.871582,4236.410156,4201.410156,4530.0,4503.205078,4367.179688,4434.102539,0.0,1.0,15.0,,,,0.0,4.0,4.0,4.0,4.0,4.0,4.0,4.0,4.0,4.0,4.0,4.0,4.0,4.0,4.0,100.0,,,,,,,,,,,,,,,,,,,,,,,,,,,,,,,,,,,,,,,,,,,,,,,,,,,,,,,,,,,,,,,,,,,,,,,,,,,,,,,,,,,,,,,,,,,,,,,,,,,,,,,,,,,,,,,,,,,,,,,,,,,,,,,,,,,
1725710377.466269,1725710377.468597,56.0,0.0,4251.410156,4252.179688,4261.025879,4295.384766,4204.487305,4236.282227,4493.461426,4225.641113,4233.974121,4203.717773,4530.0,4504.615234,4366.410156,4433.589844,0.0,1.0,15.0,,,,0.0,4.0,4.0,4.0,4.0,4.0,4.0,4.0,4.0,4.0,4.0,4.0,4.0,4.0,4.0,100.0,,,,,,,,,,,,,,,,,,,,,,,,,,,,,,,,,,,,,,,,,,,,,,,,,,,,,,,,0.0,0.0,1.0,0.0,1024.0,0.0,,,,,,,,,,,,,,,,,,,,,,,,,,,,,,,,,,,,,,,,,,,,,,,,,,,,,,,,,,,,,,,,,,,,,,
1725710377.470173,1725710377.472502,57.0,0.0,4252.692383,4256.153809,4261.538574,4298.461426,4206.666504,4236.025879,4492.94873,4222.692383,4232.307617,4203.846191,4526.282227,4500.128418,4364.743652,4430.897461,0.0,1.0,15.0,,,,0.0,4.0,4.0,4.0,4.0,4.0,4.0,4.0,4.0,4.0,4.0,4.0,4.0,4.0,4.0,100.0,,,,,,,,,,,,,,,,,,,,,,,,,,,,,,,,,,,,,,,,,,,,,,,,,,,,,,,,,,,,,,,,,,,,,,,,,,,,,,,,,,,,,,,,,,,,,,,,,,,,,,,,,,,,,,,,,,,,,,,,,,,,,,,,,,,
1725710377.474077,1725710377.476406,58.0,0.0,4251.666504,4259.230957,4260.512695,4297.307617,4209.358887,4235.641113,4490.512695,4218.589844,4232.436035,4202.692383,4522.563965,4493.974121,4365.641113,4429.358887,0.0,1.0,15.0,,,,0.0,4.0,4.0,4.0,4.0,4.0,4.0,4.0,4.0,4.0,4.0,4.0,4.0,4.0,4.0,100.0,,,,,,,,,,,,,,,,,,,,,,,,,,,,,,,,,,,,,,,,,,,,,,,,,,,,,,,,,,,,,,,,,,,,,,,,,,,,,,,,,,,,,,,,,,,,,,,,,,,,,,,,,,,,,,,,,,,,,,,,,,,,,,,,,,,
1725710377.477981,1725710377.48031,59.0,0.0,4250.128418,4261.794922,4260.256348,4295.0,4212.563965,4235.512695,4487.563965,4216.538574,4233.974121,4201.794922,4522.05127,4491.282227,4369.230957,4430.128418,0.0,1.0,15.0,,,,0.0,4.0,4.0,4.0,4.0,4.0,4.0,4.0,4.0,4.0,4.0,4.0,4.0,4.0,4.0,100.0,,,,,,,,,,,,,,,,,,,,,,,,,,,,,,,,,,,,,,,,,,,,,,,,,,,,,,,,,,,,,,,,,,,,,,,,,,,,,,,,,,,,,,,,,,,,,,,,,,,,,,,,,,,,,,,,,,,,,,,,,,,,,,,,,,,
1725710377.481885,1725710377.484214,60.0,0.0,4249.230957,4263.461426,4260.769043,4293.846191,4215.256348,4235.641113,4483.974121,4217.307617,4235.0,4202.05127,4524.743652,4494.230957,4372.692383,4431.922852,0.0,1.0,15.0,,,,0.0,4.0,4.0,4.0,4.0,4.0,4.0,4.0,4.0,4.0,4.0,4.0,4.0,4.0,4.0,100.0,,,,,,,,,,,,,,,,,,,,,,,,,,,,,,,,,,,,,,,,,,,,,,,,,,,,,,,,,,,,,,,,,,,,,,,,,,,,,,,,,,,,,,,,,,,,,,,,,,,,,,,,,,,,,,,,,,,,,,,,,,,,,,,,,,,
1725710377.485789,1725710377.488118,61.0,0.0,4249.871582,4263.589844,4260.512695,4294.487305,4216.410156,4235.512695,4479.743652,4218.974121,4234.743652,4203.717773,4527.94873,4500.769043,4373.077148,4432.436035,0.0,1.0,15.0,,,,0.0,4.0,4.0,4.0,4.0,4.0,4.0,4.0,4.0,4.0,4.0,4.0,4.0,4.0,4.0,100.0,,,,,,,,,,,,,,,,,,,,,,,,,,,,,,,,,,,,,,,,,,,,,,,,,,,,,,,,,,,,,,,,,,,,,,,,,,,,,,,,,,,,,,,,,,,,,,,,,,,,,,,,,,,,,,,,,,,,,,,,,,,,,,,,,,,
1725710377.489693,1725710377.492122,62.0,0.0,4251.282227,4262.692383,4258.205078,4296.153809,4215.641113,4235.0,4475.384766,4219.615234,4233.589844,4206.025879,4528.717773,4506.410156,4371.025879,4431.282227,0.0,1.0,15.0,,,,0.0,4.0,4.0,4.0,4.0,4.0,4.0,4.0,4.0,4.0,4.0,4.0,4.0,4.0,4.0,100.0,,,,,,,,,,,,,,,,,,,,,,,,,,,,,,,,,,,,,,,,,,,,,,,,,,,,,,,,,,,,,,,,,,,,,,,,,,,,,,,,,,,,,,,,,,,,,,,,,,,,,,,,,,,,,,,,,,,,,,,,,,,,,,,,,,,
1725710377.493597,1725710377.496026,63.0,0.0,4252.05127,4262.05127,4255.0,4297.563965,4213.846191,4233.846191,4472.307617,4219.102539,4232.563965,4207.94873,4527.05127,4508.205078,4369.871582,4430.384766,0.0,1.0,15.0,,,,0.0,4.0,4.0,4.0,4.0,4.0,4.0,4.0,4.0,4.0,4.0,4.0,4.0,4.0,4.0,100.0,,,,,,,,,,,,,,,,,,,,,,,,,,,,,,,,,,,,,,,,,,,,,,,,,,,,,,,,,,,,,,,,,,,,,,,,,,,,,,,,,,,,,,,,,,,,,,,,,,,,,,,,,,,,,,,,,,,,,,,,,,,,,,,,,,,
1725710377.497501,1725710377.49993,64.0,0.0,4251.538574,4262.563965,4252.820313,4298.589844,4212.436035,4232.692383,4471.794922,4218.974121,4232.307617,4209.358887,4526.025879,4506.538574,4371.922852,4431.794922,0.0,1.0,15.0,,,,0.0,4.0,4.0,4.0,4.0,4.0,4.0,4.0,4.0,4.0,4.0,4.0,4.0,4.0,4.0,100.0,,,,,,,,,,,,,,,,,,,,,,,,,,,,,,,,,,,,,,,,,,,,,,,,,,,,,,,,0.0,0.0,1.0,0.0,1024.0,0.0,,,,,,,,,,,,,,,,,,,,,,,,,,,,,,,,,,,,,,,,,,,,,,,,,,,,,,,,,,,,,,,,,,,,,,
1725710377.501406,1725710377.503834,65.0,0.0,4250.128418,4264.230957,4253.205078,4298.846191,4211.922852,4231.922852,4472.94873,4220.897461,4232.692383,4210.128418,4528.589844,4504.487305,4376.666504,4435.256348,0.0,1.0,15.0,,,,0.0,4.0,4.0,4.0,4.0,4.0,4.0,4.0,4.0,4.0,4.0,4.0,4.0,4.0,4.0,100.0,,,,,,,,,,,,,,,,,,,,,,,,,,,,,,,,,,,,,,,,,,,,,,,,,,,,,,,,,,,,,,,,,,,,,,,,,,,,,,,,,,,,,,,,,,,,,,,,,,,,,,,,,,,,,,,,,,,,,,,,,,,,,,,,,,,
1725710377.50531,1725710377.507738,66.0,0.0,4249.358887,4266.025879,4255.641113,4298.461426,4212.563965,4232.05127,4473.974121,4224.358887,4233.974121,4210.256348,4534.230957,4504.487305,4380.512695,4438.333496,0.0,1.0,15.0,,,,0.0,4.0,4.0,4.0,4.0,4.0,4.0,4.0,4.0,4.0,4.0,4.0,4.0,4.0,4.0,100.0,,,,,,,,,,,,,,,,,,,,,,,,,,,,,,,,,,,,,,,,,,,,,,,,,,,,,,,,,,,,,,,,,,,,,,,,,,,,,,,,,,,,,,,,,,,,,,,,,,,,,,,,,,,,,,,,,,,,,,,,,,,,,,,,,,,
1725710377.509214,1725710377.511543,67.0,0.0,4249.487305,4267.05127,4258.077148,4297.563965,4213.717773,4232.563965,4473.461426,4227.05127,4235.769043,4209.102539,4538.846191,4505.897461,4380.897461,4438.333496,0.0,1.0,15.0,,,,0.0,4.0,4.0,4.0,4.0,4.0,4.0,4.0,4.0,4.0,4.0,4.0,4.0,4.0,4.0,100.0,,,,,,,,,,,,,,,,,,,,,,,,,,,,,,,,,,,,,,,,,,,,,,,,,,,,,,,,,,,,,,,,,,,,,,,,,,,,,,,,,,,,,,,,,,,,,,,,,,,,,,,,,,,,,,,,,,,,,,,,,,,,,,,,,,,
1725710377.513118,1725710377.515447,68.0,0.0,4249.871582,4266.794922,4258.846191,4296.922852,4214.871582,4233.333496,4471.922852,4226.538574,4237.05127,4206.794922,4538.333496,4506.025879,4378.077148,4435.128418,0.0,1.0,15.0,,,,0.0,4.0,4.0,4.0,4.0,4.0,4.0,4.0,4.0,4.0,4.0,4.0,4.0,4.0,4.0,100.0,,,,,,,,,,,,,,,,,,,,,,,,,,,,,,,,,,,,,,,,,,,,,,,,,,,,,,,,,,,,,,,,,,,,,,,,,,,,,,,,,,,,,,,,,,,,,,,,,,,,,,,,,,,,,,,,,,,,,,,,,,,,,,,,,,,
1725710377.517022,1725710377.519351,69.0,0.0,4250.128418,4266.025879,4258.077148,4297.179688,4215.641113,4234.230957,4470.641113,4222.436035,4236.153809,4203.461426,4532.563965,4503.077148,4374.487305,4430.384766,0.0,1.0,15.0,,,,0.0,4.0,4.0,4.0,4.0,4.0,4.0,4.0,4.0,4.0,4.0,4.0,4.0,4.0,4.0,100.0,,,,,,,,,,,,,,,,,,,,,,,,,,,,,,,,,,,,,,,,,,,,,,,,,,,,,,,,,,,,,,,,,,,,,,,,,,,,,,,,,,,,,,,,,,,,,,,,,,,,,,,,,,,,,,,,,,,,,,,,,,,,,,,,,,,
1725710377.520926,1725710377.523255,70.0,0.0,4250.256348,4265.256348,4257.307617,4298.717773,4216.025879,4235.256348,4470.769043,4216.794922,4232.563965,4200.128418,4525.384766,4497.820313,4372.563965,4427.05127,0.0,1.0,15.0,,,,0.0,4.0,4.0,4.0,4.0,4.0,4.0,4.0,4.0,4.0,4.0,4.0,4.0,4.0,4.0,100.0,,,,,,,,,,,,,,,,,,,,,,,,,,,,,,,,,,,,,,,,,,,,,,,,,,,,,,,,,,,,,,,,,,,,,,,,,,,,,,,,,,,,,,,,,,,,,,,,,,,,,,,,,,,,,,,,,,,,,,,,,,,,,,,,,,,
1725710377.52483,1725710377.527159,71.0,0.0,4250.512695,4265.0,4257.820313,4301.410156,4216.153809,4236.025879,4471.922852,4212.692383,4227.436035,4197.05127,4520.769043,4493.077148,4372.563965,4426.282227,0.0,1.0,15.0,,,,0.0,4.0,4.0,4.0,4.0,4.0,4.0,4.0,4.0,4.0,4.0,4.0,4.0,4.0,4.0,100.0,,,,,,,,,,,,,,,,,,,,,,,,,,,,,,,,,,,,,,,,,,,,,,,,,,,,,,,,,,,,,,,,,,,,,,,,,,,,,,,,,,,,,,,,,,,,,,,,,,,,,,,,,,,,,,,,,,,,,,,,,,,,,,,,,,,
1725710377.528734,1725710377.530963,72.0,0.0,4250.512695,4265.0,4259.358887,4304.743652,4215.897461,4236.410156,4473.077148,4212.179688,4223.589844,4194.743652,4519.615234,4491.153809,4372.179688,4427.820313,0.0,1.0,15.0,,,,0.0,4.0,4.0,4.0,4.0,4.0,4.0,4.0,4.0,4.0,4.0,4.0,4.0,4.0,4.0,100.0,,,,,,,,,,,,,,,,,,,,,,,,,,,,,,,,,,,,,,,,,,,,,,,,,,,,,,,,0.0,0.0,1.0,0.0,1024.0,0.0,,,,,,,,,,,,,,,,,,,,,,,,,,,,,,,,,,,,,,,,,,,,,,,,,,,,,,,,,,,,,,,,,,,,,,
1725710377.532638,1725710377.534867,73.0,0.0,4250.512695,4265.0,4260.897461,4308.205078,4215.769043,4236.153809,4473.589844,4213.974121,4223.205078,4193.717773,4519.487305,4492.05127,4369.615234,4429.487305,0.0,1.0,15.0,,,,0.0,4.0,4.0,4.0,4.0,4.0,4.0,4.0,4.0,4.0,4.0,4.0,4.0,4.0,4.0,100.0,,,,,,,,,,,,,,,,,,,,,,,,,,,,,,,,,,,,,,,,,,,,,,,,,,,,,,,,,,,,,,,,,,,,,,,,,,,,,,,,,,,,,,,,,,,,,,,,,,,,,,,,,,,,,,,,,,,,,,,,,,,,,,,,,,,
1725710377.536542,1725710377.538771,74.0,0.0,4250.384766,4264.871582,4260.897461,4310.897461,4216.153809,4235.256348,4473.461426,4215.641113,4226.410156,4194.358887,4517.307617,4494.358887,4365.512695,4429.743652,0.0,1.0,15.0,,,,0.0,4.0,4.0,4.0,4.0,4.0,4.0,4.0,4.0,4.0,4.0,4.0,4.0,4.0,4.0,100.0,,,,,,,,,,,,,,,,,,,,,,,,,,,,,,,,,,,,,,,,,,,,,,,,,,,,,,,,,,,,,,,,,,,,,,,,,,,,,,,,,,,,,,,,,,,,,,,,,,,,,,,,,,,,,,,,,,,,,,,,,,,,,,,,,,,
1725710377.540446,1725710377.542576,75.0,0.0,4249.871582,4264.487305,4258.205078,4312.05127,4216.794922,4234.487305,4473.077148,4215.384766,4230.769043,4196.282227,4512.563965,4495.512695,4362.179688,4428.077148,0.0,1.0,15.0,,,,0.0,4.0,4.0,4.0,4.0,4.0,4.0,4.0,4.0,4.0,4.0,4.0,4.0,4.0,4.0,100.0,,,,,,,,,,,,,,,,,,,,,,,,,,,,,,,,,,,,,,,,,,,,,,,,,,,,,,,,,,,,,,,,,,,,,,,,,,,,,,,,,,,,,,,,,,,,,,,,,,,,,,,,,,,,,,,,,,,,,,,,,,,,,,,,,,,
1725710377.544351,1725710377.54648,76.0,0.0,4248.974121,4264.358887,4253.461426,4311.794922,4217.563965,4234.102539,4472.563965,4213.205078,4233.461426,4198.205078,4507.94873,4494.230957,4361.794922,4425.769043,0.0,1.0,15.0,,,,0.0,4.0,4.0,4.0,4.0,4.0,4.0,4.0,4.0,4.0,4.0,4.0,4.0,4.0,4.0,100.0,,,,,,,,,,,,,,,,,,,,,,,,,,,,,,,,,,,,,,,,,,,,,,,,,,,,,,,,,,,,,,,,,,,,,,,,,,,,,,,,,,,,,,,,,,,,,,,,,,,,,,,,,,,,,,,,,,,,,,,,,,,,,,,,,,,
1725710377.548255,1725710377.550384,77.0,0.0,4248.333496,4264.871582,4248.461426,4310.641113,4217.94873,4234.102539,4472.563965,4210.897461,4232.692383,4198.717773,4506.922852,4491.538574,4363.589844,4424.102539,0.0,1.0,15.0,,,,0.0,4.0,4.0,4.0,4.0,4.0,4.0,4.0,4.0,4.0,4.0,4.0,4.0,4.0,4.0,100.0,,,,,,,,,,,,,,,,,,,,,,,,,,,,,,,,,,,,,,,,,,,,,,,,,,,,,,,,,,,,,,,,,,,,,,,,,,,,,,,,,,,,,,,,,,,,,,,,,,,,,,,,,,,,,,,,,,,,,,,,,,,,,,,,,,,
1725710377.552159,1725710377.554388,78.0,0.0,4248.589844,4266.282227,4245.128418,4309.743652,4218.077148,4234.358887,4473.589844,4210.384766,4229.615234,4197.692383,4510.641113,4489.487305,4365.384766,4424.230957,0.0,1.0,15.0,,,,0.0,4.0,4.0,4.0,4.0,4.0,4.0,4.0,4.0,4.0,4.0,4.0,4.0,4.0,4.0,100.0,,,,,,,,,,,,,,,,,,,,,,,,,,,,,,,,,,,,,,,,,,,,,,,,,,,,,,,,,,,,,,,,,,,,,,,,,,,,,,,,,,,,,,,,,,,,,,,,,,,,,,,,,,,,,,,,,,,,,,,,,,,,,,,,,,,
1725710377.556063,1725710377.558292,79.0,0.0,4250.641113,4268.333496,4245.0,4309.743652,4218.205078,4234.615234,4475.384766,4212.179688,4226.794922,4196.153809,4517.179688,4490.128418,4365.769043,4426.538574,0.0,1.0,15.0,,,,0.0,4.0,4.0,4.0,4.0,4.0,4.0,4.0,4.0,4.0,4.0,4.0,4.0,4.0,4.0,100.0,,,,,,,,,,,,,,,,,,,,,,,,,,,,,,,,,,,,,,,,,,,,,,,,,,,,,,,,,,,,,,,,,,,,,,,,,,,,,,,,,,,,,,,,,,,,,,,,,,,,,,,,,,,,,,,,,,,,,,,,,,,,,,,,,,,
1725710377.559967,1725710377.562196,80.0,0.0,4254.358887,4270.384766,4248.205078,4310.512695,4217.94873,4234.871582,4476.794922,4215.256348,4226.410156,4196.153809,4522.94873,4493.717773,4366.025879,4430.769043,0.0,1.0,15.0,,,,0.0,4.0,4.0,4.0,4.0,4.0,4.0,4.0,4.0,4.0,4.0,4.0,4.0,4.0,4.0,100.0,,,,,,,,,,,,,,,,,1.0,0.0,0.0,,,,,,,,,,,,,,,,,,,,,,,,,,,,,,,,,,,,,0.0,0.0,1.0,0.0,2048.0,0.0,1.399812,0.573224,0.37248,0.118883,0.077486,1.930667,0.655437,0.441998,0.239711,0.133666,1.809398,0.659842,0.48518,0.078883,0.086968,2.250152,0.476043,0.760805,0.225305,0.184225,0.746642,0.251765,0.373582,0.099547,0.091869,0.136672,0.358606,0.125041,0.068235,0.06194,8.256726,1.238636,0.663141,0.165804,0.044579,0.459973,0.876781,0.547836,0.269881,0.200971,1.287776,1.338259,0.351558,0.258214,0.124836,1.261937,1.707239,0.953014,0.385139,0.18048,2.65936,1.717169,1.459583,0.555575,0.391847,1.994759,0.884501,1.644346,0.478643,0.22129,3.575883,1.911317,0.862487,0.345868,0.207137,2.488415,1.277948,1.038425,0.289688,0.117933
1725710377.563871,1725710377.5662,81.0,0.0,4258.717773,4271.922852,4253.846191,4311.922852,4217.563965,4235.256348,4477.05127,4218.077148,4228.589844,4198.077148,4526.153809,4499.487305,4368.333496,4436.282227,0.0,1.0,15.0,,,,0.0,4.0,4.0,4.0,4.0,4.0,4.0,4.0,4.0,4.0,4.0,4.0,4.0,4.0,4.0,100.0,,,,,,,,,,,,,,,,,,,,,,,,,,,,,,,,,,,,,,,,,,,,,,,,,,,,,,,,,,,,,,,,,,,,,,,,,,,,,,,,,,,,,,,,,,,,,,,,,,,,,,,,,,,,,,,,,,,,,,,,,,,,,,,,,,,
1725710377.567775,1725710377.570104,82.0,0.0,4262.436035,4273.333496,4259.743652,4313.717773,4217.307617,4235.897461,4476.794922,4220.0,4232.179688,4200.384766,4527.563965,4506.025879,4373.333496,4442.05127,0.0,1.0,15.0,,,,0.0,4.0,4.0,4.0,4.0,4.0,4.0,4.0,4.0,4.0,4.0,4.0,4.0,4.0,4.0,100.0,,,,,,,,,,,,,,,,,,,,,,,,,,,,,,,,,,,,,,,,,,,,,,,,,,,,,,,,,,,,,,,,,,,,,,,,,,,,,,,,,,,,,,,,,,,,,,,,,,,,,,,,,,,,,,,,,,,,,,,,,,,,,,,,,,,
1725710377.571679,1725710377.574008,83.0,0.0,4265.0,4276.025879,4263.717773,4316.410156,4217.692383,4236.666504,4476.794922,4220.769043,4234.871582,4200.512695,4529.871582,4511.666504,4379.230957,4446.153809,0.0,1.0,15.0,,,,0.0,4.0,4.0,4.0,4.0,4.0,4.0,4.0,4.0,4.0,4.0,4.0,4.0,4.0,4.0,100.0,,,,,,,,,,,,,,,,,,,,,,,,,,,,,,,,,,,,,,,,,,,,,,,,,,,,,,,,,,,,,,,,,,,,,,,,,,,,,,,,,,,,,,,,,,,,,,,,,,,,,,,,,,,,,,,,,,,,,,,,,,,,,,,,,,,
1725710377.575583,1725710377.577912,84.0,0.0,4266.794922,4280.0,4265.256348,4319.871582,4219.102539,4237.436035,4477.307617,4220.128418,4235.769043,4198.333496,4533.846191,4515.256348,4382.94873,4447.94873,0.0,1.0,15.0,,,,0.0,4.0,4.0,4.0,4.0,4.0,4.0,4.0,4.0,4.0,4.0,4.0,4.0,4.0,4.0,100.0,,,,,,,,,,,,,,,,,,,,,,,,,,,,,,,,,,,,,,,,,,,,,,,,,,,,,,,,,,,,,,,,,,,,,,,,,,,,,,,,,,,,,,,,,,,,,,,,,,,,,,,,,,,,,,,,,,,,,,,,,,,,,,,,,,,
1725710377.579487,1725710377.581816,85.0,0.0,4267.692383,4283.461426,4264.871582,4322.820313,4220.897461,4237.436035,4476.666504,4218.717773,4235.128418,4196.538574,4537.94873,4515.897461,4382.179688,4447.692383,0.0,1.0,15.0,,,,0.0,4.0,4.0,4.0,4.0,4.0,4.0,4.0,4.0,4.0,4.0,4.0,4.0,4.0,4.0,100.0,,,,,,,,,,,,,,,,,,,,,,,,,,,,,,,,,,,,,,,,,,,,,,,,,,,,,,,,,,,,,,,,,,,,,,,,,,,,,,,,,,,,,,,,,,,,,,,,,,,,,,,,,,,,,,,,,,,,,,,,,,,,,,,,,,,
1725710377.583392,1725710377.585721,86.0,0.0,4267.563965,4283.974121,4263.974121,4324.102539,4222.179688,4236.410156,4473.333496,4217.179688,4233.717773,4197.436035,4540.128418,4513.717773,4377.563965,4446.538574,0.0,1.0,15.0,,,,0.0,4.0,4.0,4.0,4.0,4.0,4.0,4.0,4.0,4.0,4.0,4.0,4.0,4.0,4.0,100.0,,,,,,,,,,,,,,,,,,,,,,,,,,,,,,,,,,,,,,,,,,,,,,,,,,,,,,,,,,,,,,,,,,,,,,,,,,,,,,,,,,,,,,,,,,,,,,,,,,,,,,,,,,,,,,,,,,,,,,,,,,,,,,,,,,,
1725710377.587296,1725710377.589525,87.0,0.0,4265.897461,4280.256348,4263.077148,4322.820313,4221.922852,4235.128418,4467.179688,4216.794922,4232.820313,4202.05127,4540.512695,4510.769043,4372.563965,4445.641113,0.0,1.0,15.0,,,,0.0,4.0,4.0,4.0,4.0,4.0,4.0,4.0,4.0,4.0,4.0,4.0,4.0,4.0,4.0,100.0,,,,,,,,,,,,,,,,,,,,,,,,,,,,,,,,,,,,,,,,,,,,,,,,,,,,,,,,,,,,,,,,,,,,,,,,,,,,,,,,,,,,,,,,,,,,,,,,,,,,,,,,,,,,,,,,,,,,,,,,,,,,,,,,,,,
1725710377.5912,1725710377.593429,88.0,0.0,4262.692383,4273.205078,4261.922852,4318.974121,4220.128418,4233.974121,4460.897461,4217.692383,4232.692383,4208.205078,4541.153809,4508.846191,4370.128418,4444.487305,0.0,1.0,15.0,,,,0.0,4.0,4.0,4.0,4.0,4.0,4.0,4.0,4.0,4.0,4.0,4.0,4.0,4.0,4.0,100.0,,,,,,,,,,,,,,,,,,,,,,,,,,,,,,,,,,,,,,,,,,,,,,,,,,,,,,,,0.0,0.0,1.0,0.0,2048.0,0.0,,,,,,,,,,,,,,,,,,,,,,,,,,,,,,,,,,,,,,,,,,,,,,,,,,,,,,,,,,,,,,,,,,,,,,
1725710377.595104,1725710377.597433,89.0,0.0,4259.102539,4266.282227,4259.743652,4314.487305,4217.692383,4233.589844,4457.05127,4218.974121,4233.461426,4212.820313,4542.94873,4508.717773,4371.025879,4442.692383,0.0,1.0,15.0,,,,0.0,4.0,4.0,4.0,4.0,4.0,4.0,4.0,4.0,4.0,4.0,4.0,4.0,4.0,4.0,100.0,,,,,,,,,,,,,,,,,,,,,,,,,,,,,,,,,,,,,,,,,,,,,,,,,,,,,,,,,,,,,,,,,,,,,,,,,,,,,,,,,,,,,,,,,,,,,,,,,,,,,,,,,,,,,,,,,,,,,,,,,,,,,,,,,,,
1725710377.599008,1725710377.601337,90.0,0.0,4256.153809,4262.563965,4256.538574,4310.897461,4215.897461,4233.589844,4456.410156,4219.102539,4234.487305,4213.205078,4543.974121,4508.717773,4373.077148,4439.615234,0.0,1.0,15.0,,,,0.0,4.0,4.0,4.0,4.0,4.0,4.0,4.0,4.0,4.0,4.0,4.0,4.0,4.0,4.0,100.0,,,,,,,,,,,,,,,,,,,,,,,,,,,,,,,,,,,,,,,,,,,,,,,,,,,,,,,,,,,,,,,,,,,,,,,,,,,,,,,,,,,,,,,,,,,,,,,,,,,,,,,,,,,,,,,,,,,,,,,,,,,,,,,,,,,
1725710377.602912,1725710377.605241,91.0,0.0,4254.230957,4262.94873,4252.820313,4309.615234,4215.512695,4233.589844,4457.05127,4217.436035,4234.615234,4208.717773,4541.025879,4506.538574,4373.461426,4435.641113,0.0,1.0,15.0,,,,0.0,4.0,4.0,4.0,4.0,4.0,4.0,4.0,4.0,4.0,4.0,4.0,4.0,4.0,4.0,100.0,,,,,,,,,,,,,,,,,,,,,,,,,,,,,,,,,,,,,,,,,,,,,,,,,,,,,,,,,,,,,,,,,,,,,,,,,,,,,,,,,,,,,,,,,,,,,,,,,,,,,,,,,,,,,,,,,,,,,,,,,,,,,,,,,,,
1725710377.606816,1725710377.609145,92.0,0.0,4252.94873,4265.384766,4249.487305,4310.256348,4216.538574,4233.205078,4456.282227,4214.615234,4233.333496,4201.922852,4533.461426,4501.153809,4371.282227,4431.666504,0.0,1.0,15.0,,,,0.0,4.0,4.0,4.0,4.0,4.0,4.0,4.0,4.0,4.0,4.0,4.0,4.0,4.0,4.0,100.0,,,,,,,,,,,,,,,,,,,,,,,,,,,,,,,,,,,,,,,,,,,,,,,,,,,,,,,,,,,,,,,,,,,,,,,,,,,,,,,,,,,,,,,,,,,,,,,,,,,,,,,,,,,,,,,,,,,,,,,,,,,,,,,,,,,
1725710377.61072,1725710377.613049,93.0,0.0,4251.666504,4267.307617,4247.307617,4311.538574,4217.820313,4233.205078,4452.820313,4212.563965,4231.410156,4197.563965,4525.0,4494.102539,4368.333496,4428.589844,0.0,1.0,15.0,,,,0.0,4.0,4.0,4.0,4.0,4.0,4.0,4.0,4.0,4.0,4.0,4.0,4.0,4.0,4.0,100.0,,,,,,,,,,,,,,,,,,,,,,,,,,,,,,,,,,,,,,,,,,,,,,,,,,,,,,,,,,,,,,,,,,,,,,,,,,,,,,,,,,,,,,,,,,,,,,,,,,,,,,,,,,,,,,,,,,,,,,,,,,,,,,,,,,,
1725710377.614624,1725710377.616854,94.0,0.0,4250.256348,4266.922852,4247.05127,4312.307617,4218.589844,4233.589844,4447.05127,4212.692383,4230.512695,4198.846191,4520.897461,4489.102539,4367.307617,4427.436035,0.0,1.0,15.0,,,,0.0,4.0,4.0,4.0,4.0,4.0,4.0,4.0,4.0,4.0,4.0,4.0,4.0,4.0,4.0,100.0,,,,,,,,,,,,,,,,,,,,,,,,,,,,,,,,,,,,,,,,,,,,,,,,,,,,,,,,,,,,,,,,,,,,,,,,,,,,,,,,,,,,,,,,,,,,,,,,,,,,,,,,,,,,,,,,,,,,,,,,,,,,,,,,,,,
1725710377.618528,1725710377.620758,95.0,0.0,4248.974121,4264.743652,4247.820313,4312.307617,4218.205078,4234.230957,4441.153809,4215.256348,4231.538574,4204.871582,4524.358887,4489.102539,4368.974121,4428.589844,0.0,1.0,15.0,,,,0.0,4.0,4.0,4.0,4.0,4.0,4.0,4.0,4.0,4.0,4.0,4.0,4.0,4.0,4.0,100.0,,,,,,,,,,,,,,,,,,,,,,,,,,,,,,,,,,,,,,,,,,,,,,,,,,,,,,,,,,,,,,,,,,,,,,,,,,,,,,,,,,,,,,,,,,,,,,,,,,,,,,,,,,,,,,,,,,,,,,,,,,,,,,,,,,,
1725710377.622433,1725710377.624662,96.0,0.0,4248.205078,4261.922852,4248.333496,4311.538574,4217.179688,4234.487305,4436.794922,4218.589844,4234.102539,4211.282227,4533.333496,4492.563965,4371.153809,4430.769043,0.0,1.0,15.0,,,,0.0,4.0,4.0,4.0,4.0,4.0,4.0,4.0,4.0,4.0,4.0,4.0,4.0,4.0,4.0,100.0,,,,,,,,,,,,,,,,,,,,,,,,,,,,,,,,,,,,,,,,,,,,,,,,,,,,,,,,0.0,0.0,1.0,0.0,2048.0,0.0,,,,,,,,,,,,,,,,,,,,,,,,,,,,,,,,,,,,,,,,,,,,,,,,,,,,,,,,,,,,,,,,,,,,,,
1725710377.626337,1725710377.628566,97.0,0.0,4247.94873,4259.743652,4247.307617,4310.769043,4215.769043,4234.102539,4434.102539,4220.0,4236.153809,4213.846191,4541.794922,4495.256348,4370.897461,4431.538574,0.0,1.0,15.0,,,,0.0,4.0,4.0,4.0,4.0,4.0,4.0,4.0,4.0,4.0,4.0,4.0,4.0,4.0,4.0,100.0,,,,,,,,,,,,,,,,,,,,,,,,,,,,,,,,,,,,,,,,,,,,,,,,,,,,,,,,,,,,,,,,,,,,,,,,,,,,,,,,,,,,,,,,,,,,,,,,,,,,,,,,,,,,,,,,,,,,,,,,,,,,,,,,,,,
1725710377.630241,1725710377.63237,98.0,0.0,4247.692383,4257.692383,4244.871582,4310.128418,4214.615234,4233.333496,4431.794922,4218.333496,4236.282227,4211.538574,4544.871582,4492.692383,4366.666504,4428.717773,0.0,1.0,15.0,,,,0.0,4.0,4.0,4.0,4.0,4.0,4.0,4.0,4.0,4.0,4.0,4.0,4.0,4.0,4.0,100.0,,,,,,,,,,,,,,,,,,,,,,,,,,,,,,,,,,,,,,,,,,,,,,,,,,,,,,,,,,,,,,,,,,,,,,,,,,,,,,,,,,,,,,,,,,,,,,,,,,,,,,,,,,,,,,,,,,,,,,,,,,,,,,,,,,,
1725710377.634145,1725710377.636274,99.0,0.0,4246.666504,4254.487305,4242.05127,4309.871582,4214.230957,4232.563965,4429.230957,4215.0,4234.487305,4206.794922,4541.410156,4484.871582,4360.384766,4422.563965,0.0,1.0,15.0,,,,0.0,4.0,4.0,4.0,4.0,4.0,4.0,4.0,4.0,4.0,4.0,4.0,4.0,4.0,4.0,100.0,,,,,,,,,,,,,,,,,,,,,,,,,,,,,,,,,,,,,,,,,,,,,,,,,,,,,,,,,,,,,,,,,,,,,,,,,,,,,,,,,,,,,,,,,,,,,,,,,,,,,,,,,,,,,,,,,,,,,,,,,,,,,,,,,,,
1725710377.638049,1725710377.640178,100.0,0.0,4245.256348,4249.871582,4239.615234,4309.615234,4214.615234,4232.436035,4426.794922,4213.589844,4232.179688,4202.820313,4535.256348,4476.794922,4355.128418,4415.897461,0.0,1.0,15.0,,,,0.0,4.0,4.0,4.0,4.0,4.0,4.0,4.0,4.0,4.0,4.0,4.0,4.0,4.0,4.0,100.0,,,,,,,,,,,,,,,,,,,,,,,,,,,,,,,,,,,,,,,,,,,,,,,,,,,,,,,,,,,,,,,,,,,,,,,,,,,,,,,,,,,,,,,,,,,,,,,,,,,,,,,,,,,,,,,,,,,,,,,,,,,,,,,,,,,
1725710377.641953,1725710377.644082,101.0,0.0,4243.974121,4245.641113,4237.94873,4309.615234,4215.512695,4232.436035,4425.0,4216.025879,4231.153809,4201.666504,4531.282227,4474.615234,4353.333496,4411.922852,0.0,1.0,15.0,,,,0.0,4.0,4.0,4.0,4.0,4.0,4.0,4.0,4.0,4.0,4.0,4.0,4.0,4.0,4.0,100.0,,,,,,,,,,,,,,,,,,,,,,,,,,,,,,,,,,,,,,,,,,,,,,,,,,,,,,,,,,,,,,,,,,,,,,,,,,,,,,,,,,,,,,,,,,,,,,,,,,,,,,,,,,,,,,,,,,,,,,,,,,,,,,,,,,,
1725710377.645857,1725710377.647887,102.0,0.0,4243.717773,4244.487305,4237.307617,4309.871582,4216.410156,4232.436035,4424.230957,4221.538574,4232.307617,4203.077148,4533.589844,4479.615234,4355.0,4412.179688,0.0,1.0,15.0,,,,0.0,4.0,4.0,4.0,4.0,4.0,4.0,4.0,4.0,4.0,4.0,4.0,4.0,4.0,4.0,100.0,,,,,,,,,,,,,,,,,,,,,,,,,,,,,,,,,,,,,,,,,,,,,,,,,,,,,,,,,,,,,,,,,,,,,,,,,,,,,,,,,,,,,,,,,,,,,,,,,,,,,,,,,,,,,,,,,,,,,,,,,,,,,,,,,,,
1725710377.649761,1725710377.651791,103.0,0.0,4244.487305,4247.563965,4238.077148,4310.512695,4216.794922,4232.307617,4424.358887,4226.666504,4234.743652,4205.384766,4542.05127,4487.692383,4357.94873,4415.512695,0.0,1.0,15.0,,,,0.0,4.0,4.0,4.0,4.0,4.0,4.0,4.0,4.0,4.0,4.0,4.0,4.0,4.0,4.0,100.0,,,,,,,,,,,,,,,,,,,,,,,,,,,,,,,,,,,,,,,,,,,,,,,,,,,,,,,,,,,,,,,,,,,,,,,,,,,,,,,,,,,,,,,,,,,,,,,,,,,,,,,,,,,,,,,,,,,,,,,,,,,,,,,,,,,
1725710377.653665,1725710377.655695,104.0,0.0,4245.641113,4252.94873,4240.256348,4311.282227,4216.410156,4232.307617,4425.384766,4228.461426,4236.410156,4206.153809,4552.692383,4492.05127,4359.615234,4418.974121,0.0,1.0,15.0,,,,0.0,4.0,4.0,4.0,4.0,4.0,4.0,4.0,4.0,4.0,4.0,4.0,4.0,4.0,4.0,100.0,,,,,,,,,,,,,,,,,,,,,,,,,,,,,,,,,,,,,,,,,,,,,,,,,,,,,,,,0.0,0.0,1.0,0.0,2048.0,0.0,,,,,,,,,,,,,,,,,,,,,,,,,,,,,,,,,,,,,,,,,,,,,,,,,,,,,,,,,,,,,,,,,,,,,,
1725710377.65757,1725710377.659699,105.0,0.0,4245.897461,4257.179688,4242.307617,4311.794922,4215.641113,4232.692383,4427.94873,4225.769043,4236.025879,4204.487305,4561.153809,4489.615234,4358.974121,4419.615234,0.0,1.0,15.0,,,,0.0,4.0,4.0,4.0,4.0,4.0,4.0,4.0,4.0,4.0,4.0,4.0,4.0,4.0,4.0,100.0,,,,,,,,,,,,,,,,,,,,,,,,,,,,,,,,,,,,,,,,,,,,,,,,,,,,,,,,,,,,,,,,,,,,,,,,,,,,,,,,,,,,,,,,,,,,,,,,,,,,,,,,,,,,,,,,,,,,,,,,,,,,,,,,,,,
1725710377.661474,1725710377.663603,106.0,0.0,4245.128418,4257.94873,4242.692383,4312.307617,4215.0,4233.333496,4432.307617,4220.641113,4234.102539,4201.025879,4565.0,4482.692383,4357.05127,4416.922852,0.0,1.0,15.0,,,,0.0,4.0,4.0,4.0,4.0,4.0,4.0,4.0,4.0,4.0,4.0,4.0,4.0,4.0,4.0,100.0,,,,,,,,,,,,,,,,,,,,,,,,,,,,,,,,,,,,,,,,,,,,,,,,,,,,,,,,,,,,,,,,,,,,,,,,,,,,,,,,,,,,,,,,,,,,,,,,,,,,,,,,,,,,,,,,,,,,,,,,,,,,,,,,,,,
1725710377.665378,1725710377.667507,107.0,0.0,4244.230957,4255.512695,4241.025879,4312.820313,4215.128418,4234.102539,4437.563965,4216.282227,4232.179688,4197.563965,4565.897461,4476.153809,4355.384766,4413.077148,0.0,1.0,15.0,,,,0.0,4.0,4.0,4.0,4.0,4.0,4.0,4.0,4.0,4.0,4.0,4.0,4.0,4.0,4.0,100.0,,,,,,,,,,,,,,,,,,,,,,,,,,,,,,,,,,,,,,,,,,,,,,,,,,,,,,,,,,,,,,,,,,,,,,,,,,,,,,,,,,,,,,,,,,,,,,,,,,,,,,,,,,,,,,,,,,,,,,,,,,,,,,,,,,,
1725710377.669282,1725710377.671511,108.0,0.0,4244.230957,4251.410156,4238.589844,4312.94873,4215.897461,4234.487305,4441.666504,4214.615234,4231.410156,4194.743652,4566.025879,4473.333496,4354.487305,4410.769043,0.0,1.0,15.0,,,,0.0,4.0,4.0,4.0,4.0,4.0,4.0,4.0,4.0,4.0,4.0,4.0,4.0,4.0,4.0,100.0,,,,,,,,,,,,,,,,,,,,,,,,,,,,,,,,,,,,,,,,,,,,,,,,,,,,,,,,,,,,,,,,,,,,,,,,,,,,,,,,,,,,,,,,,,,,,,,,,,,,,,,,,,,,,,,,,,,,,,,,,,,,,,,,,,,
1725710377.673186,1725710377.675415,109.0,0.0,4245.128418,4247.820313,4237.307617,4312.179688,4217.05127,4234.487305,4442.436035,4215.128418,4231.410156,4192.307617,4566.410156,4473.717773,4353.461426,4411.025879,0.0,1.0,15.0,,,,0.0,4.0,4.0,4.0,4.0,4.0,4.0,4.0,4.0,4.0,4.0,4.0,4.0,4.0,4.0,100.0,,,,,,,,,,,,,,,,,,,,,,,,,,,,,,,,,,,,,,,,,,,,,,,,,,,,,,,,,,,,,,,,,,,,,,,,,,,,,,,,,,,,,,,,,,,,,,,,,,,,,,,,,,,,,,,,,,,,,,,,,,,,,,,,,,,
1725710377.67709,1725710377.679319,110.0,0.0,4246.153809,4246.410156,4238.077148,4310.769043,4217.820313,4233.974121,4439.358887,4216.025879,4231.282227,4189.487305,4566.410156,4475.512695,4351.410156,4413.077148,0.0,1.0,15.0,,,,0.0,4.0,4.0,4.0,4.0,4.0,4.0,4.0,4.0,4.0,4.0,4.0,4.0,4.0,4.0,100.0,,,,,,,,,,,,,,,,,,,,,,,,,,,,,,,,,,,,,,,,,,,,,,,,,,,,,,,,,,,,,,,,,,,,,,,,,,,,,,,,,,,,,,,,,,,,,,,,,,,,,,,,,,,,,,,,,,,,,,,,,,,,,,,,,,,
1725710377.680994,1725710377.683223,111.0,0.0,4246.666504,4247.436035,4240.641113,4309.230957,4218.077148,4233.205078,4434.871582,4215.897461,4230.641113,4186.794922,4565.512695,4476.922852,4349.487305,4415.384766,0.0,1.0,15.0,,,,0.0,4.0,4.0,4.0,4.0,4.0,4.0,4.0,4.0,4.0,4.0,4.0,4.0,4.0,4.0,100.0,,,,,,,,,,,,,,,,,,,,,,,,,,,,,,,,,,,,,,,,,,,,,,,,,,,,,,,,,,,,,,,,,,,,,,,,,,,,,,,,,,,,,,,,,,,,,,,,,,,,,,,,,,,,,,,,,,,,,,,,,,,,,,,,,,,
1725710377.684898,1725710377.687127,112.0,0.0,4246.666504,4249.871582,4243.717773,4308.974121,4218.077148,4232.563965,4431.794922,4215.128418,4229.358887,4185.769043,4564.358887,4478.461426,4349.871582,4417.563965,0.0,1.0,15.0,,,,0.0,4.0,4.0,4.0,4.0,4.0,4.0,4.0,4.0,4.0,4.0,4.0,4.0,4.0,4.0,100.0,,,,,,,,,,,,,,,,,1.0,0.0,0.0,,,,,,,,,,,,,,,,,,,,,,,,,,,,,,,,,,,,,0.0,0.0,1.0,0.0,2048.0,0.0,1.359522,0.686004,0.340283,0.125982,0.095646,1.806104,0.586678,0.397138,0.263682,0.126429,1.745733,0.580568,0.410481,0.080955,0.096519,2.053794,0.45124,0.660104,0.240214,0.189215,0.757613,0.261157,0.372334,0.10216,0.084123,0.10792,0.389321,0.149446,0.075826,0.064195,6.465719,1.057288,0.696363,0.167295,0.04138,0.411668,1.121112,0.699639,0.231632,0.187089,1.159845,1.392458,0.375352,0.26908,0.115802,1.133104,1.49477,0.883576,0.348305,0.172044,2.303732,1.511913,1.441038,0.573363,0.416663,2.047213,0.779446,1.530816,0.419133,0.203171,3.220561,1.83791,0.715592,0.28164,0.215953,2.3477,1.109678,0.946527,0.247945,0.10162
1725710377.688802,1725710377.690932,113.0,0.0,4246.922852,4252.307617,4245.769043,4310.512695,4218.077148,4232.179688,4431.282227,4215.0,4228.589844,4188.077148,4564.102539,4481.538574,4352.94873,4420.0,0.0,1.0,15.0,,,,0.0,4.0,4.0,4.0,4.0,4.0,4.0,4.0,4.0,4.0,4.0,4.0,4.0,4.0,4.0,100.0,,,,,,,,,,,,,,,,,,,,,,,,,,,,,,,,,,,,,,,,,,,,,,,,,,,,,,,,,,,,,,,,,,,,,,,,,,,,,,,,,,,,,,,,,,,,,,,,,,,,,,,,,,,,,,,,,,,,,,,,,,,,,,,,,,,
1725710377.692706,1725710377.694836,114.0,0.0,4247.563965,4254.230957,4246.666504,4313.846191,4218.461426,4232.05127,4432.05127,4216.538574,4229.358887,4193.333496,4565.897461,4486.794922,4357.05127,4423.077148,0.0,1.0,15.0,,,,0.0,4.0,4.0,4.0,4.0,4.0,4.0,4.0,4.0,4.0,4.0,4.0,4.0,4.0,4.0,100.0,,,,,,,,,,,,,,,,,,,,,,,,,,,,,,,,,,,,,,,,,,,,,,,,,,,,,,,,,,,,,,,,,,,,,,,,,,,,,,,,,,,,,,,,,,,,,,,,,,,,,,,,,,,,,,,,,,,,,,,,,,,,,,,,,,,
1725710377.696611,1725710377.69874,115.0,0.0,4248.717773,4255.897461,4246.666504,4317.820313,4218.846191,4232.307617,4432.179688,4219.102539,4231.794922,4199.230957,4569.230957,4492.692383,4360.0,4426.538574,0.0,1.0,15.0,,,,0.0,4.0,4.0,4.0,4.0,4.0,4.0,4.0,4.0,4.0,4.0,4.0,4.0,4.0,4.0,100.0,,,,,,,,,,,,,,,,,,,,,,,,,,,,,,,,,,,,,,,,,,,,,,,,,,,,,,,,,,,,,,,,,,,,,,,,,,,,,,,,,,,,,,,,,,,,,,,,,,,,,,,,,,,,,,,,,,,,,,,,,,,,,,,,,,,
1725710377.700515,1725710377.702744,116.0,0.0,4249.358887,4257.692383,4246.282227,4320.769043,4218.461426,4232.820313,4430.512695,4220.897461,4234.102539,4202.820313,4572.179688,4495.769043,4359.743652,4428.846191,0.0,1.0,15.0,,,,0.0,4.0,4.0,4.0,4.0,4.0,4.0,4.0,4.0,4.0,4.0,4.0,4.0,4.0,4.0,100.0,,,,,,,,,,,,,,,,,,,,,,,,,,,,,,,,,,,,,,,,,,,,,,,,,,,,,,,,,,,,,,,,,,,,,,,,,,,,,,,,,,,,,,,,,,,,,,,,,,,,,,,,,,,,,,,,,,,,,,,,,,,,,,,,,,,
1725710377.704419,1725710377.706648,117.0,0.0,4248.846191,4259.102539,4245.897461,4321.025879,4217.179688,4233.077148,4427.94873,4220.0,4234.615234,4201.922852,4572.436035,4494.487305,4355.897461,4428.461426,0.0,1.0,15.0,,,,0.0,4.0,4.0,4.0,4.0,4.0,4.0,4.0,4.0,4.0,4.0,4.0,4.0,4.0,4.0,100.0,,,,,,,,,,,,,,,,,,,,,,,,,,,,,,,,,,,,,,,,,,,,,,,,,,,,,,,,,,,,,,,,,,,,,,,,,,,,,,,,,,,,,,,,,,,,,,,,,,,,,,,,,,,,,,,,,,,,,,,,,,,,,,,,,,,
1725710377.708323,1725710377.710552,118.0,0.0,4247.307617,4259.487305,4246.153809,4319.102539,4215.128418,4232.307617,4425.512695,4216.538574,4232.820313,4196.410156,4569.487305,4490.128418,4350.128418,4425.384766,0.0,1.0,15.0,,,,0.0,4.0,4.0,4.0,4.0,4.0,4.0,4.0,4.0,4.0,4.0,4.0,4.0,4.0,4.0,100.0,,,,,,,,,,,,,,,,,,,,,,,,,,,,,,,,,,,,,,,,,,,,,,,,,,,,,,,,,,,,,,,,,,,,,,,,,,,,,,,,,,,,,,,,,,,,,,,,,,,,,,,,,,,,,,,,,,,,,,,,,,,,,,,,,,,
1725710377.712227,1725710377.714456,119.0,0.0,4246.153809,4259.487305,4246.922852,4317.05127,4213.846191,4230.769043,4424.230957,4213.461426,4230.769043,4189.871582,4566.538574,4487.05127,4346.025879,4422.179688,0.0,1.0,15.0,,,,0.0,4.0,4.0,4.0,4.0,4.0,4.0,4.0,4.0,4.0,4.0,4.0,4.0,4.0,4.0,100.0,,,,,,,,,,,,,,,,,,,,,,,,,,,,,,,,,,,,,,,,,,,,,,,,,,,,,,,,,,,,,,,,,,,,,,,,,,,,,,,,,,,,,,,,,,,,,,,,,,,,,,,,,,,,,,,,,,,,,,,,,,,,,,,,,,,
1725710377.716131,1725710377.71836,120.0,0.0,4246.922852,4260.641113,4248.461426,4317.820313,4214.102539,4229.487305,4424.615234,4213.717773,4231.538574,4186.922852,4568.205078,4489.102539,4346.410156,4421.922852,0.0,1.0,15.0,,,,0.0,4.0,4.0,4.0,4.0,4.0,4.0,4.0,4.0,4.0,4.0,4.0,4.0,4.0,4.0,100.0,,,,,,,,,,,,,,,,,,,,,,,,,,,,,,,,,,,,,,,,,,,,,,,,,,,,,,,,0.0,0.0,1.0,0.0,2048.0,0.0,,,,,,,,,,,,,,,,,,,,,,,,,,,,,,,,,,,,,,,,,,,,,,,,,,,,,,,,,,,,,,,,,,,,,,
1725710377.720035,1725710377.722164,121.0,0.0,4250.0,4262.820313,4250.897461,4322.563965,4216.025879,4230.0,4425.897461,4218.717773,4236.666504,4190.0,4576.538574,4496.794922,4351.538574,4426.538574,0.0,1.0,15.0,,,,0.0,4.0,4.0,4.0,4.0,4.0,4.0,4.0,4.0,4.0,4.0,4.0,4.0,4.0,4.0,100.0,,,,,,,,,,,,,,,,,,,,,,,,,,,,,,,,,,,,,,,,,,,,,,,,,,,,,,,,,,,,,,,,,,,,,,,,,,,,,,,,,,,,,,,,,,,,,,,,,,,,,,,,,,,,,,,,,,,,,,,,,,,,,,,,,,,
1725710377.723939,1725710377.726069,122.0,0.0,4253.974121,4264.102539,4253.974121,4329.102539,4218.333496,4232.436035,4427.179688,4226.538574,4244.871582,4198.077148,4588.205078,4506.153809,4358.974121,4435.0,0.0,1.0,15.0,,,,0.0,4.0,4.0,4.0,4.0,4.0,4.0,4.0,4.0,4.0,4.0,4.0,4.0,4.0,4.0,100.0,,,,,,,,,,,,,,,,,,,,,,,,,,,,,,,,,,,,,,,,,,,,,,,,,,,,,,,,,,,,,,,,,,,,,,,,,,,,,,,,,,,,,,,,,,,,,,,,,,,,,,,,,,,,,,,,,,,,,,,,,,,,,,,,,,,
1725710377.727843,1725710377.729973,123.0,0.0,4256.410156,4262.179688,4256.538574,4333.205078,4219.615234,4235.384766,4427.820313,4232.563965,4251.666504,4206.922852,4596.153809,4511.794922,4364.743652,4443.205078,0.0,1.0,15.0,,,,0.0,4.0,4.0,4.0,4.0,4.0,4.0,4.0,4.0,4.0,4.0,4.0,4.0,4.0,4.0,100.0,,,,,,,,,,,,,,,,,,,,,,,,,,,,,,,,,,,,,,,,,,,,,,,,,,,,,,,,,,,,,,,,,,,,,,,,,,,,,,,,,,,,,,,,,,,,,,,,,,,,,,,,,,,,,,,,,,,,,,,,,,,,,,,,,,,
1725710377.731748,1725710377.733877,124.0,0.0,4255.769043,4257.307617,4256.794922,4331.922852,4219.487305,4236.666504,4427.692383,4232.563965,4252.820313,4211.666504,4594.871582,4510.128418,4366.025879,4446.666504,0.0,1.0,15.0,,,,0.0,4.0,4.0,4.0,4.0,4.0,4.0,4.0,4.0,4.0,4.0,4.0,4.0,4.0,4.0,100.0,,,,,,,,,,,,,,,,,,,,,,,,,,,,,,,,,,,,,,,,,,,,,,,,,,,,,,,,,,,,,,,,,,,,,,,,,,,,,,,,,,,,,,,,,,,,,,,,,,,,,,,,,,,,,,,,,,,,,,,,,,,,,,,,,,,
1725710377.735651,1725710377.737681,125.0,0.0,4252.692383,4252.820313,4253.974121,4326.153809,4218.205078,4234.871582,4426.794922,4226.282227,4247.436035,4210.0,4585.384766,4502.307617,4362.820313,4443.205078,0.0,1.0,15.0,,,,0.0,4.0,4.0,4.0,4.0,4.0,4.0,4.0,4.0,4.0,4.0,4.0,4.0,4.0,4.0,100.0,,,,,,,,,,,,,,,,,,,,,,,,,,,,,,,,,,,,,,,,,,,,,,,,,,,,,,,,,,,,,,,,,,,,,,,,,,,,,,,,,,,,,,,,,,,,,,,,,,,,,,,,,,,,,,,,,,,,,,,,,,,,,,,,,,,
1725710377.739555,1725710377.741585,126.0,0.0,4248.974121,4252.307617,4249.871582,4320.512695,4216.410156,4231.153809,4425.897461,4218.077148,4238.974121,4203.974121,4574.743652,4493.589844,4357.692383,4435.0,0.0,1.0,15.0,,,,0.0,4.0,4.0,4.0,4.0,4.0,4.0,4.0,4.0,4.0,4.0,4.0,4.0,4.0,4.0,100.0,,,,,,,,,,,,,,,,,,,,,,,,,,,,,,,,,,,,,,,,,,,,,,,,,,,,,,,,,,,,,,,,,,,,,,,,,,,,,,,,,,,,,,,,,,,,,,,,,,,,,,,,,,,,,,,,,,,,,,,,,,,,,,,,,,,
1725710377.74346,1725710377.745489,127.0,0.0,4246.794922,4255.641113,4247.179688,4318.974121,4215.256348,4228.077148,4426.025879,4214.102539,4232.94873,4198.461426,4571.025879,4489.615234,4354.230957,4427.436035,0.0,1.0,15.0,,,,0.0,4.0,4.0,4.0,4.0,4.0,4.0,4.0,4.0,4.0,4.0,4.0,4.0,4.0,4.0,100.0,,,,,,,,,,,,,,,,,,,,,,,,,,,,,,,,,,,,,,,,,,,,,,,,,,,,,,,,,,,,,,,,,,,,,,,,,,,,,,,,,,,,,,,,,,,,,,,,,,,,,,,,,,,,,,,,,,,,,,,,,,,,,,,,,,,
1725710377.747364,1725710377.749393,128.0,0.0,4246.666504,4259.358887,4248.077148,4322.179688,4215.0,4227.307617,4426.794922,4217.05127,4232.820313,4197.436035,4577.307617,4493.205078,4354.487305,4425.769043,2702.0,1.0,15.0,,,,0.0,4.0,4.0,4.0,4.0,4.0,4.0,4.0,4.0,4.0,4.0,4.0,4.0,4.0,4.0,100.0,,,,,,,,,,,,,,,,,,,,,,,,,,,,,,,,,,,,,,,,,,,,,,,,,,,,,,,,0.0,0.0,1.0,0.0,2048.0,0.0,,,,,,,,,,,,,,,,,,,,,,,,,,,,,,,,,,,,,,,,,,,,,,,,,,,,,,,,,,,,,,,,,,,,,,
1725710377.751268,1725710377.753197,129.0,0.0,4247.820313,4259.615234,4251.922852,4326.794922,4215.641113,4228.974121,4427.179688,4224.358887,4237.94873,4201.794922,4589.871582,4501.794922,4358.461426,4430.512695,2581.0,1.0,15.0,,,,0.0,4.0,4.0,4.0,4.0,4.0,4.0,4.0,4.0,4.0,4.0,4.0,4.0,4.0,4.0,100.0,,,,,,,,,,,,,,,,,,,,,,,,,,,,,,,,,,,,,,,,,,,,,,,,,,,,,,,,,,,,,,,,,,,,,,,,,,,,,,,,,,,,,,,,,,,,,,,,,,,,,,,,,,,,,,,,,,,,,,,,,,,,,,,,,,,
1725710377.755172,1725710377.757102,130.0,0.0,4249.230957,4255.641113,4256.538574,4328.461426,4216.922852,4231.666504,4426.922852,4230.897461,4244.743652,4208.205078,4601.538574,4509.743652,4363.974121,4438.461426,2510.0,1.0,15.0,,,,0.0,4.0,4.0,4.0,4.0,4.0,4.0,4.0,4.0,4.0,4.0,4.0,4.0,4.0,4.0,100.0,,,,,,,,,,,,,,,,,,,,,,,,,,,,,,,,,,,,,,,,,,,,,,,,,,,,,,,,,,,,,,,,,,,,,,,,,,,,,,,,,,,,,,,,,,,,,,,,,,,,,,,,,,,,,,,,,,,,,,,,,,,,,,,,,,,
1725710377.759076,1725710377.761006,131.0,0.0,4250.641113,4250.384766,4260.0,4325.897461,4217.94873,4233.333496,4426.410156,4233.205078,4249.487305,4212.179688,4606.666504,4512.307617,4368.077148,4444.743652,2476.0,1.0,15.0,,,,0.0,4.0,4.0,4.0,4.0,4.0,4.0,4.0,4.0,4.0,4.0,4.0,4.0,4.0,4.0,100.0,,,,,,,,,,,,,,,,,,,,,,,,,,,,,,,,,,,,,,,,,,,,,,,,,,,,,,,,,,,,,,,,,,,,,,,,,,,,,,,,,,,,,,,,,,,,,,,,,,,,,,,,,,,,,,,,,,,,,,,,,,,,,,,,,,,
1725710377.76298,1725710377.76501,132.0,0.0,4252.563965,4248.205078,4261.794922,4321.666504,4218.589844,4233.461426,4426.922852,4231.666504,4250.256348,4211.666504,4604.230957,4509.743652,4368.205078,4446.666504,2441.0,1.0,15.0,,,,0.0,4.0,4.0,4.0,4.0,4.0,4.0,4.0,4.0,4.0,4.0,4.0,4.0,4.0,4.0,100.0,,,,,,,,,,,,,,,,,,,,,,,,,,,,,,,,,,,,,,,,,,,,,,,,,,,,,,,,,,,,,,,,,,,,,,,,,,,,,,,,,,,,,,,,,,,,,,,,,,,,,,,,,,,,,,,,,,,,,,,,,,,,,,,,,,,
1725710377.766884,1725710377.768914,133.0,0.0,4255.769043,4251.538574,4262.436035,4320.128418,4218.846191,4233.077148,4429.871582,4228.974121,4248.205078,4208.077148,4597.563965,4506.538574,4365.0,4445.769043,2408.0,1.0,15.0,,,,0.0,4.0,4.0,4.0,4.0,4.0,4.0,4.0,4.0,4.0,4.0,4.0,4.0,4.0,4.0,100.0,,,,,,,,,,,,,,,,,,,,,,,,,,,,,,,,,,,,,,,,,,,,,,,,,,,,,,,,,,,,,,,,,,,,,,,,,,,,,,,,,,,,,,,,,,,,,,,,,,,,,,,,,,,,,,,,,,,,,,,,,,,,,,,,,,,
1725710377.770788,1725710377.772818,134.0,0.0,4260.128418,4259.358887,4263.205078,4323.974121,4218.974121,4233.333496,4435.128418,4228.333496,4246.153809,4205.384766,4591.794922,4507.94873,4361.922852,4446.025879,2444.0,1.0,15.0,,,,0.0,4.0,4.0,4.0,4.0,4.0,4.0,4.0,4.0,4.0,4.0,4.0,4.0,4.0,4.0,100.0,,,,,,,,,,,,,,,,,,,,,,,,,,,,,,,,,,,,,,,,,,,,,,,,,,,,,,,,,,,,,,,,,,,,,,,,,,,,,,,,,,,,,,,,,,,,,,,,,,,,,,,,,,,,,,,,,,,,,,,,,,,,,,,,,,,
1725710377.774692,1725710377.776822,135.0,0.0,4264.615234,4267.05127,4264.615234,4331.410156,4218.846191,4234.102539,4440.769043,4230.512695,4246.410156,4205.897461,4590.384766,4515.0,4362.563965,4450.0,2494.0,1.0,15.0,,,,0.0,4.0,4.0,4.0,4.0,4.0,4.0,4.0,4.0,4.0,4.0,4.0,4.0,4.0,4.0,100.0,,,,,,,,,,,,,,,,,,,,,,,,,,,,,,,,,,,,,,,,,,,,,,,,,,,,,,,,,,,,,,,,,,,,,,,,,,,,,,,,,,,,,,,,,,,,,,,,,,,,,,,,,,,,,,,,,,,,,,,,,,,,,,,,,,,
1725710377.778597,1725710377.780726,136.0,0.0,4267.307617,4269.230957,4266.410156,4337.563965,4218.846191,4234.358887,4443.974121,4233.846191,4248.974121,4209.615234,4593.461426,4524.358887,4367.692383,4456.410156,2471.0,1.0,15.0,,,,0.0,4.0,4.0,4.0,4.0,4.0,4.0,4.0,4.0,4.0,4.0,4.0,4.0,4.0,4.0,100.0,,,,,,,,,,,,,,,,,,,,,,,,,,,,,,,,,,,,,,,,,,,,,,,,,,,,,,,,0.0,0.0,1.0,0.0,2048.0,0.0,,,,,,,,,,,,,,,,,,,,,,,,,,,,,,,,,,,,,,,,,,,,,,,,,,,,,,,,,,,,,,,,,,,,,,
1725710377.782501,1725710377.78463,137.0,0.0,4267.692383,4264.743652,4267.692383,4338.589844,4218.846191,4233.589844,4443.461426,4236.922852,4252.436035,4214.102539,4598.846191,4531.410156,4375.128418,4461.538574,2558.0,1.0,15.0,,,,0.0,4.0,4.0,4.0,4.0,4.0,4.0,4.0,4.0,4.0,4.0,4.0,4.0,4.0,4.0,100.0,,,,,,,,,,,,,,,,,,,,,,,,,,,,,,,,,,,,,,,,,,,,,,,,,,,,,,,,,,,,,,,,,,,,,,,,,,,,,,,,,,,,,,,,,,,,,,,,,,,,,,,,,,,,,,,,,,,,,,,,,,,,,,,,,,,
1725710377.786405,1725710377.788534,138.0,0.0,4266.794922,4256.666504,4267.692383,4334.487305,4218.717773,4233.461426,4441.025879,4239.615234,4255.256348,4217.179688,4604.102539,4533.077148,4381.410156,4462.94873,2909.0,1.0,15.0,,,,0.0,4.0,4.0,4.0,4.0,4.0,4.0,4.0,4.0,4.0,4.0,4.0,4.0,4.0,4.0,100.0,,,,,,,,,,,,,,,,,,,,,,,,,,,,,,,,,,,,,,,,,,,,,,,,,,,,,,,,,,,,,,,,,,,,,,,,,,,,,,,,,,,,,,,,,,,,,,,,,,,,,,,,,,,,,,,,,,,,,,,,,,,,,,,,,,,
1725710377.790309,1725710377.792438,139.0,0.0,4265.769043,4250.384766,4267.05127,4328.589844,4218.846191,4235.512695,4440.384766,4243.077148,4256.153809,4218.077148,4607.820313,4530.512695,4383.846191,4461.794922,3144.0,1.0,15.0,,,,0.0,4.0,4.0,4.0,4.0,4.0,4.0,4.0,4.0,4.0,4.0,4.0,4.0,4.0,4.0,100.0,,,,,,,,,,,,,,,,,,,,,,,,,,,,,,,,,,,,,,,,,,,,,,,,,,,,,,,,,,,,,,,,,,,,,,,,,,,,,,,,,,,,,,,,,,,,,,,,,,,,,,,,,,,,,,,,,,,,,,,,,,,,,,,,,,,
1725710377.794213,1725710377.796243,140.0,0.0,4264.743652,4248.461426,4266.538574,4324.743652,4219.358887,4240.0,4444.230957,4247.436035,4255.128418,4216.666504,4609.487305,4526.538574,4381.922852,4460.256348,3425.0,1.0,15.0,,,,0.0,4.0,4.0,4.0,4.0,4.0,4.0,4.0,4.0,4.0,4.0,4.0,4.0,4.0,4.0,100.0,,,,,,,,,,,,,,,,,,,,,,,,,,,,,,,,,,,,,,,,,,,,,,,,,,,,,,,,,,,,,,,,,,,,,,,,,,,,,,,,,,,,,,,,,,,,,,,,,,,,,,,,,,,,,,,,,,,,,,,,,,,,,,,,,,,
1725710377.798117,1725710377.800147,141.0,0.0,4264.102539,4249.871582,4267.179688,4324.487305,4220.256348,4244.615234,4451.538574,4250.512695,4252.692383,4213.974121,4608.333496,4524.358887,4377.436035,4459.487305,3926.0,1.0,15.0,,,,0.0,4.0,4.0,4.0,4.0,4.0,4.0,4.0,4.0,4.0,4.0,4.0,4.0,4.0,4.0,100.0,,,,,,,,,,,,,,,,,,,,,,,,,,,,,,,,,,,,,,,,,,,,,,,,,,,,,,,,,,,,,,,,,,,,,,,,,,,,,,,,,,,,,,,,,,,,,,,,,,,,,,,,,,,,,,,,,,,,,,,,,,,,,,,,,,,
1725710377.802021,1725710377.804051,142.0,0.0,4263.717773,4251.666504,4268.846191,4326.410156,4221.025879,4246.025879,4458.589844,4250.0,4250.384766,4212.179688,4604.230957,4524.358887,4374.102539,4458.846191,2909.0,1.0,15.0,,,,0.0,4.0,4.0,4.0,4.0,4.0,4.0,4.0,4.0,4.0,4.0,4.0,4.0,4.0,4.0,100.0,,,,,,,,,,,,,,,,,,,,,,,,,,,,,,,,,,,,,,,,,,,,,,,,,,,,,,,,,,,,,,,,,,,,,,,,,,,,,,,,,,,,,,,,,,,,,,,,,,,,,,,,,,,,,,,,,,,,,,,,,,,,,,,,,,,
1725710377.805925,1725710377.808055,143.0,0.0,4263.974121,4252.05127,4270.256348,4327.94873,4221.153809,4242.94873,4461.538574,4245.256348,4249.487305,4212.820313,4598.461426,4524.871582,4373.717773,4456.666504,3144.0,1.0,15.0,,,,0.0,4.0,4.0,4.0,4.0,4.0,4.0,4.0,4.0,4.0,4.0,4.0,4.0,4.0,4.0,100.0,,,,,,,,,,,,,,,,,,,,,,,,,,,,,,,,,,,,,,,,,,,,,,,,,,,,,,,,,,,,,,,,,,,,,,,,,,,,,,,,,,,,,,,,,,,,,,,,,,,,,,,,,,,,,,,,,,,,,,,,,,,,,,,,,,,
1725710377.809829,1725710377.811959,144.0,0.0,4264.230957,4251.025879,4270.0,4327.563965,4220.256348,4236.794922,4460.384766,4238.077148,4250.0,4215.897461,4592.94873,4524.230957,4375.256348,4452.563965,3425.0,1.0,15.0,,,,0.0,4.0,4.0,4.0,4.0,4.0,4.0,4.0,4.0,4.0,4.0,4.0,4.0,4.0,4.0,100.0,1.0,50.0,4.0,4.0,4.0,4.0,4.0,1.0,1.0,4.0,4.0,4.0,4.0,4.0,4.0,4.0,1.0,0.0,0.0,,,,,,,,,,,,,,,,,,,,,,,,,,,,,,,,,,,,,0.0,0.0,1.0,0.0,1.0,0.0,1.224964,0.823953,0.289173,0.129522,0.111576,1.653451,0.533232,0.358212,0.290605,0.115513,1.52871,0.540861,0.327105,0.092108,0.106459,1.837989,0.45236,0.535673,0.251581,0.189416,0.770972,0.278904,0.352269,0.104191,0.073274,0.084543,0.378416,0.170806,0.080961,0.062616,5.117459,0.928101,0.685777,0.177077,0.04029,0.35301,1.431786,0.857749,0.199248,0.166957,0.986893,1.385248,0.375422,0.269831,0.107007,0.994642,1.250784,0.753277,0.309311,0.157828,1.842743,1.284005,1.405356,0.58611,0.435385,1.989755,0.741854,1.352054,0.360926,0.185508,2.702963,1.663818,0.553166,0.247314,0.227576,2.06002,0.997821,0.816354,0.228023,0.087664
1725710377.813733,1725710377.815863,145.0,0.0,4263.205078,4248.846191,4267.563965,4325.128418,4218.589844,4231.025879,4457.692383,4232.307617,4250.641113,4218.717773,4589.358887,4521.794922,4375.769043,4447.820313,3926.0,1.0,15.0,,,,0.0,4.0,4.0,4.0,4.0,4.0,4.0,4.0,4.0,4.0,4.0,4.0,4.0,4.0,4.0,100.0,,,,,,,,,,,,,,,,,,,,,,,,,,,,,,,,,,,,,,,,,,,,,,,,,,,,,,,,,,,,,,,,,,,,,,,,,,,,,,,,,,,,,,,,,,,,,,,,,,,,,,,,,,,,,,,,,,,,,,,,,,,,,,,,,,,
1725710377.817638,1725710377.819767,146.0,0.0,4260.128418,4246.666504,4264.615234,4322.05127,4216.666504,4228.205078,4457.692383,4230.769043,4250.384766,4218.974121,4588.333496,4518.205078,4373.461426,4443.974121,2909.0,1.0,15.0,,,,0.0,4.0,4.0,4.0,4.0,4.0,4.0,4.0,4.0,4.0,4.0,4.0,4.0,4.0,4.0,100.0,,,,,,,,,,,,,,,,,,,,,,,,,,,,,,,,,,,,,,,,,,,,,,,,,,,,,,,,,,,,,,,,,,,,,,,,,,,,,,,,,,,,,,,,,,,,,,,,,,,,,,,,,,,,,,,,,,,,,,,,,,,,,,,,,,,
1725710377.821542,1725710377.823671,147.0,0.0,4255.512695,4245.641113,4262.692383,4319.871582,4215.641113,4228.846191,4462.436035,4232.820313,4249.230957,4216.025879,4588.589844,4513.589844,4368.717773,4441.922852,3144.0,1.0,15.0,,,,0.0,4.0,4.0,4.0,4.0,4.0,4.0,4.0,4.0,4.0,4.0,4.0,4.0,4.0,4.0,100.0,,,,,,,,,,,,,,,,,,,,,,,,,,,,,,,,,,,,,,,,,,,,,,,,,,,,,,,,,,,,,,,,,,,,,,,,,,,,,,,,,,,,,,,,,,,,,,,,,,,,,,,,,,,,,,,,,,,,,,,,,,,,,,,,,,,
1725710377.825446,1725710377.827475,148.0,0.0,4251.153809,4246.282227,4262.179688,4318.717773,4215.769043,4231.025879,4470.384766,4235.0,4248.077148,4211.282227,4588.717773,4508.589844,4362.94873,4440.384766,3425.0,1.0,15.0,,,,0.0,4.0,4.0,4.0,4.0,4.0,4.0,4.0,4.0,4.0,4.0,4.0,4.0,4.0,4.0,100.0,,,,,,,,,,,,,,,,,,,,,,,,,,,,,,,,,,,,,,,,,,,,,,,,,,,,,,,,,,,,,,,,,,,,,,,,,,,,,,,,,,,,,,,,,,,,,,,,,,,,,,,,,,,,,,,,,,,,,,,,,,,,,,,,,,,
1725710377.82935,1725710377.831379,149.0,0.0,4248.589844,4247.820313,4262.307617,4318.461426,4216.922852,4232.94873,4477.692383,4234.102539,4247.307617,4206.410156,4586.794922,4503.846191,4357.563965,4437.692383,3926.0,1.0,15.0,,,,0.0,4.0,4.0,4.0,4.0,4.0,4.0,4.0,4.0,4.0,4.0,4.0,4.0,4.0,4.0,100.0,,,,,,,,,,,,,,,,,,,,,,,,,,,,,,,,,,,,,,,,,,,,,,,,,,,,,,,,,,,,,,,,,,,,,,,,,,,,,,,,,,,,,,,,,,,,,,,,,,,,,,,,,,,,,,,,,,,,,,,,,,,,,,,,,,,
1725710377.833254,1725710377.835284,150.0,0.0,4248.461426,4248.205078,4261.025879,4318.461426,4217.94873,4233.205078,4481.538574,4229.102539,4246.666504,4202.820313,4581.538574,4500.256348,4352.94873,4433.205078,2909.0,1.0,15.0,,,,0.0,4.0,4.0,4.0,4.0,4.0,4.0,4.0,4.0,4.0,4.0,4.0,4.0,4.0,4.0,100.0,,,,,,,,,,,,,,,,,,,,,,,,,,,,,,,,,,,,,,,,,,,,,,,,,,,,,,,,,,,,,,,,,,,,,,,,,,,,,,,,,,,,,,,,,,,,,,,,,,,,,,,,,,,,,,,,,,,,,,,,,,,,,,,,,,,
1725710377.837158,1725710377.839188,151.0,0.0,4249.487305,4246.153809,4257.692383,4318.846191,4218.077148,4232.692383,4481.153809,4222.563965,4244.615234,4200.641113,4573.205078,4497.05127,4348.461426,4428.077148,3144.0,1.0,15.0,,,,0.0,4.0,4.0,4.0,4.0,4.0,4.0,4.0,4.0,4.0,4.0,4.0,4.0,4.0,4.0,100.0,,,,,,,,,,,,,,,,,,,,,,,,,,,,,,,,,,,,,,,,,,,,,,,,,,,,,,,,,,,,,,,,,,,,,,,,,,,,,,,,,,,,,,,,,,,,,,,,,,,,,,,,,,,,,,,,,,,,,,,,,,,,,,,,,,,
1725710377.841062,1725710377.842992,152.0,0.0,4249.615234,4241.666504,4252.820313,4319.358887,4217.436035,4232.436035,4478.717773,4217.307617,4240.512695,4199.102539,4564.102539,4492.94873,4344.230957,4423.717773,3425.0,1.0,15.0,,,,0.0,4.0,4.0,4.0,4.0,4.0,4.0,4.0,4.0,4.0,4.0,4.0,4.0,4.0,4.0,100.0,,,,,,,,,,,,,,,,,,,,,,,,,,,,,,,,,,,,,,,,,,,,,,,,,,,,,,,,0.0,0.0,1.0,0.0,1.0,0.0,,,,,,,,,,,,,,,,,,,,,,,,,,,,,,,,,,,,,,,,,,,,,,,,,,,,,,,,,,,,,,,,,,,,,,
1725710377.844966,1725710377.846896,153.0,0.0,4248.205078,4236.410156,4248.333496,4320.0,4216.538574,4232.820313,4476.794922,4215.384766,4235.256348,4197.05127,4556.153809,4487.436035,4341.282227,4420.512695,3926.0,1.0,15.0,,,,0.0,4.0,4.0,4.0,4.0,4.0,4.0,4.0,4.0,4.0,4.0,4.0,4.0,4.0,4.0,100.0,,,,,,,,,,,,,,,,,,,,,,,,,,,,,,,,,,,,,,,,,,,,,,,,,,,,,,,,,,,,,,,,,,,,,,,,,,,,,,,,,,,,,,,,,,,,,,,,,,,,,,,,,,,,,,,,,,,,,,,,,,,,,,,,,,,
1725710377.84887,1725710377.8508,154.0,0.0,4245.0,4232.692383,4245.897461,4319.615234,4216.153809,4233.205078,4476.538574,4215.897461,4231.282227,4194.230957,4550.897461,4481.666504,4340.256348,4418.461426,2909.0,1.0,15.0,,,,0.0,4.0,4.0,4.0,4.0,4.0,4.0,4.0,4.0,4.0,4.0,4.0,4.0,4.0,4.0,100.0,,,,,,,,,,,,,,,,,,,,,,,,,,,,,,,,,,,,,,,,,,,,,,,,,,,,,,,,,,,,,,,,,,,,,,,,,,,,,,,,,,,,,,,,,,,,,,,,,,,,,,,,,,,,,,,,,,,,,,,,,,,,,,,,,,,
1725710377.852775,1725710377.854704,155.0,0.0,4241.538574,4231.282227,4245.769043,4317.820313,4216.282227,4233.077148,4477.307617,4216.922852,4230.384766,4190.769043,4548.717773,4478.077148,4341.025879,4417.179688,3144.0,1.0,15.0,,,,0.0,4.0,4.0,4.0,4.0,4.0,4.0,4.0,4.0,4.0,4.0,4.0,4.0,4.0,4.0,100.0,,,,,,,,,,,,,,,,,,,,,,,,,,,,,,,,,,,,,,,,,,,,,,,,,,,,,,,,,,,,,,,,,,,,,,,,,,,,,,,,,,,,,,,,,,,,,,,,,,,,,,,,,,,,,,,,,,,,,,,,,,,,,,,,,,,
1725710377.856679,1725710377.858508,156.0,0.0,4239.358887,4231.794922,4246.794922,4315.0,4216.922852,4232.307617,4477.05127,4216.794922,4231.794922,4188.077148,4549.615234,4478.333496,4342.563965,4417.05127,3425.0,1.0,15.0,,,,0.0,4.0,4.0,4.0,4.0,4.0,4.0,4.0,4.0,4.0,4.0,4.0,4.0,4.0,4.0,100.0,,,,,,,,,,,,,,,,,,,,,,,,,,,,,,,,,,,,,,,,,,,,,,,,,,,,,,,,,,,,,,,,,,,,,,,,,,,,,,,,,,,,,,,,,,,,,,,,,,,,,,,,,,,,,,,,,,,,,,,,,,,,,,,,,,,
1725710377.860583,1725710377.862413,157.0,0.0,4240.128418,4232.94873,4247.563965,4312.692383,4217.307617,4232.05127,4475.512695,4216.025879,4233.717773,4187.307617,4552.94873,4481.538574,4343.077148,4418.205078,3926.0,1.0,15.0,,,,0.0,4.0,4.0,4.0,4.0,4.0,4.0,4.0,4.0,4.0,4.0,4.0,4.0,4.0,4.0,100.0,,,,,,,,,,,,,,,,,,,,,,,,,,,,,,,,,,,,,,,,,,,,,,,,,,,,,,,,,,,,,,,,,,,,,,,,,,,,,,,,,,,,,,,,,,,,,,,,,,,,,,,,,,,,,,,,,,,,,,,,,,,,,,,,,,,
1725710377.864487,1725710377.866317,158.0,0.0,4243.717773,4233.717773,4247.692383,4312.307617,4217.179688,4232.179688,4473.717773,4216.794922,4234.358887,4188.333496,4557.692383,4486.410156,4342.179688,4420.384766,2909.0,1.0,15.0,,,,0.0,4.0,4.0,4.0,4.0,4.0,4.0,4.0,4.0,4.0,4.0,4.0,4.0,4.0,4.0,100.0,,,,,,,,,,,,,,,,,,,,,,,,,,,,,,,,,,,,,,,,,,,,,,,,,,,,,,,,,,,,,,,,,,,,,,,,,,,,,,,,,,,,,,,,,,,,,,,,,,,,,,,,,,,,,,,,,,,,,,,,,,,,,,,,,,,
1725710377.868391,1725710377.870321,159.0,0.0,4247.563965,4234.102539,4247.307617,4314.230957,4216.538574,4232.563965,4473.205078,4220.769043,4233.974121,4190.384766,4562.563965,4491.794922,4340.769043,4422.94873,3144.0,1.0,15.0,,,,0.0,4.0,4.0,4.0,4.0,4.0,4.0,4.0,4.0,4.0,4.0,4.0,4.0,4.0,4.0,100.0,,,,,,,,,,,,,,,,,,,,,,,,,,,,,,,,,,,,,,,,,,,,,,,,,,,,,,,,,,,,,,,,,,,,,,,,,,,,,,,,,,,,,,,,,,,,,,,,,,,,,,,,,,,,,,,,,,,,,,,,,,,,,,,,,,,
1725710377.872295,1725710377.874225,160.0,0.0,4249.230957,4234.230957,4247.179688,4316.794922,4216.410156,4232.94873,4474.102539,4227.307617,4234.230957,4193.205078,4566.922852,4497.692383,4341.794922,4425.512695,3425.0,1.0,15.0,,,,0.0,4.0,4.0,4.0,4.0,4.0,4.0,4.0,4.0,4.0,4.0,4.0,4.0,4.0,4.0,100.0,,,,,,,,,,,,,,,,,,,,,,,,,,,,,,,,,,,,,,,,,,,,,,,,,,,,,,,,0.0,0.0,1.0,0.0,1.0,0.0,,,,,,,,,,,,,,,,,,,,,,,,,,,,,,,,,,,,,,,,,,,,,,,,,,,,,,,,,,,,,,,,,,,,,,
1725710377.876199,1725710377.878129,161.0,0.0,4247.179688,4233.974121,4247.307617,4317.820313,4216.922852,4233.974121,4475.0,4233.205078,4237.179688,4196.410156,4570.769043,4503.717773,4346.794922,4428.205078,3926.0,1.0,15.0,,,,0.0,4.0,4.0,4.0,4.0,4.0,4.0,4.0,4.0,4.0,4.0,4.0,4.0,4.0,4.0,100.0,,,,,,,,,,,,,,,,,,,,,,,,,,,,,,,,,,,,,,,,,,,,,,,,,,,,,,,,,,,,,,,,,,,,,,,,,,,,,,,,,,,,,,,,,,,,,,,,,,,,,,,,,,,,,,,,,,,,,,,,,,,,,,,,,,,
1725710377.880103,1725710377.882133,162.0,0.0,4242.436035,4232.692383,4247.179688,4316.025879,4218.077148,4235.256348,4473.846191,4235.0,4242.820313,4199.871582,4573.589844,4507.94873,4354.102539,4430.769043,2909.0,1.0,15.0,,,,0.0,4.0,4.0,4.0,4.0,4.0,4.0,4.0,4.0,4.0,4.0,4.0,4.0,4.0,4.0,100.0,,,,,,,,,,,,,,,,,,,,,,,,,,,,,,,,,,,,,,,,,,,,,,,,,,,,,,,,,,,,,,,,,,,,,,,,,,,,,,,,,,,,,,,,,,,,,,,,,,,,,,,,,,,,,,,,,,,,,,,,,,,,,,,,,,,
1725710377.884007,1725710377.886037,163.0,0.0,4237.436035,4230.256348,4246.025879,4312.05127,4218.333496,4235.256348,4469.871582,4231.410156,4248.461426,4202.563965,4573.974121,4508.205078,4358.974121,4432.179688,3144.0,1.0,15.0,,,,0.0,4.0,4.0,4.0,4.0,4.0,4.0,4.0,4.0,4.0,4.0,4.0,4.0,4.0,4.0,100.0,,,,,,,,,,,,,,,,,,,,,,,,,,,,,,,,,,,,,,,,,,,,,,,,,,,,,,,,,,,,,,,,,,,,,,,,,,,,,,,,,,,,,,,,,,,,,,,,,,,,,,,,,,,,,,,,,,,,,,,,,,,,,,,,,,,
1725710377.887911,1725710377.889941,164.0,0.0,4234.230957,4227.692383,4243.717773,4307.94873,4216.794922,4232.563965,4463.974121,4224.102539,4251.025879,4203.461426,4570.641113,4504.230957,4358.589844,4430.769043,3425.0,1.0,15.0,,,,0.0,4.0,4.0,4.0,4.0,4.0,4.0,4.0,4.0,4.0,4.0,4.0,4.0,4.0,4.0,100.0,,,,,,,,,,,,,,,,,,,,,,,,,,,,,,,,,,,,,,,,,,,,,,,,,,,,,,,,,,,,,,,,,,,,,,,,,,,,,,,,,,,,,,,,,,,,,,,,,,,,,,,,,,,,,,,,,,,,,,,,,,,,,,,,,,,
1725710377.891816,1725710377.893845,165.0,0.0,4233.846191,4226.538574,4241.025879,4305.641113,4212.820313,4227.563965,4458.077148,4217.05127,4249.615234,4202.436035,4563.589844,4497.820313,4353.717773,4426.666504,3926.0,1.0,15.0,,,,0.0,4.0,4.0,4.0,4.0,4.0,4.0,4.0,4.0,4.0,4.0,4.0,4.0,4.0,4.0,100.0,,,,,,,,,,,,,,,,,,,,,,,,,,,,,,,,,,,,,,,,,,,,,,,,,,,,,,,,,,,,,,,,,,,,,,,,,,,,,,,,,,,,,,,,,,,,,,,,,,,,,,,,,,,,,,,,,,,,,,,,,,,,,,,,,,,
1725710377.89572,1725710377.897749,166.0,0.0,4235.512695,4227.436035,4238.333496,4305.384766,4207.563965,4222.94873,4455.0,4213.846191,4246.153809,4200.384766,4554.743652,4491.538574,4348.333496,4421.794922,2909.0,1.0,15.0,,,,0.0,4.0,4.0,4.0,4.0,4.0,4.0,4.0,4.0,4.0,4.0,4.0,4.0,4.0,4.0,100.0,,,,,,,,,,,,,,,,,,,,,,,,,,,,,,,,,,,,,,,,,,,,,,,,,,,,,,,,,,,,,,,,,,,,,,,,,,,,,,,,,,,,,,,,,,,,,,,,,,,,,,,,,,,,,,,,,,,,,,,,,,,,,,,,,,,
1725710377.899624,1725710377.901553,167.0,0.0,4236.794922,4228.974121,4236.282227,4305.897461,4202.692383,4221.538574,4456.282227,4214.743652,4244.102539,4198.717773,4546.794922,4487.820313,4346.025879,4419.230957,3144.0,1.0,15.0,,,,0.0,4.0,4.0,4.0,4.0,4.0,4.0,4.0,4.0,4.0,4.0,4.0,4.0,4.0,4.0,100.0,,,,,,,,,,,,,,,,,,,,,,,,,,,,,,,,,,,,,,,,,,,,,,,,,,,,,,,,,,,,,,,,,,,,,,,,,,,,,,,,,,,,,,,,,,,,,,,,,,,,,,,,,,,,,,,,,,,,,,,,,,,,,,,,,,,
1725710377.903528,1725710377.905458,168.0,0.0,4236.538574,4228.717773,4235.0,4305.769043,4200.0,4224.102539,4460.897461,4217.94873,4244.615234,4198.846191,4540.769043,4487.179688,4347.307617,4420.128418,3425.0,1.0,15.0,,,,0.0,4.0,4.0,4.0,4.0,4.0,4.0,4.0,4.0,4.0,4.0,4.0,4.0,4.0,4.0,100.0,,,,,,,,,,,,,,,,,,,,,,,,,,,,,,,,,,,,,,,,,,,,,,,,,,,,,,,,0.0,0.0,1.0,0.0,1.0,0.0,,,,,,,,,,,,,,,,,,,,,,,,,,,,,,,,,,,,,,,,,,,,,,,,,,,,,,,,,,,,,,,,,,,,,,
1725710377.907432,1725710377.909362,169.0,0.0,4234.871582,4225.512695,4234.102539,4304.615234,4200.256348,4228.333496,4466.410156,4220.256348,4246.153809,4200.512695,4536.282227,4488.717773,4349.871582,4423.205078,3926.0,1.0,15.0,,,,0.0,4.0,4.0,4.0,4.0,4.0,4.0,4.0,4.0,4.0,4.0,4.0,4.0,4.0,4.0,100.0,,,,,,,,,,,,,,,,,,,,,,,,,,,,,,,,,,,,,,,,,,,,,,,,,,,,,,,,,,,,,,,,,,,,,,,,,,,,,,,,,,,,,,,,,,,,,,,,,,,,,,,,,,,,,,,,,,,,,,,,,,,,,,,,,,,
1725710377.911336,1725710377.913366,170.0,0.0,4232.94873,4220.512695,4233.461426,4303.205078,4202.05127,4231.282227,4470.641113,4220.0,4246.025879,4202.436035,4533.077148,4490.256348,4351.025879,4425.0,2909.0,1.0,15.0,,,,0.0,4.0,4.0,4.0,4.0,4.0,4.0,4.0,4.0,4.0,4.0,4.0,4.0,4.0,4.0,100.0,,,,,,,,,,,,,,,,,,,,,,,,,,,,,,,,,,,,,,,,,,,,,,,,,,,,,,,,,,,,,,,,,,,,,,,,,,,,,,,,,,,,,,,,,,,,,,,,,,,,,,,,,,,,,,,,,,,,,,,,,,,,,,,,,,,
1725710377.91524,1725710377.91727,171.0,0.0,4232.307617,4216.922852,4232.94873,4303.333496,4203.461426,4231.538574,4472.692383,4218.077148,4242.436035,4202.436035,4532.307617,4489.743652,4349.743652,4423.205078,3144.0,1.0,15.0,,,,0.0,4.0,4.0,4.0,4.0,4.0,4.0,4.0,4.0,4.0,4.0,4.0,4.0,4.0,4.0,100.0,,,,,,,,,,,,,,,,,,,,,,,,,,,,,,,,,,,,,,,,,,,,,,,,,,,,,,,,,,,,,,,,,,,,,,,,,,,,,,,,,,,,,,,,,,,,,,,,,,,,,,,,,,,,,,,,,,,,,,,,,,,,,,,,,,,
1725710377.919144,1725710377.921174,172.0,0.0,4232.94873,4217.563965,4232.307617,4305.641113,4203.205078,4229.358887,4473.589844,4216.794922,4236.666504,4199.487305,4535.384766,4487.563965,4347.692383,4418.589844,3425.0,1.0,15.0,,,,0.0,4.0,4.0,4.0,4.0,4.0,4.0,4.0,4.0,4.0,4.0,4.0,4.0,4.0,4.0,100.0,,,,,,,,,,,,,,,,,,,,,,,,,,,,,,,,,,,,,,,,,,,,,,,,,,,,,,,,,,,,,,,,,,,,,,,,,,,,,,,,,,,,,,,,,,,,,,,,,,,,,,,,,,,,,,,,,,,,,,,,,,,,,,,,,,,
1725710377.923048,1725710377.925078,173.0,0.0,4233.846191,4222.692383,4231.666504,4309.230957,4201.666504,4226.922852,4474.358887,4217.692383,4232.307617,4195.0,4542.436035,4486.153809,4347.436035,4415.256348,3926.0,1.0,15.0,,,,0.0,4.0,4.0,4.0,4.0,4.0,4.0,4.0,4.0,4.0,4.0,4.0,4.0,4.0,4.0,100.0,,,,,,,,,,,,,,,,,,,,,,,,,,,,,,,,,,,,,,,,,,,,,,,,,,,,,,,,,,,,,,,,,,,,,,,,,,,,,,,,,,,,,,,,,,,,,,,,,,,,,,,,,,,,,,,,,,,,,,,,,,,,,,,,,,,
1725710377.926952,1725710377.928982,174.0,0.0,4234.358887,4229.743652,4231.153809,4311.922852,4200.512695,4226.025879,4475.769043,4220.897461,4232.820313,4191.538574,4550.769043,4487.436035,4350.0,4416.922852,2909.0,1.0,15.0,,,,0.0,4.0,4.0,4.0,4.0,4.0,4.0,4.0,4.0,4.0,4.0,4.0,4.0,4.0,4.0,100.0,,,,,,,,,,,,,,,,,,,,,,,,,,,,,,,,,,,,,,,,,,,,,,,,,,,,,,,,,,,,,,,,,,,,,,,,,,,,,,,,,,,,,,,,,,,,,,,,,,,,,,,,,,,,,,,,,,,,,,,,,,,,,,,,,,,
1725710377.930857,1725710377.932786,175.0,0.0,4234.102539,4234.358887,4231.410156,4312.05127,4201.153809,4227.436035,4477.436035,4224.358887,4237.820313,4191.666504,4556.538574,4490.769043,4353.589844,4422.820313,3144.0,1.0,15.0,,,,0.0,4.0,4.0,4.0,4.0,4.0,4.0,4.0,4.0,4.0,4.0,4.0,4.0,4.0,4.0,100.0,,,,,,,,,,,,,,,,,,,,,,,,,,,,,,,,,,,,,,,,,,,,,,,,,,,,,,,,,,,,,,,,,,,,,,,,,,,,,,,,,,,,,,,,,,,,,,,,,,,,,,,,,,,,,,,,,,,,,,,,,,,,,,,,,,,
1725710377.934761,1725710377.93669,176.0,0.0,4234.102539,4233.589844,4231.922852,4309.102539,4203.333496,4230.0,4478.077148,4225.897461,4243.717773,4195.641113,4556.153809,4493.333496,4355.0,4427.820313,3425.0,1.0,15.0,,,,0.0,4.0,4.0,4.0,4.0,4.0,4.0,4.0,4.0,4.0,4.0,4.0,4.0,4.0,4.0,100.0,,,,,,,,,,,,,,,,,1.0,0.0,0.0,,,,,,,,,,,,,,,,,,,,,,,,,,,,,,,,,,,,,0.0,0.0,1.0,0.0,1.0,0.0,1.079192,0.979195,0.246695,0.131982,0.121485,1.597147,0.553884,0.347863,0.321723,0.105708,1.2611,0.567361,0.266029,0.114624,0.115043,1.689791,0.502591,0.425651,0.25739,0.186536,0.828631,0.317299,0.319429,0.106231,0.061549,0.068844,0.328213,0.184992,0.082387,0.057113,4.50693,0.885409,0.640586,0.189,0.041379,0.289999,1.730948,0.978923,0.182084,0.14585,0.799561,1.324641,0.356752,0.263526,0.103926,0.924075,1.076372,0.621141,0.290393,0.144027,1.40556,1.154883,1.421637,0.599819,0.447937,1.896448,0.837539,1.185832,0.333716,0.174583,2.248962,1.464469,0.42629,0.261673,0.241509,1.787773,1.012641,0.706493,0.245419,0.081589
1725710377.938665,1725710377.940594,177.0,0.0,4234.487305,4227.692383,4232.05127,4303.846191,4205.512695,4231.794922,4477.820313,4224.487305,4245.769043,4200.256348,4549.487305,4493.077148,4352.05127,4427.820313,3926.0,1.0,15.0,,,,0.0,4.0,4.0,4.0,4.0,4.0,4.0,4.0,4.0,4.0,4.0,4.0,4.0,4.0,4.0,100.0,,,,,,,,,,,,,,,,,,,,,,,,,,,,,,,,,,,,,,,,,,,,,,,,,,,,,,,,,,,,,,,,,,,,,,,,,,,,,,,,,,,,,,,,,,,,,,,,,,,,,,,,,,,,,,,,,,,,,,,,,,,,,,,,,,,
1725710377.942569,1725710377.944499,178.0,0.0,4234.743652,4220.769043,4231.410156,4298.333496,4206.410156,4231.410156,4477.179688,4220.897461,4242.436035,4201.666504,4540.769043,4490.384766,4346.282227,4423.077148,2909.0,1.0,15.0,,,,0.0,4.0,4.0,4.0,4.0,4.0,4.0,4.0,4.0,4.0,4.0,4.0,4.0,4.0,4.0,100.0,,,,,,,,,,,,,,,,,,,,,,,,,,,,,,,,,,,,,,,,,,,,,,,,,,,,,,,,,,,,,,,,,,,,,,,,,,,,,,,,,,,,,,,,,,,,,,,,,,,,,,,,,,,,,,,,,,,,,,,,,,,,,,,,,,,
1725710377.946473,1725710377.948303,179.0,0.0,4234.743652,4217.307617,4230.641113,4294.743652,4205.641113,4228.717773,4477.307617,4217.436035,4236.153809,4197.692383,4535.384766,4488.077148,4341.538574,4418.461426,3144.0,1.0,15.0,,,,0.0,4.0,4.0,4.0,4.0,4.0,4.0,4.0,4.0,4.0,4.0,4.0,4.0,4.0,4.0,100.0,,,,,,,,,,,,,,,,,,,,,,,,,,,,,,,,,,,,,,,,,,,,,,,,,,,,,,,,,,,,,,,,,,,,,,,,,,,,,,,,,,,,,,,,,,,,,,,,,,,,,,,,,,,,,,,,,,,,,,,,,,,,,,,,,,,
1725710377.950377,1725710377.952207,180.0,0.0,4235.256348,4219.230957,4230.769043,4293.974121,4204.102539,4224.487305,4477.820313,4216.153809,4230.897461,4190.512695,4535.641113,4488.589844,4340.641113,4418.589844,3425.0,1.0,15.0,,,,0.0,4.0,4.0,4.0,4.0,4.0,4.0,4.0,4.0,4.0,4.0,4.0,4.0,4.0,4.0,100.0,,,,,,,,,,,,,,,,,,,,,,,,,,,,,,,,,,,,,,,,,,,,,,,,,,,,,,,,,,,,,,,,,,,,,,,,,,,,,,,,,,,,,,,,,,,,,,,,,,,,,,,,,,,,,,,,,,,,,,,,,,,,,,,,,,,
1725710377.954281,1725710377.956111,181.0,0.0,4237.05127,4224.487305,4231.538574,4295.769043,4203.077148,4220.256348,4477.94873,4217.436035,4229.871582,4184.743652,4538.717773,4491.538574,4342.436035,4423.077148,3926.0,1.0,15.0,,,,0.0,4.0,4.0,4.0,4.0,4.0,4.0,4.0,4.0,4.0,4.0,4.0,4.0,4.0,4.0,100.0,,,,,,,,,,,,,,,,,,,,,,,,,,,,,,,,,,,,,,,,,,,,,,,,,,,,,,,,,,,,,,,,,,,,,,,,,,,,,,,,,,,,,,,,,,,,,,,,,,,,,,,,,,,,,,,,,,,,,,,,,,,,,,,,,,,
1725710377.958185,1725710377.960015,182.0,0.0,4239.358887,4230.0,4232.05127,4298.333496,4202.692383,4217.307617,4477.692383,4219.487305,4232.436035,4183.717773,4538.205078,4493.717773,4343.461426,4427.179688,2909.0,1.0,15.0,,,,0.0,4.0,4.0,4.0,4.0,4.0,4.0,4.0,4.0,4.0,4.0,4.0,4.0,4.0,4.0,100.0,,,,,,,,,,,,,,,,,,,,,,,,,,,,,,,,,,,,,,,,,,,,,,,,,,,,,,,,,,,,,,,,,,,,,,,,,,,,,,,,,,,,,,,,,,,,,,,,,,,,,,,,,,,,,,,,,,,,,,,,,,,,,,,,,,,
1725710377.962089,1725710377.963819,183.0,0.0,4240.512695,4232.820313,4230.641113,4299.871582,4202.307617,4216.922852,4477.307617,4219.871582,4235.128418,4186.410156,4530.641113,4492.563965,4342.05127,4426.282227,3144.0,1.0,15.0,,,,0.0,4.0,4.0,4.0,4.0,4.0,4.0,4.0,4.0,4.0,4.0,4.0,4.0,4.0,4.0,100.0,,,,,,,,,,,,,,,,,,,,,,,,,,,,,,,,,,,,,,,,,,,,,,,,,,,,,,,,,,,,,,,,,,,,,,,,,,,,,,,,,,,,,,,,,,,,,,,,,,,,,,,,,,,,,,,,,,,,,,,,,,,,,,,,,,,
1725710377.965993,1725710377.967723,184.0,0.0,4239.358887,4232.692383,4227.307617,4299.230957,4202.307617,4219.743652,4477.94873,4217.436035,4235.256348,4188.974121,4518.333496,4487.307617,4339.487305,4419.743652,3425.0,1.0,15.0,,,,0.0,4.0,4.0,4.0,4.0,4.0,4.0,4.0,4.0,4.0,4.0,4.0,4.0,4.0,4.0,100.0,,,,,,,,,,,,,,,,,,,,,,,,,,,,,,,,,,,,,,,,,,,,,,,,,,,,,,,,0.0,0.0,1.0,0.0,1.0,0.0,,,,,,,,,,,,,,,,,,,,,,,,,,,,,,,,,,,,,,,,,,,,,,,,,,,,,,,,,,,,,,,,,,,,,,
1725710377.969897,1725710377.971628,185.0,0.0,4236.410156,4230.897461,4222.94873,4296.666504,4203.461426,4224.358887,4480.384766,4213.333496,4232.820313,4188.333496,4507.692383,4480.384766,4338.333496,4412.307617,3926.0,1.0,15.0,,,,0.0,4.0,4.0,4.0,4.0,4.0,4.0,4.0,4.0,4.0,4.0,4.0,4.0,4.0,4.0,100.0,,,,,,,,,,,,,,,,,,,,,,,,,,,,,,,,,,,,,,,,,,,,,,,,,,,,,,,,,,,,,,,,,,,,,,,,,,,,,,,,,,,,,,,,,,,,,,,,,,,,,,,,,,,,,,,,,,,,,,,,,,,,,,,,,,,
1725710377.973801,1725710377.975432,186.0,0.0,4233.589844,4229.487305,4219.230957,4293.846191,4206.025879,4228.461426,4484.487305,4210.128418,4230.128418,4185.0,4503.974121,4475.897461,4339.871582,4409.358887,2909.0,1.0,15.0,,,,0.0,4.0,4.0,4.0,4.0,4.0,4.0,4.0,4.0,4.0,4.0,4.0,4.0,4.0,4.0,100.0,,,,,,,,,,,,,,,,,,,,,,,,,,,,,,,,,,,,,,,,,,,,,,,,,,,,,,,,,,,,,,,,,,,,,,,,,,,,,,,,,,,,,,,,,,,,,,,,,,,,,,,,,,,,,,,,,,,,,,,,,,,,,,,,,,,
1725710377.977706,1725710377.979336,187.0,0.0,4232.563965,4229.743652,4217.692383,4292.307617,4209.358887,4230.512695,4488.717773,4209.871582,4229.871582,4182.307617,4507.563965,4476.922852,4343.589844,4413.205078,3144.0,1.0,15.0,,,,0.0,4.0,4.0,4.0,4.0,4.0,4.0,4.0,4.0,4.0,4.0,4.0,4.0,4.0,4.0,100.0,,,,,,,,,,,,,,,,,,,,,,,,,,,,,,,,,,,,,,,,,,,,,,,,,,,,,,,,,,,,,,,,,,,,,,,,,,,,,,,,,,,,,,,,,,,,,,,,,,,,,,,,,,,,,,,,,,,,,,,,,,,,,,,,,,,
1725710377.98161,1725710377.98324,188.0,0.0,4233.461426,4230.769043,4218.846191,4292.436035,4211.922852,4230.641113,4490.897461,4212.436035,4232.436035,4183.205078,4515.128418,4483.589844,4348.333496,4421.153809,3425.0,1.0,15.0,,,,0.0,4.0,4.0,4.0,4.0,4.0,4.0,4.0,4.0,4.0,4.0,4.0,4.0,4.0,4.0,100.0,,,,,,,,,,,,,,,,,,,,,,,,,,,,,,,,,,,,,,,,,,,,,,,,,,,,,,,,,,,,,,,,,,,,,,,,,,,,,,,,,,,,,,,,,,,,,,,,,,,,,,,,,,,,,,,,,,,,,,,,,,,,,,,,,,,
1725710377.985514,1725710377.987244,189.0,0.0,4234.743652,4231.025879,4221.025879,4293.205078,4212.05127,4230.256348,4490.641113,4216.153809,4235.769043,4187.563965,4522.05127,4491.922852,4352.307617,4428.333496,3926.0,1.0,15.0,,,,0.0,4.0,4.0,4.0,4.0,4.0,4.0,4.0,4.0,4.0,4.0,4.0,4.0,4.0,4.0,100.0,,,,,,,,,,,,,,,,,,,,,,,,,,,,,,,,,,,,,,,,,,,,,,,,,,,,,,,,,,,,,,,,,,,,,,,,,,,,,,,,,,,,,,,,,,,,,,,,,,,,,,,,,,,,,,,,,,,,,,,,,,,,,,,,,,,
1725710377.989418,1725710377.991148,190.0,0.0,4234.871582,4229.102539,4221.666504,4293.589844,4209.487305,4229.615234,4488.974121,4218.846191,4237.436035,4192.563965,4525.769043,4496.410156,4354.358887,4430.897461,2909.0,1.0,15.0,,,,0.0,4.0,4.0,4.0,4.0,4.0,4.0,4.0,4.0,4.0,4.0,4.0,4.0,4.0,4.0,100.0,,,,,,,,,,,,,,,,,,,,,,,,,,,,,,,,,,,,,,,,,,,,,,,,,,,,,,,,,,,,,,,,,,,,,,,,,,,,,,,,,,,,,,,,,,,,,,,,,,,,,,,,,,,,,,,,,,,,,,,,,,,,,,,,,,,
1725710377.993322,1725710377.995052,191.0,0.0,4233.717773,4226.025879,4220.128418,4293.077148,4205.512695,4228.333496,4487.436035,4219.358887,4236.538574,4194.743652,4526.025879,4493.717773,4353.717773,4428.333496,3144.0,1.0,15.0,,,,0.0,4.0,4.0,4.0,4.0,4.0,4.0,4.0,4.0,4.0,4.0,4.0,4.0,4.0,4.0,100.0,,,,,,,,,,,,,,,,,,,,,,,,,,,,,,,,,,,,,,,,,,,,,,,,,,,,,,,,,,,,,,,,,,,,,,,,,,,,,,,,,,,,,,,,,,,,,,,,,,,,,,,,,,,,,,,,,,,,,,,,,,,,,,,,,,,
1725710377.997226,1725710377.998956,192.0,0.0,4232.563965,4224.358887,4217.436035,4292.05127,4202.307617,4225.512695,4486.922852,4217.692383,4233.846191,4192.692383,4523.846191,4486.025879,4351.025879,4423.333496,3425.0,1.0,15.0,,,,0.0,4.0,4.0,4.0,4.0,4.0,4.0,4.0,4.0,4.0,4.0,4.0,4.0,4.0,4.0,100.0,,,,,,,,,,,,,,,,,,,,,,,,,,,,,,,,,,,,,,,,,,,,,,,,,,,,,,,,0.0,0.0,1.0,0.0,1.0,0.0,,,,,,,,,,,,,,,,,,,,,,,,,,,,,,,,,,,,,,,,,,,,,,,,,,,,,,,,,,,,,,,,,,,,,,
1725710378.00113,1725710378.00286,193.0,0.0,4232.94873,4225.641113,4216.538574,4290.769043,4201.410156,4221.922852,4487.563965,4215.256348,4231.282227,4187.94873,4520.256348,4478.461426,4347.307617,4418.846191,3926.0,1.0,15.0,,,,0.0,4.0,4.0,4.0,4.0,4.0,4.0,4.0,4.0,4.0,4.0,4.0,4.0,4.0,4.0,100.0,,,,,,,,,,,,,,,,,,,,,,,,,,,,,,,,,,,,,,,,,,,,,,,,,,,,,,,,,,,,,,,,,,,,,,,,,,,,,,,,,,,,,,,,,,,,,,,,,,,,,,,,,,,,,,,,,,,,,,,,,,,,,,,,,,,
1725710378.005034,1725710378.006764,194.0,0.0,4235.769043,4229.743652,4218.717773,4290.769043,4202.436035,4219.358887,4488.846191,4213.205078,4230.256348,4183.461426,4516.153809,4475.897461,4344.102539,4416.282227,2909.0,1.0,15.0,,,,0.0,4.0,4.0,4.0,4.0,4.0,4.0,4.0,4.0,4.0,4.0,4.0,4.0,4.0,4.0,100.0,,,,,,,,,,,,,,,,,,,,,,,,,,,,,,,,,,,,,,,,,,,,,,,,,,,,,,,,,,,,,,,,,,,,,,,,,,,,,,,,,,,,,,,,,,,,,,,,,,,,,,,,,,,,,,,,,,,,,,,,,,,,,,,,,,,
1725710378.008938,1725710378.010569,195.0,0.0,4240.0,4234.102539,4222.820313,4292.563965,4203.717773,4220.0,4489.871582,4212.563965,4230.641113,4181.794922,4512.179688,4479.230957,4342.563965,4415.769043,3144.0,1.0,15.0,,,,0.0,4.0,4.0,4.0,4.0,4.0,4.0,4.0,4.0,4.0,4.0,4.0,4.0,4.0,4.0,100.0,,,,,,,,,,,,,,,,,,,,,,,,,,,,,,,,,,,,,,,,,,,,,,,,,,,,,,,,,,,,,,,,,,,,,,,,,,,,,,,,,,,,,,,,,,,,,,,,,,,,,,,,,,,,,,,,,,,,,,,,,,,,,,,,,,,
1725710378.012843,1725710378.014473,196.0,0.0,4244.102539,4236.282227,4226.153809,4295.256348,4203.589844,4223.974121,4490.128418,4213.461426,4231.794922,4182.820313,4509.230957,4485.769043,4342.436035,4417.179688,3425.0,1.0,15.0,,,,0.0,4.0,4.0,4.0,4.0,4.0,4.0,4.0,4.0,4.0,4.0,4.0,4.0,4.0,4.0,100.0,,,,,,,,,,,,,,,,,,,,,,,,,,,,,,,,,,,,,,,,,,,,,,,,,,,,,,,,,,,,,,,,,,,,,,,,,,,,,,,,,,,,,,,,,,,,,,,,,,,,,,,,,,,,,,,,,,,,,,,,,,,,,,,,,,,
1725710378.016747,1725710378.018477,197.0,0.0,4246.538574,4236.282227,4226.538574,4296.153809,4202.307617,4229.230957,4488.974121,4215.256348,4232.94873,4184.743652,4507.820313,4491.282227,4342.94873,4420.512695,3926.0,1.0,15.0,,,,0.0,4.0,4.0,4.0,4.0,4.0,4.0,4.0,4.0,4.0,4.0,4.0,4.0,4.0,4.0,100.0,,,,,,,,,,,,,,,,,,,,,,,,,,,,,,,,,,,,,,,,,,,,,,,,,,,,,,,,,,,,,,,,,,,,,,,,,,,,,,,,,,,,,,,,,,,,,,,,,,,,,,,,,,,,,,,,,,,,,,,,,,,,,,,,,,,
1725710378.020651,1725710378.022381,198.0,0.0,4247.179688,4234.871582,4224.358887,4293.846191,4201.666504,4233.077148,4486.282227,4217.05127,4233.717773,4185.641113,4508.205078,4493.461426,4343.333496,4424.615234,2909.0,1.0,15.0,,,,0.0,4.0,4.0,4.0,4.0,4.0,4.0,4.0,4.0,4.0,4.0,4.0,4.0,4.0,4.0,100.0,,,,,,,,,,,,,,,,,,,,,,,,,,,,,,,,,,,,,,,,,,,,,,,,,,,,,,,,,,,,,,,,,,,,,,,,,,,,,,,,,,,,,,,,,,,,,,,,,,,,,,,,,,,,,,,,,,,,,,,,,,,,,,,,,,,
1725710378.024555,1725710378.026285,199.0,0.0,4246.282227,4233.461426,4221.410156,4288.333496,4202.436035,4234.102539,4482.563965,4218.077148,4233.846191,4184.743652,4509.743652,4492.307617,4343.461426,4427.563965,3144.0,1.0,15.0,,,,0.0,4.0,4.0,4.0,4.0,4.0,4.0,4.0,4.0,4.0,4.0,4.0,4.0,4.0,4.0,100.0,,,,,,,,,,,,,,,,,,,,,,,,,,,,,,,,,,,,,,,,,,,,,,,,,,,,,,,,,,,,,,,,,,,,,,,,,,,,,,,,,,,,,,,,,,,,,,,,,,,,,,,,,,,,,,,,,,,,,,,,,,,,,,,,,,,
1725710378.028459,1725710378.030189,200.0,0.0,4244.871582,4232.563965,4219.871582,4282.179688,4203.717773,4232.692383,4478.333496,4218.205078,4233.205078,4183.205078,4511.666504,4489.615234,4344.230957,4428.077148,3425.0,1.0,15.0,,,,0.0,4.0,4.0,4.0,4.0,4.0,4.0,4.0,4.0,4.0,4.0,4.0,4.0,4.0,4.0,100.0,,,,,,,,,,,,,,,,,,,,,,,,,,,,,,,,,,,,,,,,,,,,,,,,,,,,,,,,0.0,0.0,1.0,0.0,1.0,0.0,,,,,,,,,,,,,,,,,,,,,,,,,,,,,,,,,,,,,,,,,,,,,,,,,,,,,,,,,,,,,,,,,,,,,,
1725710378.032363,1725710378.034093,201.0,0.0,4243.461426,4232.307617,4220.512695,4278.846191,4203.717773,4230.384766,4474.871582,4217.820313,4232.05127,4182.307617,4513.717773,4487.436035,4346.025879,4426.410156,3926.0,1.0,15.0,,,,0.0,4.0,4.0,4.0,4.0,4.0,4.0,4.0,4.0,4.0,4.0,4.0,4.0,4.0,4.0,100.0,,,,,,,,,,,,,,,,,,,,,,,,,,,,,,,,,,,,,,,,,,,,,,,,,,,,,,,,,,,,,,,,,,,,,,,,,,,,,,,,,,,,,,,,,,,,,,,,,,,,,,,,,,,,,,,,,,,,,,,,,,,,,,,,,,,
1725710378.036267,1725710378.037897,202.0,0.0,4242.94873,4232.436035,4222.692383,4280.641113,4202.179688,4229.230957,4472.820313,4218.077148,4231.153809,4183.461426,4516.025879,4487.307617,4348.846191,4424.615234,2909.0,1.0,15.0,,,,0.0,4.0,4.0,4.0,4.0,4.0,4.0,4.0,4.0,4.0,4.0,4.0,4.0,4.0,4.0,100.0,,,,,,,,,,,,,,,,,,,,,,,,,,,,,,,,,,,,,,,,,,,,,,,,,,,,,,,,,,,,,,,,,,,,,,,,,,,,,,,,,,,,,,,,,,,,,,,,,,,,,,,,,,,,,,,,,,,,,,,,,,,,,,,,,,,
1725710378.040171,1725710378.041802,203.0,0.0,4243.589844,4232.436035,4225.384766,4286.794922,4201.794922,4229.615234,4472.563965,4218.846191,4231.153809,4186.025879,4518.333496,4489.358887,4351.794922,4424.358887,3144.0,1.0,15.0,,,,0.0,4.0,4.0,4.0,4.0,4.0,4.0,4.0,4.0,4.0,4.0,4.0,4.0,4.0,4.0,100.0,,,,,,,,,,,,,,,,,,,,,,,,,,,,,,,,,,,,,,,,,,,,,,,,,,,,,,,,,,,,,,,,,,,,,,,,,,,,,,,,,,,,,,,,,,,,,,,,,,,,,,,,,,,,,,,,,,,,,,,,,,,,,,,,,,,
1725710378.044075,1725710378.045706,204.0,0.0,4245.128418,4232.179688,4227.820313,4293.333496,4204.358887,4231.153809,4473.077148,4219.743652,4231.922852,4188.205078,4519.358887,4492.179688,4352.94873,4426.025879,3425.0,1.0,15.0,,,,0.0,4.0,4.0,4.0,4.0,4.0,4.0,4.0,4.0,4.0,4.0,4.0,4.0,4.0,4.0,100.0,,,,,,,,,,,,,,,,,,,,,,,,,,,,,,,,,,,,,,,,,,,,,,,,,,,,,,,,,,,,,,,,,,,,,,,,,,,,,,,,,,,,,,,,,,,,,,,,,,,,,,,,,,,,,,,,,,,,,,,,,,,,,,,,,,,
1725710378.047979,1725710378.04961,205.0,0.0,4246.666504,4231.922852,4228.974121,4295.769043,4209.230957,4232.820313,4473.333496,4219.615234,4232.692383,4189.230957,4517.94873,4493.461426,4351.666504,4427.94873,3926.0,1.0,15.0,,,,0.0,4.0,4.0,4.0,4.0,4.0,4.0,4.0,4.0,4.0,4.0,4.0,4.0,4.0,4.0,100.0,,,,,,,,,,,,,,,,,,,,,,,,,,,,,,,,,,,,,,,,,,,,,,,,,,,,,,,,,,,,,,,,,,,,,,,,,,,,,,,,,,,,,,,,,,,,,,,,,,,,,,,,,,,,,,,,,,,,,,,,,,,,,,,,,,,
1725710378.051884,1725710378.053414,206.0,0.0,4247.307617,4232.307617,4229.230957,4292.692383,4213.461426,4233.333496,4472.820313,4218.333496,4233.077148,4189.230957,4514.230957,4491.922852,4348.461426,4428.589844,2909.0,1.0,15.0,,,,0.0,4.0,4.0,4.0,4.0,4.0,4.0,4.0,4.0,4.0,4.0,4.0,4.0,4.0,4.0,100.0,,,,,,,,,,,,,,,,,,,,,,,,,,,,,,,,,,,,,,,,,,,,,,,,,,,,,,,,,,,,,,,,,,,,,,,,,,,,,,,,,,,,,,,,,,,,,,,,,,,,,,,,,,,,,,,,,,,,,,,,,,,,,,,,,,,
1725710378.055788,1725710378.057318,207.0,0.0,4246.922852,4233.333496,4228.974121,4287.563965,4214.358887,4232.692383,4471.153809,4216.538574,4232.94873,4188.846191,4509.871582,4488.589844,4345.512695,4427.307617,3144.0,1.0,15.0,,,,0.0,4.0,4.0,4.0,4.0,4.0,4.0,4.0,4.0,4.0,4.0,4.0,4.0,4.0,4.0,100.0,,,,,,,,,,,,,,,,,,,,,,,,,,,,,,,,,,,,,,,,,,,,,,,,,,,,,,,,,,,,,,,,,,,,,,,,,,,,,,,,,,,,,,,,,,,,,,,,,,,,,,,,,,,,,,,,,,,,,,,,,,,,,,,,,,,
1725710378.059692,1725710378.061222,208.0,0.0,4246.410156,4234.743652,4228.846191,4285.256348,4212.179688,4231.666504,4468.846191,4215.641113,4232.307617,4188.077148,4507.05127,4486.538574,4344.102539,4425.384766,3425.0,1.0,15.0,,,,0.0,4.0,4.0,4.0,4.0,4.0,4.0,4.0,4.0,4.0,4.0,4.0,4.0,4.0,4.0,100.0,,,,,,,,,,,,,,,,,1.0,0.0,0.0,,,,,,,,,,,,,,,,,,,,,,,,,,,,,,,,,,,,,0.0,0.0,1.0,0.0,1.0,0.0,1.005834,1.127113,0.236964,0.137489,0.123239,1.730601,0.668756,0.372028,0.355642,0.101506,1.062342,0.650816,0.242861,0.148968,0.12053,1.703537,0.591922,0.356277,0.257247,0.182818,0.965611,0.378246,0.282491,0.107634,0.05099,0.059174,0.253693,0.188653,0.079008,0.04901,4.465527,0.955475,0.579776,0.19988,0.04514,0.251031,1.935148,1.02623,0.180731,0.130016,0.640599,1.230451,0.330493,0.252267,0.109502,0.989772,1.026504,0.530922,0.297671,0.136728,1.106803,1.192856,1.51823,0.618665,0.455739,1.90804,1.084359,1.09424,0.349649,0.174653,2.024963,1.299124,0.3653,0.320303,0.255497,1.717965,1.161283,0.661538,0.298862,0.086698
1725710378.063596,1725710378.065226,209.0,0.0,4246.538574,4236.153809,4229.230957,4287.820313,4209.487305,4230.897461,4466.538574,4216.538574,4231.794922,4187.179688,4507.179688,4487.820313,4344.230957,4424.487305,3926.0,1.0,15.0,,,,0.0,4.0,4.0,4.0,4.0,4.0,4.0,4.0,4.0,4.0,4.0,4.0,4.0,4.0,4.0,100.0,,,,,,,,,,,,,,,,,,,,,,,,,,,,,,,,,,,,,,,,,,,,,,,,,,,,,,,,,,,,,,,,,,,,,,,,,,,,,,,,,,,,,,,,,,,,,,,,,,,,,,,,,,,,,,,,,,,,,,,,,,,,,,,,,,,
1725710378.0675,1725710378.06913,210.0,0.0,4246.922852,4236.922852,4229.615234,4292.94873,4208.589844,4230.512695,4464.615234,4218.717773,4231.666504,4186.282227,4509.102539,4492.436035,4345.0,4425.256348,2909.0,1.0,15.0,,,,0.0,4.0,4.0,4.0,4.0,4.0,4.0,4.0,4.0,4.0,4.0,4.0,4.0,4.0,4.0,100.0,,,,,,,,,,,,,,,,,,,,,,,,,,,,,,,,,,,,,,,,,,,,,,,,,,,,,,,,,,,,,,,,,,,,,,,,,,,,,,,,,,,,,,,,,,,,,,,,,,,,,,,,,,,,,,,,,,,,,,,,,,,,,,,,,,,
1725710378.071404,1725710378.073034,211.0,0.0,4247.307617,4236.794922,4230.128418,4295.769043,4209.743652,4230.512695,4463.077148,4220.769043,4232.05127,4186.282227,4510.769043,4498.461426,4345.512695,4426.922852,3144.0,1.0,15.0,,,,0.0,4.0,4.0,4.0,4.0,4.0,4.0,4.0,4.0,4.0,4.0,4.0,4.0,4.0,4.0,100.0,,,,,,,,,,,,,,,,,,,,,,,,,,,,,,,,,,,,,,,,,,,,,,,,,,,,,,,,,,,,,,,,,,,,,,,,,,,,,,,,,,,,,,,,,,,,,,,,,,,,,,,,,,,,,,,,,,,,,,,,,,,,,,,,,,,
1725710378.075308,1725710378.076938,212.0,0.0,4246.666504,4235.641113,4230.769043,4293.589844,4210.641113,4230.0,4461.666504,4221.538574,4233.077148,4187.820313,4510.769043,4502.94873,4345.512695,4427.820313,3425.0,1.0,15.0,,,,0.0,4.0,4.0,4.0,4.0,4.0,4.0,4.0,4.0,4.0,4.0,4.0,4.0,4.0,4.0,100.0,,,,,,,,,,,,,,,,,,,,,,,,,,,,,,,,,,,,,,,,,,,,,,,,,,,,,,,,,,,,,,,,,,,,,,,,,,,,,,,,,,,,,,,,,,,,,,,,,,,,,,,,,,,,,,,,,,,,,,,,,,,,,,,,,,,
1725710378.079212,1725710378.080942,213.0,0.0,4245.512695,4233.974121,4231.282227,4288.205078,4209.102539,4228.717773,4460.128418,4220.512695,4234.102539,4190.897461,4509.358887,4503.333496,4345.769043,4427.94873,3926.0,1.0,15.0,,,,0.0,4.0,4.0,4.0,4.0,4.0,4.0,4.0,4.0,4.0,4.0,4.0,4.0,4.0,4.0,100.0,,,,,,,,,,,,,,,,,,,,,,,,,,,,,,,,,,,,,,,,,,,,,,,,,,,,,,,,,,,,,,,,,,,,,,,,,,,,,,,,,,,,,,,,,,,,,,,,,,,,,,,,,,,,,,,,,,,,,,,,,,,,,,,,,,,
1725710378.083116,1725710378.084847,214.0,0.0,4244.615234,4232.436035,4231.410156,4283.717773,4205.384766,4226.666504,4459.487305,4219.230957,4235.128418,4194.615234,4507.563965,4499.615234,4346.794922,4427.94873,2909.0,1.0,15.0,,,,0.0,4.0,4.0,4.0,4.0,4.0,4.0,4.0,4.0,4.0,4.0,4.0,4.0,4.0,4.0,100.0,,,,,,,,,,,,,,,,,,,,,,,,,,,,,,,,,,,,,,,,,,,,,,,,,,,,,,,,,,,,,,,,,,,,,,,,,,,,,,,,,,,,,,,,,,,,,,,,,,,,,,,,,,,,,,,,,,,,,,,,,,,,,,,,,,,
1725710378.087021,1725710378.088751,215.0,0.0,4245.0,4231.922852,4231.153809,4282.94873,4202.05127,4225.128418,4460.384766,4218.461426,4236.025879,4197.94873,4506.794922,4494.358887,4348.717773,4428.461426,3144.0,1.0,15.0,,,,0.0,4.0,4.0,4.0,4.0,4.0,4.0,4.0,4.0,4.0,4.0,4.0,4.0,4.0,4.0,100.0,,,,,,,,,,,,,,,,,,,,,,,,,,,,,,,,,,,,,,,,,,,,,,,,,,,,,,,,,,,,,,,,,,,,,,,,,,,,,,,,,,,,,,,,,,,,,,,,,,,,,,,,,,,,,,,,,,,,,,,,,,,,,,,,,,,
1725710378.090925,1725710378.092755,216.0,0.0,4246.410156,4232.563965,4231.153809,4285.0,4201.794922,4225.128418,4463.205078,4218.974121,4236.410156,4199.743652,4507.179688,4490.769043,4351.153809,4428.846191,3425.0,1.0,15.0,,,,0.0,4.0,4.0,4.0,4.0,4.0,4.0,4.0,4.0,4.0,4.0,4.0,4.0,4.0,4.0,100.0,,,,,,,,,,,,,,,,,,,,,,,,,,,,,,,,,,,,,,,,,,,,,,,,,,,,,,,,0.0,0.0,1.0,0.0,1.0,0.0,,,,,,,,,,,,,,,,,,,,,,,,,,,,,,,,,,,,,,,,,,,,,,,,,,,,,,,,,,,,,,,,,,,,,,
1725710378.094829,1725710378.096659,217.0,0.0,4248.077148,4233.717773,4231.282227,4286.794922,4205.512695,4226.666504,4467.436035,4219.743652,4236.025879,4199.743652,4507.820313,4490.641113,4354.102539,4428.846191,3926.0,1.0,15.0,,,,0.0,4.0,4.0,4.0,4.0,4.0,4.0,4.0,4.0,4.0,4.0,4.0,4.0,4.0,4.0,100.0,,,,,,,,,,,,,,,,,,,,,,,,,,,,,,,,,,,,,,,,,,,,,,,,,,,,,,,,,,,,,,,,,,,,,,,,,,,,,,,,,,,,,,,,,,,,,,,,,,,,,,,,,,,,,,,,,,,,,,,,,,,,,,,,,,,
1725710378.098733,1725710378.100563,218.0,0.0,4248.717773,4235.256348,4231.410156,4285.769043,4210.897461,4228.461426,4471.282227,4219.615234,4235.0,4198.717773,4508.461426,4493.333496,4357.307617,4428.717773,2909.0,1.0,15.0,,,,0.0,4.0,4.0,4.0,4.0,4.0,4.0,4.0,4.0,4.0,4.0,4.0,4.0,4.0,4.0,100.0,,,,,,,,,,,,,,,,,,,,,,,,,,,,,,,,,,,,,,,,,,,,,,,,,,,,,,,,,,,,,,,,,,,,,,,,,,,,,,,,,,,,,,,,,,,,,,,,,,,,,,,,,,,,,,,,,,,,,,,,,,,,,,,,,,,
1725710378.102637,1725710378.104467,219.0,0.0,4248.077148,4237.820313,4231.666504,4281.922852,4214.230957,4228.974121,4473.589844,4218.461426,4233.974121,4197.179688,4508.589844,4495.897461,4359.743652,4429.230957,3144.0,1.0,15.0,,,,0.0,4.0,4.0,4.0,4.0,4.0,4.0,4.0,4.0,4.0,4.0,4.0,4.0,4.0,4.0,100.0,,,,,,,,,,,,,,,,,,,,,,,,,,,,,,,,,,,,,,,,,,,,,,,,,,,,,,,,,,,,,,,,,,,,,,,,,,,,,,,,,,,,,,,,,,,,,,,,,,,,,,,,,,,,,,,,,,,,,,,,,,,,,,,,,,,
1725710378.106541,1725710378.108371,220.0,0.0,4246.666504,4241.538574,4232.563965,4278.461426,4213.461426,4228.077148,4473.846191,4217.307617,4233.333496,4195.128418,4508.974121,4496.153809,4360.769043,4431.025879,3425.0,1.0,15.0,,,,0.0,4.0,4.0,4.0,4.0,4.0,4.0,4.0,4.0,4.0,4.0,4.0,4.0,4.0,4.0,100.0,,,,,,,,,,,,,,,,,,,,,,,,,,,,,,,,,,,,,,,,,,,,,,,,,,,,,,,,,,,,,,,,,,,,,,,,,,,,,,,,,,,,,,,,,,,,,,,,,,,,,,,,,,,,,,,,,,,,,,,,,,,,,,,,,,,
1725710378.110445,1725710378.112175,221.0,0.0,4245.641113,4245.256348,4234.230957,4277.820313,4211.025879,4226.666504,4473.077148,4216.666504,4233.205078,4192.436035,4509.615234,4494.102539,4359.871582,4433.461426,3926.0,1.0,15.0,,,,0.0,4.0,4.0,4.0,4.0,4.0,4.0,4.0,4.0,4.0,4.0,4.0,4.0,4.0,4.0,100.0,,,,,,,,,,,,,,,,,,,,,,,,,,,,,,,,,,,,,,,,,,,,,,,,,,,,,,,,,,,,,,,,,,,,,,,,,,,,,,,,,,,,,,,,,,,,,,,,,,,,,,,,,,,,,,,,,,,,,,,,,,,,,,,,,,,
1725710378.114349,1725710378.116079,222.0,0.0,4245.641113,4246.666504,4235.641113,4280.0,4210.769043,4226.410156,4472.820313,4216.538574,4233.717773,4188.974121,4510.0,4492.179688,4358.333496,4435.256348,2909.0,1.0,15.0,,,,0.0,4.0,4.0,4.0,4.0,4.0,4.0,4.0,4.0,4.0,4.0,4.0,4.0,4.0,4.0,100.0,,,,,,,,,,,,,,,,,,,,,,,,,,,,,,,,,,,,,,,,,,,,,,,,,,,,,,,,,,,,,,,,,,,,,,,,,,,,,,,,,,,,,,,,,,,,,,,,,,,,,,,,,,,,,,,,,,,,,,,,,,,,,,,,,,,
1725710378.118253,1725710378.119983,223.0,0.0,4246.282227,4244.102539,4235.769043,4282.179688,4213.461426,4228.077148,4473.589844,4216.410156,4234.102539,4185.641113,4509.487305,4492.820313,4357.05127,4435.256348,3144.0,1.0,15.0,,,,0.0,4.0,4.0,4.0,4.0,4.0,4.0,4.0,4.0,4.0,4.0,4.0,4.0,4.0,4.0,100.0,,,,,,,,,,,,,,,,,,,,,,,,,,,,,,,,,,,,,,,,,,,,,,,,,,,,,,,,,,,,,,,,,,,,,,,,,,,,,,,,,,,,,,,,,,,,,,,,,,,,,,,,,,,,,,,,,,,,,,,,,,,,,,,,,,,
1725710378.122157,1725710378.123987,224.0,0.0,4247.05127,4238.974121,4234.871582,4281.922852,4215.897461,4230.256348,4474.102539,4216.666504,4233.846191,4183.461426,4508.077148,4496.153809,4356.666504,4433.077148,3425.0,1.0,15.0,,,,0.0,4.0,4.0,4.0,4.0,4.0,4.0,4.0,4.0,4.0,4.0,4.0,4.0,4.0,4.0,100.0,,,,,,,,,,,,,,,,,,,,,,,,,,,,,,,,,,,,,,,,,,,,,,,,,,,,,,,,0.0,0.0,1.0,0.0,1.0,0.0,,,,,,,,,,,,,,,,,,,,,,,,,,,,,,,,,,,,,,,,,,,,,,,,,,,,,,,,,,,,,,,,,,,,,,
1725710378.126062,1725710378.127892,225.0,0.0,4247.05127,4234.487305,4234.230957,4279.871582,4214.487305,4230.897461,4473.077148,4217.820313,4233.205078,4183.333496,4507.05127,4499.871582,4356.794922,4430.0,3926.0,1.0,15.0,,,,0.0,4.0,4.0,4.0,4.0,4.0,4.0,4.0,4.0,4.0,4.0,4.0,4.0,4.0,4.0,100.0,,,,,,,,,,,,,,,,,,,,,,,,,,,,,,,,,,,,,,,,,,,,,,,,,,,,,,,,,,,,,,,,,,,,,,,,,,,,,,,,,,,,,,,,,,,,,,,,,,,,,,,,,,,,,,,,,,,,,,,,,,,,,,,,,,,
1725710378.129966,1725710378.131796,226.0,0.0,4246.410156,4233.589844,4235.384766,4279.230957,4209.487305,4228.974121,4470.0,4220.512695,4232.692383,4185.128418,4507.307617,4501.025879,4356.282227,4427.820313,2909.0,1.0,15.0,,,,0.0,4.0,4.0,4.0,4.0,4.0,4.0,4.0,4.0,4.0,4.0,4.0,4.0,4.0,4.0,100.0,,,,,,,,,,,,,,,,,,,,,,,,,,,,,,,,,,,,,,,,,,,,,,,,,,,,,,,,,,,,,,,,,,,,,,,,,,,,,,,,,,,,,,,,,,,,,,,,,,,,,,,,,,,,,,,,,,,,,,,,,,,,,,,,,,,
1725710378.13387,1725710378.1357,227.0,0.0,4245.897461,4237.05127,4239.102539,4281.410156,4205.0,4226.153809,4466.153809,4224.358887,4232.563965,4187.436035,4508.974121,4498.974121,4354.230957,4427.692383,3144.0,1.0,15.0,,,,0.0,4.0,4.0,4.0,4.0,4.0,4.0,4.0,4.0,4.0,4.0,4.0,4.0,4.0,4.0,100.0,,,,,,,,,,,,,,,,,,,,,,,,,,,,,,,,,,,,,,,,,,,,,,,,,,,,,,,,,,,,,,,,,,,,,,,,,,,,,,,,,,,,,,,,,,,,,,,,,,,,,,,,,,,,,,,,,,,,,,,,,,,,,,,,,,,
1725710378.137774,1725710378.139604,228.0,0.0,4246.025879,4243.205078,4244.102539,4285.384766,4204.487305,4225.512695,4463.461426,4228.333496,4233.077148,4188.717773,4511.025879,4495.256348,4350.769043,4428.846191,3425.0,1.0,15.0,,,,0.0,4.0,4.0,4.0,4.0,4.0,4.0,4.0,4.0,4.0,4.0,4.0,4.0,4.0,4.0,100.0,,,,,,,,,,,,,,,,,,,,,,,,,,,,,,,,,,,,,,,,,,,,,,,,,,,,,,,,,,,,,,,,,,,,,,,,,,,,,,,,,,,,,,,,,,,,,,,,,,,,,,,,,,,,,,,,,,,,,,,,,,,,,,,,,,,
1725710378.141678,1725710378.143408,229.0,0.0,4247.05127,4249.102539,4247.94873,4287.820313,4208.077148,4228.717773,4462.563965,4231.153809,4233.974121,4189.358887,4512.05127,4492.307617,4347.94873,4430.0,3926.0,1.0,15.0,,,,0.0,4.0,4.0,4.0,4.0,4.0,4.0,4.0,4.0,4.0,4.0,4.0,4.0,4.0,4.0,100.0,,,,,,,,,,,,,,,,,,,,,,,,,,,,,,,,,,,,,,,,,,,,,,,,,,,,,,,,,,,,,,,,,,,,,,,,,,,,,,,,,,,,,,,,,,,,,,,,,,,,,,,,,,,,,,,,,,,,,,,,,,,,,,,,,,,
1725710378.145582,1725710378.147312,230.0,0.0,4248.589844,4251.538574,4248.333496,4287.05127,4211.794922,4233.589844,4462.563965,4232.179688,4235.128418,4190.384766,4511.666504,4491.538574,4347.94873,4430.128418,2909.0,1.0,15.0,,,,0.0,4.0,4.0,4.0,4.0,4.0,4.0,4.0,4.0,4.0,4.0,4.0,4.0,4.0,4.0,100.0,,,,,,,,,,,,,,,,,,,,,,,,,,,,,,,,,,,,,,,,,,,,,,,,,,,,,,,,,,,,,,,,,,,,,,,,,,,,,,,,,,,,,,,,,,,,,,,,,,,,,,,,,,,,,,,,,,,,,,,,,,,,,,,,,,,
1725710378.149486,1725710378.151216,231.0,0.0,4249.615234,4249.615234,4244.743652,4284.230957,4212.179688,4235.897461,4461.153809,4230.769043,4236.025879,4191.538574,4509.743652,4492.563965,4350.769043,4428.974121,3144.0,1.0,15.0,,,,0.0,4.0,4.0,4.0,4.0,4.0,4.0,4.0,4.0,4.0,4.0,4.0,4.0,4.0,4.0,100.0,,,,,,,,,,,,,,,,,,,,,,,,,,,,,,,,,,,,,,,,,,,,,,,,,,,,,,,,,,,,,,,,,,,,,,,,,,,,,,,,,,,,,,,,,,,,,,,,,,,,,,,,,,,,,,,,,,,,,,,,,,,,,,,,,,,
1725710378.15339,1725710378.15512,232.0,0.0,4249.230957,4244.743652,4238.974121,4281.153809,4208.589844,4232.94873,4457.179688,4227.05127,4236.025879,4190.769043,4507.436035,4493.077148,4353.846191,4427.179688,3425.0,1.0,15.0,,,,0.0,4.0,4.0,4.0,4.0,4.0,4.0,4.0,4.0,4.0,4.0,4.0,4.0,4.0,4.0,100.0,,,,,,,,,,,,,,,,,,,,,,,,,,,,,,,,,,,,,,,,,,,,,,,,,,,,,,,,0.0,0.0,1.0,0.0,1.0,0.0,,,,,,,,,,,,,,,,,,,,,,,,,,,,,,,,,,,,,,,,,,,,,,,,,,,,,,,,,,,,,,,,,,,,,,
1725710378.157294,1725710378.158925,233.0,0.0,4247.05127,4239.230957,4233.846191,4278.333496,4204.230957,4226.666504,4451.666504,4221.922852,4234.487305,4187.436035,4505.769043,4491.922852,4354.358887,4425.641113,3926.0,1.0,15.0,,,,0.0,4.0,4.0,4.0,4.0,4.0,4.0,4.0,4.0,4.0,4.0,4.0,4.0,4.0,4.0,100.0,,,,,,,,,,,,,,,,,,,,,,,,,,,,,,,,,,,,,,,,,,,,,,,,,,,,,,,,,,,,,,,,,,,,,,,,,,,,,,,,,,,,,,,,,,,,,,,,,,,,,,,,,,,,,,,,,,,,,,,,,,,,,,,,,,,
1725710378.161199,1725710378.162829,234.0,0.0,4243.974121,4235.0,4231.025879,4275.128418,4202.692383,4221.538574,4446.666504,4217.05127,4232.179688,4183.333496,4505.512695,4489.487305,4351.153809,4424.615234,2909.0,1.0,15.0,,,,0.0,4.0,4.0,4.0,4.0,4.0,4.0,4.0,4.0,4.0,4.0,4.0,4.0,4.0,4.0,100.0,,,,,,,,,,,,,,,,,,,,,,,,,,,,,,,,,,,,,,,,,,,,,,,,,,,,,,,,,,,,,,,,,,,,,,,,,,,,,,,,,,,,,,,,,,,,,,,,,,,,,,,,,,,,,,,,,,,,,,,,,,,,,,,,,,,
1725710378.165103,1725710378.166733,235.0,0.0,4241.666504,4233.205078,4230.641113,4271.153809,4204.871582,4221.538574,4444.102539,4214.102539,4230.512695,4182.179688,4506.282227,4487.692383,4345.769043,4424.358887,3144.0,1.0,15.0,,,,0.0,4.0,4.0,4.0,4.0,4.0,4.0,4.0,4.0,4.0,4.0,4.0,4.0,4.0,4.0,100.0,,,,,,,,,,,,,,,,,,,,,,,,,,,,,,,,,,,,,,,,,,,,,,,,,,,,,,,,,,,,,,,,,,,,,,,,,,,,,,,,,,,,,,,,,,,,,,,,,,,,,,,,,,,,,,,,,,,,,,,,,,,,,,,,,,,
