Timestamp,OriginalTimestamp,EEG.Counter,EEG.Interpolated,EEG.AF3,EEG.F7,EEG.F3,EEG.FC5,EEG.T7,EEG.P7,EEG.O1,EEG.O2,EEG.P8,EEG.T8,EEG.FC6,EEG.F4,EEG.F8,EEG.AF4,EEG.RawCq,EEG.Battery,EEG.BatteryPercent,MarkerIndex,MarkerType,MarkerValueInt,EEG.MarkerHardware,CQ.AF3,CQ.F7,CQ.F3,CQ.FC5,CQ.T7,CQ.P7,CQ.O1,CQ.O2,CQ.P8,CQ.T8,CQ.FC6,CQ.F4,CQ.F8,CQ.AF4,CQ.Overall,EQ.SampleRateQuality,EQ.OVERALL,EQ.AF3,EQ.F7,EQ.F3,EQ.FC5,EQ.T7,EQ.P7,EQ.O1,EQ.O2,EQ.P8,EQ.T8,EQ.FC6,EQ.F4,EQ.F8,EQ.AF4,MC.Action,MC.ActionPower,MC.IsActive,PM.Attention.IsActive,PM.Attention.Scaled,PM.Attention.Raw,PM.Attention.Min,PM.Attention.Max,PM.Engagement.IsActive,PM.Engagement.Scaled,PM.Engagement.Raw,PM.Engagement.Min,PM.Engagement.Max,PM.Excitement.IsActive,PM.Excitement.Scaled,PM.Excitement.Raw,PM.Excitement.Min,PM.Excitement.Max,PM.LongTermExcitement,PM.Stress.IsActive,PM.Stress.Scaled,PM.Stress.Raw,PM.Stress.Min,PM.Stress.Max,PM.Relaxation.IsActive,PM.Relaxation.Scaled,PM.Relaxation.Raw,PM.Relaxation.Min,PM.Relaxation.Max,PM.Interest.IsActive,PM.Interest.Scaled,PM.Interest.Raw,PM.Interest.Min,PM.Interest.Max,PM.Focus.IsActive,PM.Focus.Scaled,PM.Focus.Raw,PM.Focus.Min,PM.Focus.Max,FE.BlinkWink,FE.HorizontalEyesDirection,FE.UpperFaceAction,FE.UpperFaceActionPower,FE.LowerFaceAction,FE.LowerFaceActionPower,POW.AF3.Theta,POW.AF3.Alpha,POW.AF3.BetaL,POW.AF3.BetaH,POW.AF3.Gamma,POW.F7.Theta,POW.F7.Alpha,POW.F7.BetaL,POW.F7.BetaH,POW.F7.Gamma,POW.F3.Theta,POW.F3.Alpha,POW.F3.BetaL,POW.F3.BetaH,POW.F3.Gamma,POW.FC5.Theta,POW.FC5.Alpha,POW.FC5.BetaL,POW.FC5.BetaH,POW.FC5.Gamma,POW.T7.Theta,POW.T7.Alpha,POW.T7.BetaL,POW.T7.BetaH,POW.T7.Gamma,POW.P7.Theta,POW.P7.Alpha,POW.P7.BetaL,POW.P7.BetaH,POW.P7.Gamma,POW.O1.Theta,POW.O1.Alpha,POW.O1.BetaL,POW.O1.BetaH,POW.O1.Gamma,POW.O2.Theta,POW.O2.Alpha,POW.O2.BetaL,POW.O2.BetaH,POW.O2.Gamma,POW.P8.Theta,POW.P8.Alpha,POW.P8.BetaL,POW.P8.BetaH,POW.P8.Gamma,POW.T8.Theta,POW.T8.Alpha,POW.T8.BetaL,POW.T8.BetaH,POW.T8.Gamma,POW.FC6.Theta,POW.FC6.Alpha,POW.FC6.BetaL,POW.FC6.BetaH,POW.FC6.Gamma,POW.F4.Theta,POW.F4.Alpha,POW.F4.BetaL,POW.F4.BetaH,POW.F4.Gamma,POW.F8.Theta,POW.F8.Alpha,POW.F8.BetaL,POW.F8.BetaH,POW.F8.Gamma,POW.AF4.Theta,POW.AF4.Alpha,POW.AF4.BetaL,POW.AF4.BetaH,POW.AF4.Gamma
1725717296.421547,1725717296.423672,135.0,0.0,4197.820313,4276.794922,4299.871582,4264.102539,4232.692383,4231.153809,4156.794922,4249.230957,4256.922852,4230.256348,4496.794922,4521.538574,4360.384766,4431.538574,2479.0,0.0,11.0,9.0,1.0,1.0,0.0,4.0,4.0,4.0,4.0,4.0,4.0,4.0,4.0,4.0,4.0,4.0,4.0,4.0,4.0,100.0,,,,,,,,,,,,,,,,,,,,,,,,,,,,,,,,,,,,,,,,,,,,,,,,,,,,,,,,,,,,,,,,,,,,,,,,,,,,,,,,,,,,,,,,,,,,,,,,,,,,,,,,,,,,,,,,,,,,,,,,,,,,,,,,,,,
1725717296.425451,1725717296.427576,136.0,0.0,4198.846191,4275.641113,4300.897461,4264.871582,4232.820313,4231.922852,4153.589844,4246.922852,4259.871582,4229.615234,4495.897461,4518.846191,4357.179688,4429.358887,2456.0,0.0,11.0,,,,0.0,4.0,4.0,4.0,4.0,4.0,4.0,4.0,4.0,4.0,4.0,4.0,4.0,4.0,4.0,100.0,,,,,,,,,,,,,,,,,,,,,,,,,,,,,,,,,,,,,,,,,,,,,,,,,,,,,,,,,,,,,,,,,,,,,,,,,,,,,,,,,,,,,,,,,,,,,,,,,,,,,,,,,,,,,,,,,,,,,,,,,,,,,,,,,,,
1725717296.429355,1725717296.43148,137.0,0.0,4199.871582,4276.282227,4302.05127,4265.256348,4232.94873,4233.717773,4148.205078,4247.436035,4262.563965,4230.128418,4493.205078,4517.307617,4355.128418,4427.179688,2561.0,0.0,11.0,,,,0.0,4.0,4.0,4.0,4.0,4.0,4.0,4.0,4.0,4.0,4.0,4.0,4.0,4.0,4.0,100.0,,,,,,,,,,,,,,,,,,,,,,,,,,,,,,,,,,,,,,,,,,,,,,,,,,,,,,,,,,,,,,,,,,,,,,,,,,,,,,,,,,,,,,,,,,,,,,,,,,,,,,,,,,,,,,,,,,,,,,,,,,,,,,,,,,,
1725717296.433259,1725717296.435384,138.0,0.0,4200.256348,4277.94873,4302.436035,4265.128418,4232.94873,4234.615234,4142.436035,4251.410156,4265.384766,4231.922852,4491.025879,4518.077148,4357.307617,4426.794922,2892.0,0.0,11.0,,,,0.0,4.0,4.0,4.0,4.0,4.0,4.0,4.0,4.0,4.0,4.0,4.0,4.0,4.0,4.0,100.0,,,,,,,,,,,,,,,,,,,,,,,,,,,,,,,,,,,,,,,,,,,,,,,,,,,,,,,,,,,,,,,,,,,,,,,,,,,,,,,,,,,,,,,,,,,,,,,,,,,,,,,,,,,,,,,,,,,,,,,,,,,,,,,,,,,
1725717296.437163,1725717296.439288,139.0,0.0,4199.358887,4279.743652,4301.282227,4264.358887,4232.94873,4233.974121,4138.333496,4257.436035,4267.563965,4233.974121,4490.769043,4521.025879,4362.94873,4428.205078,3121.0,0.0,11.0,,,,0.0,4.0,4.0,4.0,4.0,4.0,4.0,4.0,4.0,4.0,4.0,4.0,4.0,4.0,4.0,100.0,,,,,,,,,,,,,,,,,,,,,,,,,,,,,,,,,,,,,,,,,,,,,,,,,,,,,,,,,,,,,,,,,,,,,,,,,,,,,,,,,,,,,,,,,,,,,,,,,,,,,,,,,,,,,,,,,,,,,,,,,,,,,,,,,,,
1725717296.441068,1725717296.443092,140.0,0.0,4196.922852,4280.384766,4298.974121,4263.077148,4232.94873,4233.205078,4136.666504,4261.922852,4267.820313,4234.871582,4491.794922,4524.487305,4367.820313,4429.743652,3421.0,0.0,11.0,,,,0.0,4.0,4.0,4.0,4.0,4.0,4.0,4.0,4.0,4.0,4.0,4.0,4.0,4.0,4.0,100.0,,,,,,,,,,,,,,,,,,,,,,,,,,,,,,,,,,,,,,,,,,,,,,,,,,,,,,,,0.0,0.0,1.0,0.0,2048.0,0.004103,,,,,,,,,,,,,,,,,,,,,,,,,,,,,,,,,,,,,,,,,,,,,,,,,,,,,,,,,,,,,,,,,,,,,,
1725717296.444972,1725717296.446996,141.0,0.0,4192.692383,4279.230957,4296.538574,4261.922852,4232.94873,4233.333496,4137.179688,4262.179688,4266.282227,4234.102539,4490.512695,4526.153809,4367.563965,4429.230957,3837.0,0.0,11.0,,,,0.0,4.0,4.0,4.0,4.0,4.0,4.0,4.0,4.0,4.0,4.0,4.0,4.0,4.0,4.0,100.0,,,,,,,,,,,,,,,,,,,,,,,,,,,,,,,,,,,,,,,,,,,,,,,,,,,,,,,,,,,,,,,,,,,,,,,,,,,,,,,,,,,,,,,,,,,,,,,,,,,,,,,,,,,,,,,,,,,,,,,,,,,,,,,,,,,
1725717296.448876,1725717296.450901,142.0,0.0,4187.94873,4277.307617,4294.743652,4261.794922,4232.94873,4234.487305,4138.205078,4258.077148,4264.615234,4232.94873,4484.743652,4524.230957,4360.512695,4425.256348,2892.0,0.0,11.0,,,,0.0,4.0,4.0,4.0,4.0,4.0,4.0,4.0,4.0,4.0,4.0,4.0,4.0,4.0,4.0,100.0,,,,,,,,,,,,,,,,,,,,,,,,,,,,,,,,,,,,,,,,,,,,,,,,,,,,,,,,,,,,,,,,,,,,,,,,,,,,,,,,,,,,,,,,,,,,,,,,,,,,,,,,,,,,,,,,,,,,,,,,,,,,,,,,,,,
1725717296.45278,1725717296.454805,143.0,0.0,4184.358887,4276.025879,4293.974121,4262.563965,4232.820313,4235.512695,4138.077148,4252.307617,4264.102539,4232.436035,4475.128418,4519.487305,4349.487305,4418.846191,3121.0,0.0,11.0,,,,0.0,4.0,4.0,4.0,4.0,4.0,4.0,4.0,4.0,4.0,4.0,4.0,4.0,4.0,4.0,100.0,,,,,,,,,,,,,,,,,,,,,,,,,,,,,,,,,,,,,,,,,,,,,,,,,,,,,,,,,,,,,,,,,,,,,,,,,,,,,,,,,,,,,,,,,,,,,,,,,,,,,,,,,,,,,,,,,,,,,,,,,,,,,,,,,,,
1725717296.456684,1725717296.458609,144.0,0.0,4182.820313,4276.025879,4293.846191,4263.461426,4232.692383,4235.769043,4135.897461,4248.205078,4264.230957,4232.179688,4465.897461,4513.717773,4339.230957,4412.692383,3421.0,0.0,11.0,,,,0.0,4.0,4.0,4.0,4.0,4.0,4.0,4.0,4.0,4.0,4.0,4.0,4.0,4.0,4.0,100.0,,,,,,,,,,,,,,,,,,,,,,,,,,,,,,,,,,,,,,,,,,,,,,,,,,,,,,,,,,,,,,,,,,,,,,,,,,,,,,,,,,,,,,,,,,,,,,,,,,,,,,,,,,,,,,,,,,,,,,,,,,,,,,,,,,,
1725717296.460588,1725717296.462513,145.0,0.0,4183.205078,4276.666504,4293.205078,4263.717773,4232.692383,4235.256348,4132.436035,4247.307617,4262.820313,4231.153809,4461.410156,4509.487305,4334.615234,4409.230957,3837.0,0.0,11.0,,,,0.0,4.0,4.0,4.0,4.0,4.0,4.0,4.0,4.0,4.0,4.0,4.0,4.0,4.0,4.0,100.0,,,,,,,,,,,,,,,,,,,,,,,,,,,,,,,,,,,,,,,,,,,,,,,,,,,,,,,,,,,,,,,,,,,,,,,,,,,,,,,,,,,,,,,,,,,,,,,,,,,,,,,,,,,,,,,,,,,,,,,,,,,,,,,,,,,
1725717296.464492,1725717296.466417,146.0,0.0,4183.846191,4276.538574,4291.282227,4263.589844,4232.94873,4234.871582,4128.846191,4248.589844,4258.461426,4227.692383,4463.461426,4507.307617,4337.307617,4408.974121,2892.0,0.0,11.0,,,,0.0,4.0,4.0,4.0,4.0,4.0,4.0,4.0,4.0,4.0,4.0,4.0,4.0,4.0,4.0,100.0,,,,,,,,,,,,,,,,,,,,,,,,,,,,,,,,,,,,,,,,,,,,,,,,,,,,,,,,,,,,,,,,,,,,,,,,,,,,,,,,,,,,,,,,,,,,,,,,,,,,,,,,,,,,,,,,,,,,,,,,,,,,,,,,,,,
1725717296.468396,1725717296.470321,147.0,0.0,4183.589844,4274.487305,4288.333496,4263.589844,4233.205078,4235.512695,4126.282227,4249.615234,4252.179688,4221.794922,4470.0,4506.153809,4344.871582,4410.897461,3121.0,0.0,11.0,,,,0.0,4.0,4.0,4.0,4.0,4.0,4.0,4.0,4.0,4.0,4.0,4.0,4.0,4.0,4.0,100.0,,,,,,,,,,,,,,,,,,,,,,,,,,,,,,,,,,,,,,,,,,,,,,,,,,,,,,,,,,,,,,,,,,,,,,,,,,,,,,,,,,,,,,,,,,,,,,,,,,,,,,,,,,,,,,,,,,,,,,,,,,,,,,,,,,,
1725717296.4723,1725717296.474125,148.0,0.0,4182.820313,4271.153809,4285.512695,4263.846191,4233.077148,4237.179688,4125.0,4248.589844,4247.436035,4215.641113,4476.410156,4504.871582,4351.922852,4412.436035,3421.0,0.0,11.0,,,,0.0,4.0,4.0,4.0,4.0,4.0,4.0,4.0,4.0,4.0,4.0,4.0,4.0,4.0,4.0,100.0,,,,,,,,,,,,,,,,,1.0,0.0,0.0,,,,,,,,,,,,,,,,,,,,,,,,,,,,,,,,,,,,,0.0,0.0,1.0,0.0,2048.0,0.007197,2.491355,2.018417,0.930638,0.274597,0.045242,2.66026,1.785483,0.938275,0.251726,0.195109,2.35939,1.497992,1.017044,0.207089,0.076598,2.049531,1.458319,0.734394,0.488179,0.097191,0.535505,0.715125,0.187293,0.145976,0.106649,0.49779,0.532843,0.289615,0.068124,0.048102,0.974172,0.920135,0.564863,0.131562,0.059415,1.219907,2.392633,1.033301,0.345145,0.172301,1.456599,1.524838,0.732642,0.387241,0.113931,3.909321,1.884457,0.722909,0.418976,0.240355,5.986189,3.982634,1.794263,1.031186,0.530747,6.861624,4.873055,2.000242,0.550931,0.146147,7.070751,3.172692,1.241318,1.357335,0.447569,5.345574,3.714477,1.977122,0.471818,0.097405
1725717296.476205,1725717296.47803,149.0,0.0,4182.436035,4268.717773,4284.487305,4264.743652,4232.692383,4240.128418,4124.871582,4246.410156,4246.922852,4212.563965,4478.846191,4503.333496,4354.230957,4412.05127,3837.0,0.0,11.0,,,,0.0,4.0,4.0,4.0,4.0,4.0,4.0,4.0,4.0,4.0,4.0,4.0,4.0,4.0,4.0,100.0,,,,,,,,,,,,,,,,,,,,,,,,,,,,,,,,,,,,,,,,,,,,,,,,,,,,,,,,,,,,,,,,,,,,,,,,,,,,,,,,,,,,,,,,,,,,,,,,,,,,,,,,,,,,,,,,,,,,,,,,,,,,,,,,,,,
1725717296.480109,1725717296.481934,150.0,0.0,4183.333496,4268.589844,4285.897461,4266.153809,4232.179688,4243.717773,4125.641113,4245.256348,4251.153809,4215.0,4477.436035,4502.692383,4351.666504,4410.384766,2892.0,0.0,11.0,,,,0.0,4.0,4.0,4.0,4.0,4.0,4.0,4.0,4.0,4.0,4.0,4.0,4.0,4.0,4.0,100.0,,,,,,,,,,,,,,,,,,,,,,,,,,,,,,,,,,,,,,,,,,,,,,,,,,,,,,,,,,,,,,,,,,,,,,,,,,,,,,,,,,,,,,,,,,,,,,,,,,,,,,,,,,,,,,,,,,,,,,,,,,,,,,,,,,,
1725717296.484013,1725717296.485738,151.0,0.0,4185.0,4271.410156,4288.974121,4268.717773,4232.05127,4246.922852,4126.410156,4246.794922,4257.563965,4221.922852,4475.256348,4503.205078,4348.205078,4409.615234,3121.0,0.0,11.0,,,,0.0,4.0,4.0,4.0,4.0,4.0,4.0,4.0,4.0,4.0,4.0,4.0,4.0,4.0,4.0,100.0,,,,,,,,,,,,,,,,,,,,,,,,,,,,,,,,,,,,,,,,,,,,,,,,,,,,,,,,,,,,,,,,,,,,,,,,,,,,,,,,,,,,,,,,,,,,,,,,,,,,,,,,,,,,,,,,,,,,,,,,,,,,,,,,,,,
1725717296.487917,1725717296.489642,152.0,0.0,4186.282227,4275.897461,4292.179688,4272.05127,4232.820313,4248.589844,4126.025879,4250.0,4261.922852,4228.846191,4475.256348,4504.615234,4347.94873,4411.538574,3421.0,0.0,11.0,,,,0.0,4.0,4.0,4.0,4.0,4.0,4.0,4.0,4.0,4.0,4.0,4.0,4.0,4.0,4.0,100.0,,,,,,,,,,,,,,,,,,,,,,,,,,,,,,,,,,,,,,,,,,,,,,,,,,,,,,,,,,,,,,,,,,,,,,,,,,,,,,,,,,,,,,,,,,,,,,,,,,,,,,,,,,,,,,,,,,,,,,,,,,,,,,,,,,,
1725717296.491821,1725717296.493546,153.0,0.0,4186.794922,4279.871582,4294.487305,4275.384766,4234.230957,4248.846191,4122.820313,4252.179688,4261.282227,4231.025879,4477.307617,4505.641113,4351.922852,4415.897461,3837.0,0.0,11.0,,,,0.0,4.0,4.0,4.0,4.0,4.0,4.0,4.0,4.0,4.0,4.0,4.0,4.0,4.0,4.0,100.0,,,,,,,,,,,,,,,,,,,,,,,,,,,,,,,,,,,,,,,,,,,,,,,,,,,,,,,,,,,,,,,,,,,,,,,,,,,,,,,,,,,,,,,,,,,,,,,,,,,,,,,,,,,,,,,,,,,,,,,,,,,,,,,,,,,
1725717296.495725,1725717296.49755,154.0,0.0,4187.307617,4282.05127,4295.641113,4278.333496,4235.897461,4248.205078,4116.410156,4250.641113,4255.897461,4227.05127,4479.358887,4505.769043,4357.692383,4420.0,2892.0,0.0,11.0,,,,0.0,4.0,4.0,4.0,4.0,4.0,4.0,4.0,4.0,4.0,4.0,4.0,4.0,4.0,4.0,100.0,,,,,,,,,,,,,,,,,,,,,,,,,,,,,,,,,,,,,,,,,,,,,,,,,,,,,,,,,,,,,,,,,,,,,,,,,,,,,,,,,,,,,,,,,,,,,,,,,,,,,,,,,,,,,,,,,,,,,,,,,,,,,,,,,,,
1725717296.499629,1725717296.501454,155.0,0.0,4188.205078,4281.794922,4295.769043,4280.128418,4236.794922,4247.563965,4107.94873,4245.641113,4249.358887,4220.641113,4479.871582,4505.0,4361.666504,4421.025879,3121.0,0.0,11.0,,,,0.0,4.0,4.0,4.0,4.0,4.0,4.0,4.0,4.0,4.0,4.0,4.0,4.0,4.0,4.0,100.0,,,,,,,,,,,,,,,,,,,,,,,,,,,,,,,,,,,,,,,,,,,,,,,,,,,,,,,,,,,,,,,,,,,,,,,,,,,,,,,,,,,,,,,,,,,,,,,,,,,,,,,,,,,,,,,,,,,,,,,,,,,,,,,,,,,
1725717296.503533,1725717296.505358,156.0,0.0,4189.615234,4280.256348,4295.512695,4280.512695,4236.410156,4247.436035,4099.487305,4240.384766,4245.641113,4217.307617,4479.615234,4504.102539,4361.538574,4418.717773,3421.0,0.0,11.0,,,,0.0,4.0,4.0,4.0,4.0,4.0,4.0,4.0,4.0,4.0,4.0,4.0,4.0,4.0,4.0,100.0,,,,,,,,,,,,,,,,,,,,,,,,,,,,,,,,,,,,,,,,,,,,,,,,,,,,,,,,0.0,0.0,1.0,0.0,2048.0,0.007197,,,,,,,,,,,,,,,,,,,,,,,,,,,,,,,,,,,,,,,,,,,,,,,,,,,,,,,,,,,,,,,,,,,,,,
1725717296.507437,1725717296.509262,157.0,0.0,4190.897461,4279.102539,4295.128418,4279.871582,4235.256348,4247.692383,4092.435791,4238.461426,4246.410156,4219.615234,4480.641113,4504.358887,4358.461426,4415.384766,3837.0,0.0,11.0,,,,0.0,4.0,4.0,4.0,4.0,4.0,4.0,4.0,4.0,4.0,4.0,4.0,4.0,4.0,4.0,100.0,,,,,,,,,,,,,,,,,,,,,,,,,,,,,,,,,,,,,,,,,,,,,,,,,,,,,,,,,,,,,,,,,,,,,,,,,,,,,,,,,,,,,,,,,,,,,,,,,,,,,,,,,,,,,,,,,,,,,,,,,,,,,,,,,,,
1725717296.511341,1725717296.513266,158.0,0.0,4191.922852,4279.230957,4295.512695,4278.846191,4234.358887,4248.205078,4087.435791,4240.897461,4249.615234,4225.897461,4483.846191,4506.794922,4355.128418,4414.230957,2892.0,0.0,11.0,,,,0.0,4.0,4.0,4.0,4.0,4.0,4.0,4.0,4.0,4.0,4.0,4.0,4.0,4.0,4.0,100.0,,,,,,,,,,,,,,,,,,,,,,,,,,,,,,,,,,,,,,,,,,,,,,,,,,,,,,,,,,,,,,,,,,,,,,,,,,,,,,,,,,,,,,,,,,,,,,,,,,,,,,,,,,,,,,,,,,,,,,,,,,,,,,,,,,,
1725717296.515246,1725717296.51717,159.0,0.0,4193.333496,4280.641113,4297.05127,4278.205078,4235.0,4248.461426,4084.102539,4245.256348,4251.794922,4231.025879,4488.077148,4511.666504,4354.487305,4417.179688,3121.0,0.0,11.0,,,,0.0,4.0,4.0,4.0,4.0,4.0,4.0,4.0,4.0,4.0,4.0,4.0,4.0,4.0,4.0,100.0,,,,,,,,,,,,,,,,,,,,,,,,,,,,,,,,,,,,,,,,,,,,,,,,,,,,,,,,,,,,,,,,,,,,,,,,,,,,,,,,,,,,,,,,,,,,,,,,,,,,,,,,,,,,,,,,,,,,,,,,,,,,,,,,,,,
1725717296.51915,1725717296.521075,160.0,0.0,4195.512695,4282.05127,4299.487305,4277.820313,4237.820313,4247.94873,4081.666748,4247.307617,4250.641113,4231.153809,4490.512695,4517.436035,4356.666504,4423.333496,3421.0,0.0,11.0,,,,0.0,4.0,4.0,4.0,4.0,4.0,4.0,4.0,4.0,4.0,4.0,4.0,4.0,4.0,4.0,100.0,,,,,,,,,,,,,,,,,,,,,,,,,,,,,,,,,,,,,,,,,,,,,,,,,,,,,,,,,,,,,,,,,,,,,,,,,,,,,,,,,,,,,,,,,,,,,,,,,,,,,,,,,,,,,,,,,,,,,,,,,,,,,,,,,,,
1725717296.523054,1725717296.524979,161.0,0.0,4198.461426,4282.436035,4302.179688,4277.820313,4242.05127,4247.179688,4078.846191,4244.743652,4247.05127,4226.282227,4489.615234,4521.922852,4359.743652,4429.358887,3837.0,0.0,11.0,,,,0.0,4.0,4.0,4.0,4.0,4.0,4.0,4.0,4.0,4.0,4.0,4.0,4.0,4.0,4.0,100.0,,,,,,,,,,,,,,,,,,,,,,,,,,,,,,,,,,,,,,,,,,,,,,,,,,,,,,,,,,,,,,,,,,,,,,,,,,,,,,,,,,,,,,,,,,,,,,,,,,,,,,,,,,,,,,,,,,,,,,,,,,,,,,,,,,,
1725717296.526958,1725717296.528983,162.0,0.0,4201.153809,4281.666504,4304.358887,4277.94873,4245.897461,4246.666504,4075.641113,4239.358887,4243.077148,4220.0,4486.922852,4523.589844,4361.538574,4432.179688,2892.0,0.0,11.0,,,,0.0,4.0,4.0,4.0,4.0,4.0,4.0,4.0,4.0,4.0,4.0,4.0,4.0,4.0,4.0,100.0,,,,,,,,,,,,,,,,,,,,,,,,,,,,,,,,,,,,,,,,,,,,,,,,,,,,,,,,,,,,,,,,,,,,,,,,,,,,,,,,,,,,,,,,,,,,,,,,,,,,,,,,,,,,,,,,,,,,,,,,,,,,,,,,,,,
1725717296.530862,1725717296.532887,163.0,0.0,4202.563965,4280.128418,4305.769043,4278.205078,4247.94873,4246.922852,4072.94873,4235.641113,4241.025879,4216.282227,4485.769043,4523.333496,4360.256348,4430.897461,3121.0,0.0,11.0,,,,0.0,4.0,4.0,4.0,4.0,4.0,4.0,4.0,4.0,4.0,4.0,4.0,4.0,4.0,4.0,100.0,,,,,,,,,,,,,,,,,,,,,,,,,,,,,,,,,,,,,,,,,,,,,,,,,,,,,,,,,,,,,,,,,,,,,,,,,,,,,,,,,,,,,,,,,,,,,,,,,,,,,,,,,,,,,,,,,,,,,,,,,,,,,,,,,,,
1725717296.534766,1725717296.536791,164.0,0.0,4202.692383,4278.589844,4306.794922,4278.974121,4247.94873,4247.94873,4071.281982,4237.436035,4242.05127,4216.538574,4487.94873,4523.077148,4356.282227,4427.563965,3421.0,0.0,11.0,,,,0.0,4.0,4.0,4.0,4.0,4.0,4.0,4.0,4.0,4.0,4.0,4.0,4.0,4.0,4.0,100.0,,,,,,,,,,,,,,,,,,,,,,,,,,,,,,,,,,,,,,,,,,,,,,,,,,,,,,,,0.0,0.0,1.0,0.0,2048.0,0.007197,,,,,,,,,,,,,,,,,,,,,,,,,,,,,,,,,,,,,,,,,,,,,,,,,,,,,,,,,,,,,,,,,,,,,,
1725717296.53867,1725717296.540695,165.0,0.0,4202.05127,4277.563965,4308.205078,4280.256348,4246.922852,4249.615234,4070.256348,4243.974121,4245.384766,4219.615234,4492.307617,4524.102539,4351.666504,4425.641113,3837.0,0.0,11.0,,,,0.0,4.0,4.0,4.0,4.0,4.0,4.0,4.0,4.0,4.0,4.0,4.0,4.0,4.0,4.0,100.0,,,,,,,,,,,,,,,,,,,,,,,,,,,,,,,,,,,,,,,,,,,,,,,,,,,,,,,,,,,,,,,,,,,,,,,,,,,,,,,,,,,,,,,,,,,,,,,,,,,,,,,,,,,,,,,,,,,,,,,,,,,,,,,,,,,
1725717296.542574,1725717296.544599,166.0,0.0,4201.794922,4277.692383,4309.871582,4281.410156,4246.153809,4251.025879,4068.589844,4250.641113,4248.846191,4222.307617,4496.153809,4525.769043,4348.846191,4426.666504,2892.0,0.0,11.0,,,,0.0,4.0,4.0,4.0,4.0,4.0,4.0,4.0,4.0,4.0,4.0,4.0,4.0,4.0,4.0,100.0,,,,,,,,,,,,,,,,,,,,,,,,,,,,,,,,,,,,,,,,,,,,,,,,,,,,,,,,,,,,,,,,,,,,,,,,,,,,,,,,,,,,,,,,,,,,,,,,,,,,,,,,,,,,,,,,,,,,,,,,,,,,,,,,,,,
1725717296.546478,1725717296.548403,167.0,0.0,4202.179688,4278.846191,4311.282227,4282.05127,4246.282227,4252.179688,4065.384521,4252.179688,4250.256348,4222.436035,4496.666504,4526.025879,4348.846191,4429.102539,3121.0,0.0,11.0,,,,0.0,4.0,4.0,4.0,4.0,4.0,4.0,4.0,4.0,4.0,4.0,4.0,4.0,4.0,4.0,100.0,,,,,,,,,,,,,,,,,,,,,,,,,,,,,,,,,,,,,,,,,,,,,,,,,,,,,,,,,,,,,,,,,,,,,,,,,,,,,,,,,,,,,,,,,,,,,,,,,,,,,,,,,,,,,,,,,,,,,,,,,,,,,,,,,,,
1725717296.550383,1725717296.552307,168.0,0.0,4202.692383,4280.0,4311.538574,4281.794922,4247.179688,4253.077148,4060.897461,4246.922852,4248.461426,4219.615234,4492.563965,4522.563965,4350.512695,4429.743652,3421.0,0.0,11.0,,,,0.0,4.0,4.0,4.0,4.0,4.0,4.0,4.0,4.0,4.0,4.0,4.0,4.0,4.0,4.0,100.0,,,,,,,,,,,,,,,,,,,,,,,,,,,,,,,,,,,,,,,,,,,,,,,,,,,,,,,,,,,,,,,,,,,,,,,,,,,,,,,,,,,,,,,,,,,,,,,,,,,,,,,,,,,,,,,,,,,,,,,,,,,,,,,,,,,
1725717296.554287,1725717296.556212,169.0,0.0,4202.307617,4279.615234,4310.256348,4280.769043,4248.077148,4254.487305,4056.153809,4237.94873,4243.974121,4215.897461,4484.102539,4515.769043,4351.666504,4426.410156,3837.0,0.0,11.0,,,,0.0,4.0,4.0,4.0,4.0,4.0,4.0,4.0,4.0,4.0,4.0,4.0,4.0,4.0,4.0,100.0,,,,,,,,,,,,,,,,,,,,,,,,,,,,,,,,,,,,,,,,,,,,,,,,,,,,,,,,,,,,,,,,,,,,,,,,,,,,,,,,,,,,,,,,,,,,,,,,,,,,,,,,,,,,,,,,,,,,,,,,,,,,,,,,,,,
1725717296.558191,1725717296.560116,170.0,0.0,4201.025879,4277.820313,4308.077148,4280.0,4248.589844,4256.538574,4052.179443,4230.769043,4238.333496,4213.205078,4475.0,4508.717773,4350.897461,4420.256348,2892.0,0.0,11.0,,,,0.0,4.0,4.0,4.0,4.0,4.0,4.0,4.0,4.0,4.0,4.0,4.0,4.0,4.0,4.0,100.0,,,,,,,,,,,,,,,,,,,,,,,,,,,,,,,,,,,,,,,,,,,,,,,,,,,,,,,,,,,,,,,,,,,,,,,,,,,,,,,,,,,,,,,,,,,,,,,,,,,,,,,,,,,,,,,,,,,,,,,,,,,,,,,,,,,
1725717296.562095,1725717296.56392,171.0,0.0,4199.871582,4276.282227,4306.153809,4280.0,4248.461426,4259.230957,4049.615479,4228.461426,4233.846191,4212.179688,4470.128418,4505.641113,4348.077148,4414.743652,3121.0,0.0,11.0,,,,0.0,4.0,4.0,4.0,4.0,4.0,4.0,4.0,4.0,4.0,4.0,4.0,4.0,4.0,4.0,100.0,,,,,,,,,,,,,,,,,,,,,,,,,,,,,,,,,,,,,,,,,,,,,,,,,,,,,,,,,,,,,,,,,,,,,,,,,,,,,,,,,,,,,,,,,,,,,,,,,,,,,,,,,,,,,,,,,,,,,,,,,,,,,,,,,,,
1725717296.565999,1725717296.567824,172.0,0.0,4200.128418,4276.538574,4305.0,4280.769043,4248.333496,4261.794922,4048.333252,4230.897461,4232.179688,4211.538574,4472.05127,4507.692383,4344.487305,4412.563965,3421.0,0.0,11.0,,,,0.0,4.0,4.0,4.0,4.0,4.0,4.0,4.0,4.0,4.0,4.0,4.0,4.0,4.0,4.0,100.0,,,,,,,,,,,,,,,,,,,,,,,,,,,,,,,,,,,,,,,,,,,,,,,,,,,,,,,,0.0,0.0,1.0,0.0,2048.0,0.007197,,,,,,,,,,,,,,,,,,,,,,,,,,,,,,,,,,,,,,,,,,,,,,,,,,,,,,,,,,,,,,,,,,,,,,
1725717296.569903,1725717296.571728,173.0,0.0,4201.282227,4278.205078,4304.358887,4281.410156,4248.846191,4263.461426,4047.564209,4234.743652,4233.333496,4209.871582,4478.589844,4512.94873,4341.794922,4413.974121,3837.0,0.0,11.0,,,,0.0,4.0,4.0,4.0,4.0,4.0,4.0,4.0,4.0,4.0,4.0,4.0,4.0,4.0,4.0,100.0,,,,,,,,,,,,,,,,,,,,,,,,,,,,,,,,,,,,,,,,,,,,,,,,,,,,,,,,,,,,,,,,,,,,,,,,,,,,,,,,,,,,,,,,,,,,,,,,,,,,,,,,,,,,,,,,,,,,,,,,,,,,,,,,,,,
1725717296.573807,1725717296.575632,174.0,0.0,4201.666504,4278.846191,4303.589844,4281.666504,4249.871582,4264.102539,4046.153809,4236.794922,4236.025879,4207.179688,4484.487305,4517.563965,4341.153809,4416.666504,2892.0,0.0,11.0,,,,0.0,4.0,4.0,4.0,4.0,4.0,4.0,4.0,4.0,4.0,4.0,4.0,4.0,4.0,4.0,100.0,,,,,,,,,,,,,,,,,,,,,,,,,,,,,,,,,,,,,,,,,,,,,,,,,,,,,,,,,,,,,,,,,,,,,,,,,,,,,,,,,,,,,,,,,,,,,,,,,,,,,,,,,,,,,,,,,,,,,,,,,,,,,,,,,,,
1725717296.577711,1725717296.579436,175.0,0.0,4199.743652,4276.794922,4303.205078,4281.666504,4250.641113,4264.230957,4043.846191,4236.538574,4238.333496,4204.487305,4486.282227,4518.846191,4342.307617,4419.102539,3121.0,0.0,11.0,,,,0.0,4.0,4.0,4.0,4.0,4.0,4.0,4.0,4.0,4.0,4.0,4.0,4.0,4.0,4.0,100.0,,,,,,,,,,,,,,,,,,,,,,,,,,,,,,,,,,,,,,,,,,,,,,,,,,,,,,,,,,,,,,,,,,,,,,,,,,,,,,,,,,,,,,,,,,,,,,,,,,,,,,,,,,,,,,,,,,,,,,,,,,,,,,,,,,,
1725717296.581615,1725717296.58334,176.0,0.0,4196.025879,4272.563965,4303.717773,4282.179688,4250.641113,4264.230957,4041.281982,4235.512695,4238.974121,4203.077148,4484.615234,4517.436035,4343.974121,4420.384766,3421.0,0.0,11.0,,,,0.0,4.0,4.0,4.0,4.0,4.0,4.0,4.0,4.0,4.0,4.0,4.0,4.0,4.0,4.0,100.0,,,,,,,,,,,,,,,,,,,,,,,,,,,,,,,,,,,,,,,,,,,,,,,,,,,,,,,,,,,,,,,,,,,,,,,,,,,,,,,,,,,,,,,,,,,,,,,,,,,,,,,,,,,,,,,,,,,,,,,,,,,,,,,,,,,
1725717296.585519,1725717296.587245,177.0,0.0,4192.179688,4268.077148,4305.641113,4282.94873,4249.871582,4264.230957,4039.358887,4235.384766,4237.820313,4204.230957,4482.692383,4516.025879,4344.615234,4421.410156,3837.0,0.0,11.0,,,,0.0,4.0,4.0,4.0,4.0,4.0,4.0,4.0,4.0,4.0,4.0,4.0,4.0,4.0,4.0,100.0,,,,,,,,,,,,,,,,,,,,,,,,,,,,,,,,,,,,,,,,,,,,,,,,,,,,,,,,,,,,,,,,,,,,,,,,,,,,,,,,,,,,,,,,,,,,,,,,,,,,,,,,,,,,,,,,,,,,,,,,,,,,,,,,,,,
1725717296.589424,1725717296.591049,178.0,0.0,4189.743652,4265.769043,4307.94873,4283.333496,4248.589844,4264.615234,4038.076904,4236.153809,4235.769043,4207.94873,4482.692383,4516.538574,4344.871582,4422.692383,2892.0,0.0,11.0,,,,0.0,4.0,4.0,4.0,4.0,4.0,4.0,4.0,4.0,4.0,4.0,4.0,4.0,4.0,4.0,100.0,,,,,,,,,,,,,,,,,,,,,,,,,,,,,,,,,,,,,,,,,,,,,,,,,,,,,,,,,,,,,,,,,,,,,,,,,,,,,,,,,,,,,,,,,,,,,,,,,,,,,,,,,,,,,,,,,,,,,,,,,,,,,,,,,,,
1725717296.593327,1725717296.594953,179.0,0.0,4189.230957,4267.307617,4309.358887,4282.563965,4247.563965,4265.384766,4037.05127,4236.794922,4233.974121,4213.333496,4483.846191,4519.358887,4346.153809,4424.615234,3121.0,0.0,11.0,,,,0.0,4.0,4.0,4.0,4.0,4.0,4.0,4.0,4.0,4.0,4.0,4.0,4.0,4.0,4.0,100.0,,,,,,,,,,,,,,,,,,,,,,,,,,,,,,,,,,,,,,,,,,,,,,,,,,,,,,,,,,,,,,,,,,,,,,,,,,,,,,,,,,,,,,,,,,,,,,,,,,,,,,,,,,,,,,,,,,,,,,,,,,,,,,,,,,,
1725717296.597232,1725717296.598857,180.0,0.0,4189.871582,4272.179688,4308.974121,4281.153809,4247.307617,4266.922852,4035.512939,4236.410156,4233.461426,4217.820313,4484.487305,4522.94873,4349.743652,4427.05127,3421.0,0.0,11.0,,,,0.0,4.0,4.0,4.0,4.0,4.0,4.0,4.0,4.0,4.0,4.0,4.0,4.0,4.0,4.0,100.0,1.0,75.0,4.0,4.0,4.0,4.0,4.0,4.0,1.0,4.0,4.0,4.0,4.0,4.0,4.0,4.0,1.0,0.0,0.0,,,,,,,,,,,,,,,,,,,,,,,,,,,,,,,,,,,,,0.0,0.0,1.0,0.0,2048.0,0.0,2.345378,1.837039,0.804045,0.232521,0.049095,2.333895,1.577343,0.810934,0.260837,0.1944,1.949049,1.405577,0.913571,0.191963,0.070999,1.71946,1.406036,0.752474,0.444038,0.100101,0.470474,0.599294,0.16899,0.14969,0.109722,0.65446,0.550868,0.264095,0.073609,0.05337,0.96942,0.83206,0.483271,0.130135,0.062672,1.064643,2.780007,0.912426,0.329902,0.16253,1.332768,1.431918,0.677137,0.333986,0.108269,3.479716,1.704966,0.660063,0.385776,0.244451,5.252591,3.332983,1.607101,0.904399,0.507546,5.988653,5.195157,1.627309,0.468967,0.136925,6.333148,2.825993,1.165465,1.13638,0.443917,4.594012,3.54849,1.707813,0.383739,0.090371
1725717296.601136,1725717296.602861,181.0,0.0,4190.769043,4277.563965,4307.436035,4280.512695,4248.205078,4269.487305,4033.333252,4235.769043,4233.846191,4219.615234,4483.717773,4524.743652,4354.102539,4429.230957,3837.0,0.0,11.0,,,,0.0,4.0,4.0,4.0,4.0,4.0,4.0,4.0,4.0,4.0,4.0,4.0,4.0,4.0,4.0,100.0,,,,,,,,,,,,,,,,,,,,,,,,,,,,,,,,,,,,,,,,,,,,,,,,,,,,,,,,,,,,,,,,,,,,,,,,,,,,,,,,,,,,,,,,,,,,,,,,,,,,,,,,,,,,,,,,,,,,,,,,,,,,,,,,,,,
1725717296.60504,1725717296.606765,182.0,0.0,4191.025879,4279.871582,4305.256348,4281.666504,4249.615234,4272.307617,4031.153809,4235.897461,4234.487305,4218.589844,4482.692383,4523.974121,4356.282227,4430.128418,2892.0,0.0,11.0,,,,0.0,4.0,4.0,4.0,4.0,4.0,4.0,4.0,4.0,4.0,4.0,4.0,4.0,4.0,4.0,100.0,,,,,,,,,,,,,,,,,,,,,,,,,,,,,,,,,,,,,,,,,,,,,,,,,,,,,,,,,,,,,,,,,,,,,,,,,,,,,,,,,,,,,,,,,,,,,,,,,,,,,,,,,,,,,,,,,,,,,,,,,,,,,,,,,,,
1725717296.608944,1725717296.610669,183.0,0.0,4190.641113,4277.820313,4303.333496,4284.487305,4250.128418,4274.102539,4029.487061,4236.666504,4234.487305,4216.282227,4483.205078,4521.025879,4354.230957,4429.487305,3121.0,0.0,11.0,,,,0.0,4.0,4.0,4.0,4.0,4.0,4.0,4.0,4.0,4.0,4.0,4.0,4.0,4.0,4.0,100.0,,,,,,,,,,,,,,,,,,,,,,,,,,,,,,,,,,,,,,,,,,,,,,,,,,,,,,,,,,,,,,,,,,,,,,,,,,,,,,,,,,,,,,,,,,,,,,,,,,,,,,,,,,,,,,,,,,,,,,,,,,,,,,,,,,,
1725717296.612848,1725717296.614573,184.0,0.0,4190.256348,4273.461426,4301.538574,4287.179688,4248.717773,4274.487305,4028.076904,4236.794922,4233.717773,4214.487305,4485.128418,4517.179688,4348.846191,4427.307617,3421.0,0.0,11.0,,,,0.0,4.0,4.0,4.0,4.0,4.0,4.0,4.0,4.0,4.0,4.0,4.0,4.0,4.0,4.0,100.0,,,,,,,,,,,,,,,,,,,,,,,,,,,,,,,,,,,,,,,,,,,,,,,,,,,,,,,,,,,,,,,,,,,,,,,,,,,,,,,,,,,,,,,,,,,,,,,,,,,,,,,,,,,,,,,,,,,,,,,,,,,,,,,,,,,
1725717296.616752,1725717296.618577,185.0,0.0,4189.743652,4270.0,4299.487305,4287.563965,4245.128418,4274.230957,4026.538574,4235.256348,4232.820313,4214.487305,4486.922852,4513.333496,4343.974121,4423.974121,3837.0,0.0,11.0,,,,0.0,4.0,4.0,4.0,4.0,4.0,4.0,4.0,4.0,4.0,4.0,4.0,4.0,4.0,4.0,100.0,,,,,,,,,,,,,,,,,,,,,,,,,,,,,,,,,,,,,,,,,,,,,,,,,,,,,,,,,,,,,,,,,,,,,,,,,,,,,,,,,,,,,,,,,,,,,,,,,,,,,,,,,,,,,,,,,,,,,,,,,,,,,,,,,,,
1725717296.620656,1725717296.622481,186.0,0.0,4188.589844,4269.230957,4296.922852,4285.128418,4241.025879,4274.358887,4024.743652,4232.436035,4232.563965,4215.641113,4486.282227,4510.0,4342.563965,4419.743652,2892.0,0.0,11.0,,,,0.0,4.0,4.0,4.0,4.0,4.0,4.0,4.0,4.0,4.0,4.0,4.0,4.0,4.0,4.0,100.0,,,,,,,,,,,,,,,,,,,,,,,,,,,,,,,,,,,,,,,,,,,,,,,,,,,,,,,,,,,,,,,,,,,,,,,,,,,,,,,,,,,,,,,,,,,,,,,,,,,,,,,,,,,,,,,,,,,,,,,,,,,,,,,,,,,
1725717296.62456,1725717296.626385,187.0,0.0,4187.179688,4270.641113,4294.615234,4281.282227,4238.717773,4275.512695,4022.94873,4231.025879,4233.077148,4216.538574,4482.436035,4507.563965,4344.871582,4415.897461,3121.0,0.0,11.0,,,,0.0,4.0,4.0,4.0,4.0,4.0,4.0,4.0,4.0,4.0,4.0,4.0,4.0,4.0,4.0,100.0,,,,,,,,,,,,,,,,,,,,,,,,,,,,,,,,,,,,,,,,,,,,,,,,,,,,,,,,,,,,,,,,,,,,,,,,,,,,,,,,,,,,,,,,,,,,,,,,,,,,,,,,,,,,,,,,,,,,,,,,,,,,,,,,,,,
1725717296.628464,1725717296.63029,188.0,0.0,4186.538574,4272.179688,4293.461426,4278.461426,4239.615234,4277.692383,4021.794922,4233.077148,4233.974121,4216.282227,4476.922852,4506.538574,4348.205078,4413.333496,3421.0,0.0,11.0,,,,0.0,4.0,4.0,4.0,4.0,4.0,4.0,4.0,4.0,4.0,4.0,4.0,4.0,4.0,4.0,100.0,,,,,,,,,,,,,,,,,,,,,,,,,,,,,,,,,,,,,,,,,,,,,,,,,,,,,,,,0.0,0.0,1.0,0.0,2048.0,0.0,,,,,,,,,,,,,,,,,,,,,,,,,,,,,,,,,,,,,,,,,,,,,,,,,,,,,,,,,,,,,,,,,,,,,,
1725717296.632368,1725717296.634294,189.0,0.0,4187.563965,4272.436035,4294.230957,4278.461426,4243.077148,4280.512695,4021.410156,4238.589844,4234.615234,4215.256348,4473.589844,4506.794922,4349.743652,4412.820313,3837.0,0.0,11.0,,,,0.0,4.0,4.0,4.0,4.0,4.0,4.0,4.0,4.0,4.0,4.0,4.0,4.0,4.0,4.0,100.0,,,,,,,,,,,,,,,,,,,,,,,,,,,,,,,,,,,,,,,,,,,,,,,,,,,,,,,,,,,,,,,,,,,,,,,,,,,,,,,,,,,,,,,,,,,,,,,,,,,,,,,,,,,,,,,,,,,,,,,,,,,,,,,,,,,
1725717296.636273,1725717296.638198,190.0,0.0,4190.256348,4271.410156,4296.153809,4281.794922,4246.410156,4283.846191,4021.410156,4245.128418,4234.871582,4214.487305,4474.743652,4508.077148,4348.205078,4413.589844,2892.0,0.0,11.0,,,,0.0,4.0,4.0,4.0,4.0,4.0,4.0,4.0,4.0,4.0,4.0,4.0,4.0,4.0,4.0,100.0,,,,,,,,,,,,,,,,,,,,,,,,,,,,,,,,,,,,,,,,,,,,,,,,,,,,,,,,,,,,,,,,,,,,,,,,,,,,,,,,,,,,,,,,,,,,,,,,,,,,,,,,,,,,,,,,,,,,,,,,,,,,,,,,,,,
1725717296.640177,1725717296.642102,191.0,0.0,4193.205078,4270.0,4297.692383,4286.794922,4247.563965,4286.922852,4021.666748,4249.358887,4235.641113,4214.358887,4478.717773,4509.358887,4345.256348,4414.358887,3121.0,0.0,11.0,,,,0.0,4.0,4.0,4.0,4.0,4.0,4.0,4.0,4.0,4.0,4.0,4.0,4.0,4.0,4.0,100.0,,,,,,,,,,,,,,,,,,,,,,,,,,,,,,,,,,,,,,,,,,,,,,,,,,,,,,,,,,,,,,,,,,,,,,,,,,,,,,,,,,,,,,,,,,,,,,,,,,,,,,,,,,,,,,,,,,,,,,,,,,,,,,,,,,,
1725717296.644081,1725717296.646006,192.0,0.0,4194.230957,4268.846191,4298.077148,4290.641113,4245.769043,4289.358887,4021.794922,4249.615234,4237.563965,4214.487305,4481.282227,4509.743652,4343.717773,4414.358887,3421.0,0.0,11.0,,,,0.0,4.0,4.0,4.0,4.0,4.0,4.0,4.0,4.0,4.0,4.0,4.0,4.0,4.0,4.0,100.0,,,,,,,,,,,,,,,,,,,,,,,,,,,,,,,,,,,,,,,,,,,,,,,,,,,,,,,,,,,,,,,,,,,,,,,,,,,,,,,,,,,,,,,,,,,,,,,,,,,,,,,,,,,,,,,,,,,,,,,,,,,,,,,,,,,
1725717296.647985,1725717296.64991,193.0,0.0,4192.179688,4268.077148,4297.307617,4291.666504,4242.692383,4290.641113,4021.410156,4247.179688,4241.025879,4214.743652,4479.871582,4508.974121,4345.512695,4413.717773,3837.0,0.0,11.0,,,,0.0,4.0,4.0,4.0,4.0,4.0,4.0,4.0,4.0,4.0,4.0,4.0,4.0,4.0,4.0,100.0,,,,,,,,,,,,,,,,,,,,,,,,,,,,,,,,,,,,,,,,,,,,,,,,,,,,,,,,,,,,,,,,,,,,,,,,,,,,,,,,,,,,,,,,,,,,,,,,,,,,,,,,,,,,,,,,,,,,,,,,,,,,,,,,,,,
1725717296.651889,1725717296.653714,194.0,0.0,4187.94873,4267.05127,4296.666504,4289.615234,4240.512695,4291.153809,4021.025635,4244.615234,4244.615234,4215.128418,4476.025879,4507.692383,4350.641113,4413.717773,2892.0,0.0,11.0,,,,0.0,4.0,4.0,4.0,4.0,4.0,4.0,4.0,4.0,4.0,4.0,4.0,4.0,4.0,4.0,100.0,,,,,,,,,,,,,,,,,,,,,,,,,,,,,,,,,,,,,,,,,,,,,,,,,,,,,,,,,,,,,,,,,,,,,,,,,,,,,,,,,,,,,,,,,,,,,,,,,,,,,,,,,,,,,,,,,,,,,,,,,,,,,,,,,,,
1725717296.655793,1725717296.657618,195.0,0.0,4183.846191,4265.641113,4296.794922,4286.025879,4240.512695,4291.666504,4020.769287,4243.846191,4247.307617,4216.666504,4474.743652,4507.05127,4356.282227,4415.0,3121.0,0.0,11.0,,,,0.0,4.0,4.0,4.0,4.0,4.0,4.0,4.0,4.0,4.0,4.0,4.0,4.0,4.0,4.0,100.0,,,,,,,,,,,,,,,,,,,,,,,,,,,,,,,,,,,,,,,,,,,,,,,,,,,,,,,,,,,,,,,,,,,,,,,,,,,,,,,,,,,,,,,,,,,,,,,,,,,,,,,,,,,,,,,,,,,,,,,,,,,,,,,,,,,
1725717296.659697,1725717296.661522,196.0,0.0,4181.922852,4264.487305,4297.179688,4282.94873,4242.436035,4292.563965,4020.897461,4245.384766,4248.717773,4220.0,4478.205078,4507.307617,4360.0,4417.436035,3421.0,0.0,11.0,,,,0.0,4.0,4.0,4.0,4.0,4.0,4.0,4.0,4.0,4.0,4.0,4.0,4.0,4.0,4.0,100.0,,,,,,,,,,,,,,,,,,,,,,,,,,,,,,,,,,,,,,,,,,,,,,,,,,,,,,,,0.0,0.0,1.0,0.0,2048.0,0.0,,,,,,,,,,,,,,,,,,,,,,,,,,,,,,,,,,,,,,,,,,,,,,,,,,,,,,,,,,,,,,,,,,,,,,
1725717296.663601,1725717296.665427,197.0,0.0,4182.436035,4263.846191,4297.05127,4281.666504,4244.743652,4294.230957,4021.410156,4247.563965,4249.102539,4224.871582,4483.589844,4507.820313,4360.256348,4419.358887,3837.0,0.0,11.0,,,,0.0,4.0,4.0,4.0,4.0,4.0,4.0,4.0,4.0,4.0,4.0,4.0,4.0,4.0,4.0,100.0,,,,,,,,,,,,,,,,,,,,,,,,,,,,,,,,,,,,,,,,,,,,,,,,,,,,,,,,,,,,,,,,,,,,,,,,,,,,,,,,,,,,,,,,,,,,,,,,,,,,,,,,,,,,,,,,,,,,,,,,,,,,,,,,,,,
1725717296.667505,1725717296.669231,198.0,0.0,4184.871582,4263.846191,4295.897461,4281.794922,4246.025879,4295.641113,4021.410156,4249.230957,4248.846191,4230.641113,4486.153809,4507.692383,4358.077148,4419.487305,2892.0,0.0,11.0,,,,0.0,4.0,4.0,4.0,4.0,4.0,4.0,4.0,4.0,4.0,4.0,4.0,4.0,4.0,4.0,100.0,,,,,,,,,,,,,,,,,,,,,,,,,,,,,,,,,,,,,,,,,,,,,,,,,,,,,,,,,,,,,,,,,,,,,,,,,,,,,,,,,,,,,,,,,,,,,,,,,,,,,,,,,,,,,,,,,,,,,,,,,,,,,,,,,,,
1725717296.671409,1725717296.673135,199.0,0.0,4187.05127,4264.102539,4294.102539,4281.794922,4245.641113,4296.282227,4020.897461,4249.487305,4248.846191,4235.128418,4483.589844,4506.794922,4355.0,4417.307617,3121.0,0.0,11.0,,,,0.0,4.0,4.0,4.0,4.0,4.0,4.0,4.0,4.0,4.0,4.0,4.0,4.0,4.0,4.0,100.0,,,,,,,,,,,,,,,,,,,,,,,,,,,,,,,,,,,,,,,,,,,,,,,,,,,,,,,,,,,,,,,,,,,,,,,,,,,,,,,,,,,,,,,,,,,,,,,,,,,,,,,,,,,,,,,,,,,,,,,,,,,,,,,,,,,
1725717296.675314,1725717296.677039,200.0,0.0,4187.307617,4264.615234,4292.179688,4280.769043,4244.358887,4296.538574,4020.641113,4248.589844,4249.358887,4236.666504,4477.820313,4505.384766,4351.922852,4413.974121,3421.0,0.0,11.0,,,,0.0,4.0,4.0,4.0,4.0,4.0,4.0,4.0,4.0,4.0,4.0,4.0,4.0,4.0,4.0,100.0,,,,,,,,,,,,,,,,,,,,,,,,,,,,,,,,,,,,,,,,,,,,,,,,,,,,,,,,,,,,,,,,,,,,,,,,,,,,,,,,,,,,,,,,,,,,,,,,,,,,,,,,,,,,,,,,,,,,,,,,,,,,,,,,,,,
1725717296.679218,1725717296.680943,201.0,0.0,4184.743652,4265.256348,4290.641113,4278.717773,4243.333496,4297.563965,4021.538574,4247.692383,4250.897461,4235.128418,4473.205078,4504.743652,4349.615234,4411.666504,3837.0,0.0,11.0,,,,0.0,4.0,4.0,4.0,4.0,4.0,4.0,4.0,4.0,4.0,4.0,4.0,4.0,4.0,4.0,100.0,,,,,,,,,,,,,,,,,,,,,,,,,,,,,,,,,,,,,,,,,,,,,,,,,,,,,,,,,,,,,,,,,,,,,,,,,,,,,,,,,,,,,,,,,,,,,,,,,,,,,,,,,,,,,,,,,,,,,,,,,,,,,,,,,,,
1725717296.683122,1725717296.684747,202.0,0.0,4181.538574,4266.282227,4290.128418,4277.307617,4243.461426,4300.128418,4023.589844,4247.94873,4253.077148,4232.820313,4473.077148,4506.794922,4349.487305,4412.692383,2892.0,0.0,11.0,,,,0.0,4.0,4.0,4.0,4.0,4.0,4.0,4.0,4.0,4.0,4.0,4.0,4.0,4.0,4.0,100.0,,,,,,,,,,,,,,,,,,,,,,,,,,,,,,,,,,,,,,,,,,,,,,,,,,,,,,,,,,,,,,,,,,,,,,,,,,,,,,,,,,,,,,,,,,,,,,,,,,,,,,,,,,,,,,,,,,,,,,,,,,,,,,,,,,,
1725717296.687026,1725717296.688651,203.0,0.0,4181.410156,4268.205078,4291.153809,4278.717773,4244.487305,4303.974121,4026.153809,4249.615234,4255.512695,4231.794922,4478.077148,4512.436035,4352.692383,4417.692383,3121.0,0.0,11.0,,,,0.0,4.0,4.0,4.0,4.0,4.0,4.0,4.0,4.0,4.0,4.0,4.0,4.0,4.0,4.0,100.0,,,,,,,,,,,,,,,,,,,,,,,,,,,,,,,,,,,,,,,,,,,,,,,,,,,,,,,,,,,,,,,,,,,,,,,,,,,,,,,,,,,,,,,,,,,,,,,,,,,,,,,,,,,,,,,,,,,,,,,,,,,,,,,,,,,
1725717296.69093,1725717296.692555,204.0,0.0,4186.538574,4270.897461,4293.846191,4283.846191,4246.153809,4308.077148,4028.333252,4252.436035,4257.94873,4232.179688,4485.384766,4519.615234,4358.205078,4424.871582,3421.0,0.0,11.0,,,,0.0,4.0,4.0,4.0,4.0,4.0,4.0,4.0,4.0,4.0,4.0,4.0,4.0,4.0,4.0,100.0,,,,,,,,,,,,,,,,,,,,,,,,,,,,,,,,,,,,,,,,,,,,,,,,,,,,,,,,0.0,0.0,1.0,0.0,2048.0,0.0,,,,,,,,,,,,,,,,,,,,,,,,,,,,,,,,,,,,,,,,,,,,,,,,,,,,,,,,,,,,,,,,,,,,,,
1725717296.694834,1725717296.69636,205.0,0.0,4194.871582,4273.333496,4296.666504,4290.641113,4247.94873,4310.512695,4029.743652,4256.025879,4259.871582,4232.563965,4491.153809,4524.743652,4362.820313,4430.641113,3837.0,0.0,11.0,,,,0.0,4.0,4.0,4.0,4.0,4.0,4.0,4.0,4.0,4.0,4.0,4.0,4.0,4.0,4.0,100.0,,,,,,,,,,,,,,,,,,,,,,,,,,,,,,,,,,,,,,,,,,,,,,,,,,,,,,,,,,,,,,,,,,,,,,,,,,,,,,,,,,,,,,,,,,,,,,,,,,,,,,,,,,,,,,,,,,,,,,,,,,,,,,,,,,,
1725717296.698738,1725717296.700264,206.0,0.0,4201.538574,4274.743652,4298.077148,4295.769043,4249.743652,4310.384766,4030.384521,4259.743652,4261.025879,4232.05127,4491.922852,4525.256348,4364.743652,4432.563965,2892.0,0.0,11.0,,,,0.0,4.0,4.0,4.0,4.0,4.0,4.0,4.0,4.0,4.0,4.0,4.0,4.0,4.0,4.0,100.0,,,,,,,,,,,,,,,,,,,,,,,,,,,,,,,,,,,,,,,,,,,,,,,,,,,,,,,,,,,,,,,,,,,,,,,,,,,,,,,,,,,,,,,,,,,,,,,,,,,,,,,,,,,,,,,,,,,,,,,,,,,,,,,,,,,
1725717296.702642,1725717296.704168,207.0,0.0,4202.436035,4275.897461,4297.307617,4296.666504,4251.538574,4308.461426,4031.153809,4262.94873,4261.282227,4231.410156,4488.846191,4522.179688,4364.615234,4430.384766,3121.0,0.0,11.0,,,,0.0,4.0,4.0,4.0,4.0,4.0,4.0,4.0,4.0,4.0,4.0,4.0,4.0,4.0,4.0,100.0,,,,,,,,,,,,,,,,,,,,,,,,,,,,,,,,,,,,,,,,,,,,,,,,,,,,,,,,,,,,,,,,,,,,,,,,,,,,,,,,,,,,,,,,,,,,,,,,,,,,,,,,,,,,,,,,,,,,,,,,,,,,,,,,,,,
1725717296.706546,1725717296.708172,208.0,0.0,4197.820313,4278.205078,4295.384766,4294.487305,4252.94873,4306.922852,4032.692383,4265.256348,4261.794922,4233.077148,4485.897461,4519.615234,4364.615234,4427.05127,3421.0,0.0,11.0,,,,0.0,4.0,4.0,4.0,4.0,4.0,4.0,4.0,4.0,4.0,4.0,4.0,4.0,4.0,4.0,100.0,,,,,,,,,,,,,,,,,,,,,,,,,,,,,,,,,,,,,,,,,,,,,,,,,,,,,,,,,,,,,,,,,,,,,,,,,,,,,,,,,,,,,,,,,,,,,,,,,,,,,,,,,,,,,,,,,,,,,,,,,,,,,,,,,,,
1725717296.710451,1725717296.712076,209.0,0.0,4191.794922,4280.512695,4294.743652,4292.94873,4254.230957,4307.692383,4034.615479,4267.05127,4262.94873,4237.94873,4486.922852,4521.794922,4365.256348,4425.0,3837.0,0.0,11.0,,,,0.0,4.0,4.0,4.0,4.0,4.0,4.0,4.0,4.0,4.0,4.0,4.0,4.0,4.0,4.0,100.0,,,,,,,,,,,,,,,,,,,,,,,,,,,,,,,,,,,,,,,,,,,,,,,,,,,,,,,,,,,,,,,,,,,,,,,,,,,,,,,,,,,,,,,,,,,,,,,,,,,,,,,,,,,,,,,,,,,,,,,,,,,,,,,,,,,
1725717296.714355,1725717296.71598,210.0,0.0,4189.230957,4281.153809,4296.794922,4294.615234,4255.384766,4311.025879,4036.281982,4268.333496,4264.871582,4243.205078,4491.282227,4528.974121,4364.487305,4425.0,2892.0,0.0,11.0,,,,0.0,4.0,4.0,4.0,4.0,4.0,4.0,4.0,4.0,4.0,4.0,4.0,4.0,4.0,4.0,100.0,,,,,,,,,,,,,,,,,,,,,,,,,,,,,,,,,,,,,,,,,,,,,,,,,,,,,,,,,,,,,,,,,,,,,,,,,,,,,,,,,,,,,,,,,,,,,,,,,,,,,,,,,,,,,,,,,,,,,,,,,,,,,,,,,,,
1725717296.718259,1725717296.719884,211.0,0.0,4191.794922,4278.974121,4301.410156,4298.717773,4256.794922,4315.128418,4037.05127,4268.717773,4266.538574,4244.871582,4495.384766,4537.307617,4360.897461,4426.153809,3121.0,0.0,11.0,,,,0.0,4.0,4.0,4.0,4.0,4.0,4.0,4.0,4.0,4.0,4.0,4.0,4.0,4.0,4.0,100.0,,,,,,,,,,,,,,,,,,,,,,,,,,,,,,,,,,,,,,,,,,,,,,,,,,,,,,,,,,,,,,,,,,,,,,,,,,,,,,,,,,,,,,,,,,,,,,,,,,,,,,,,,,,,,,,,,,,,,,,,,,,,,,,,,,,
1725717296.722163,1725717296.723888,212.0,0.0,4197.436035,4276.025879,4306.538574,4302.563965,4258.205078,4317.94873,4037.179443,4267.179688,4266.794922,4241.410156,4496.666504,4541.666504,4355.897461,4427.307617,3421.0,0.0,11.0,,,,0.0,4.0,4.0,4.0,4.0,4.0,4.0,4.0,4.0,4.0,4.0,4.0,4.0,4.0,4.0,100.0,,,,,,,,,,,,,,,,,1.0,0.0,0.0,,,,,,,,,,,,,,,,,,,,,,,,,,,,,,,,,,,,,0.0,0.0,1.0,0.0,1.0,0.0,2.094364,1.637477,0.655811,0.188344,0.05351,1.886844,1.392457,0.697315,0.260309,0.186218,1.501969,1.275815,0.767143,0.17237,0.065706,1.344829,1.290929,0.714113,0.377803,0.100777,0.389737,0.458923,0.156481,0.158079,0.108298,0.86691,0.575326,0.232118,0.083971,0.062803,1.034018,0.742535,0.401423,0.131004,0.066137,0.939938,3.193335,0.779288,0.33359,0.159001,1.174028,1.330881,0.638023,0.290339,0.105384,2.874037,1.487801,0.651812,0.355814,0.246591,4.24265,2.667423,1.429021,0.777875,0.493535,4.909774,5.268622,1.214527,0.396153,0.135083,5.213165,2.462634,1.112947,0.95076,0.444518,3.602975,3.226602,1.386076,0.314879,0.086342
1725717296.726067,1725717296.727792,213.0,0.0,4202.179688,4275.0,4309.615234,4303.846191,4259.102539,4318.589844,4037.307617,4263.974121,4265.769043,4235.512695,4495.512695,4540.512695,4353.846191,4428.717773,3837.0,0.0,11.0,,,,0.0,4.0,4.0,4.0,4.0,4.0,4.0,4.0,4.0,4.0,4.0,4.0,4.0,4.0,4.0,100.0,,,,,,,,,,,,,,,,,,,,,,,,,,,,,,,,,,,,,,,,,,,,,,,,,,,,,,,,,,,,,,,,,,,,,,,,,,,,,,,,,,,,,,,,,,,,,,,,,,,,,,,,,,,,,,,,,,,,,,,,,,,,,,,,,,,
1725717296.729971,1725717296.731696,214.0,0.0,4204.102539,4277.563965,4309.871582,4302.692383,4259.102539,4317.820313,4038.076904,4260.384766,4264.615234,4232.563965,4494.743652,4536.922852,4357.94873,4431.538574,2892.0,0.0,11.0,,,,0.0,4.0,4.0,4.0,4.0,4.0,4.0,4.0,4.0,4.0,4.0,4.0,4.0,4.0,4.0,100.0,,,,,,,,,,,,,,,,,,,,,,,,,,,,,,,,,,,,,,,,,,,,,,,,,,,,,,,,,,,,,,,,,,,,,,,,,,,,,,,,,,,,,,,,,,,,,,,,,,,,,,,,,,,,,,,,,,,,,,,,,,,,,,,,,,,
1725717296.733875,1725717296.735601,215.0,0.0,4204.487305,4282.820313,4308.717773,4300.769043,4258.846191,4317.436035,4040.128174,4258.333496,4264.358887,4235.641113,4496.922852,4536.025879,4368.589844,4436.538574,3121.0,0.0,11.0,,,,0.0,4.0,4.0,4.0,4.0,4.0,4.0,4.0,4.0,4.0,4.0,4.0,4.0,4.0,4.0,100.0,,,,,,,,,,,,,,,,,,,,,,,,,,,,,,,,,,,,,,,,,,,,,,,,,,,,,,,,,,,,,,,,,,,,,,,,,,,,,,,,,,,,,,,,,,,,,,,,,,,,,,,,,,,,,,,,,,,,,,,,,,,,,,,,,,,
1725717296.737779,1725717296.739605,216.0,0.0,4205.897461,4287.563965,4308.333496,4299.743652,4259.102539,4318.333496,4042.564209,4259.102539,4264.871582,4243.461426,4501.922852,4540.384766,4381.666504,4443.077148,3421.0,0.0,11.0,,,,0.0,4.0,4.0,4.0,4.0,4.0,4.0,4.0,4.0,4.0,4.0,4.0,4.0,4.0,4.0,100.0,,,,,,,,,,,,,,,,,,,,,,,,,,,,,,,,,,,,,,,,,,,,,,,,,,,,,,,,,,,,,,,,,,,,,,,,,,,,,,,,,,,,,,,,,,,,,,,,,,,,,,,,,,,,,,,,,,,,,,,,,,,,,,,,,,,
1725717296.741683,1725717296.743509,217.0,0.0,4209.487305,4289.230957,4309.743652,4300.0,4260.128418,4320.512695,4044.358887,4261.666504,4265.384766,4251.282227,4507.692383,4548.205078,4391.538574,4448.846191,3837.0,0.0,11.0,,,,0.0,4.0,4.0,4.0,4.0,4.0,4.0,4.0,4.0,4.0,4.0,4.0,4.0,4.0,4.0,100.0,,,,,,,,,,,,,,,,,,,,,,,,,,,,,,,,,,,,,,,,,,,,,,,,,,,,,,,,,,,,,,,,,,,,,,,,,,,,,,,,,,,,,,,,,,,,,,,,,,,,,,,,,,,,,,,,,,,,,,,,,,,,,,,,,,,
1725717296.745587,1725717296.747413,218.0,0.0,4213.717773,4286.666504,4311.922852,4300.512695,4260.897461,4323.333496,4044.358887,4263.461426,4265.384766,4254.871582,4510.897461,4555.0,4393.717773,4451.025879,2892.0,0.0,11.0,,,,0.0,4.0,4.0,4.0,4.0,4.0,4.0,4.0,4.0,4.0,4.0,4.0,4.0,4.0,4.0,100.0,,,,,,,,,,,,,,,,,,,,,,,,,,,,,,,,,,,,,,,,,,,,,,,,,,,,,,,,,,,,,,,,,,,,,,,,,,,,,,,,,,,,,,,,,,,,,,,,,,,,,,,,,,,,,,,,,,,,,,,,,,,,,,,,,,,
1725717296.749492,1725717296.751317,219.0,0.0,4215.641113,4281.794922,4313.205078,4299.743652,4260.641113,4325.641113,4043.076904,4263.461426,4265.512695,4252.94873,4510.256348,4557.436035,4388.077148,4448.974121,3121.0,0.0,11.0,,,,0.0,4.0,4.0,4.0,4.0,4.0,4.0,4.0,4.0,4.0,4.0,4.0,4.0,4.0,4.0,100.0,,,,,,,,,,,,,,,,,,,,,,,,,,,,,,,,,,,,,,,,,,,,,,,,,,,,,,,,,,,,,,,,,,,,,,,,,,,,,,,,,,,,,,,,,,,,,,,,,,,,,,,,,,,,,,,,,,,,,,,,,,,,,,,,,,,
1725717296.753396,1725717296.755221,220.0,0.0,4213.974121,4277.94873,4312.307617,4298.461426,4259.230957,4327.05127,4042.179443,4262.94873,4266.282227,4248.333496,4507.05127,4555.384766,4379.615234,4444.615234,3421.0,0.0,11.0,,,,0.0,4.0,4.0,4.0,4.0,4.0,4.0,4.0,4.0,4.0,4.0,4.0,4.0,4.0,4.0,100.0,,,,,,,,,,,,,,,,,,,,,,,,,,,,,,,,,,,,,,,,,,,,,,,,,,,,,,,,0.0,0.0,1.0,0.0,1.0,0.0,,,,,,,,,,,,,,,,,,,,,,,,,,,,,,,,,,,,,,,,,,,,,,,,,,,,,,,,,,,,,,,,,,,,,,
1725717296.7573,1725717296.759025,221.0,0.0,4210.769043,4277.05127,4309.358887,4298.461426,4257.94873,4327.307617,4043.333252,4265.128418,4268.461426,4244.871582,4503.846191,4552.563965,4374.230957,4441.282227,3837.0,0.0,11.0,,,,0.0,4.0,4.0,4.0,4.0,4.0,4.0,4.0,4.0,4.0,4.0,4.0,4.0,4.0,4.0,100.0,,,,,,,,,,,,,,,,,,,,,,,,,,,,,,,,,,,,,,,,,,,,,,,,,,,,,,,,,,,,,,,,,,,,,,,,,,,,,,,,,,,,,,,,,,,,,,,,,,,,,,,,,,,,,,,,,,,,,,,,,,,,,,,,,,,
1725717296.761204,1725717296.762929,222.0,0.0,4209.102539,4278.717773,4306.666504,4301.025879,4257.692383,4326.794922,4047.435791,4270.897461,4271.410156,4244.871582,4502.820313,4552.820313,4374.871582,4441.666504,2892.0,0.0,11.0,,,,0.0,4.0,4.0,4.0,4.0,4.0,4.0,4.0,4.0,4.0,4.0,4.0,4.0,4.0,4.0,100.0,,,,,,,,,,,,,,,,,,,,,,,,,,,,,,,,,,,,,,,,,,,,,,,,,,,,,,,,,,,,,,,,,,,,,,,,,,,,,,,,,,,,,,,,,,,,,,,,,,,,,,,,,,,,,,,,,,,,,,,,,,,,,,,,,,,
1725717296.765108,1725717296.766833,223.0,0.0,4211.025879,4281.025879,4306.282227,4305.0,4258.333496,4326.153809,4053.589844,4277.179688,4273.461426,4247.307617,4504.102539,4556.794922,4378.589844,4445.0,3121.0,0.0,11.0,,,,0.0,4.0,4.0,4.0,4.0,4.0,4.0,4.0,4.0,4.0,4.0,4.0,4.0,4.0,4.0,100.0,,,,,,,,,,,,,,,,,,,,,,,,,,,,,,,,,,,,,,,,,,,,,,,,,,,,,,,,,,,,,,,,,,,,,,,,,,,,,,,,,,,,,,,,,,,,,,,,,,,,,,,,,,,,,,,,,,,,,,,,,,,,,,,,,,,
1725717296.769012,1725717296.770737,224.0,0.0,4215.256348,4282.563965,4308.974121,4307.820313,4258.974121,4326.282227,4059.230713,4279.102539,4272.820313,4249.743652,4506.282227,4561.282227,4379.615234,4448.974121,3421.0,0.0,11.0,,,,0.0,4.0,4.0,4.0,4.0,4.0,4.0,4.0,4.0,4.0,4.0,4.0,4.0,4.0,4.0,100.0,,,,,,,,,,,,,,,,,,,,,,,,,,,,,,,,,,,,,,,,,,,,,,,,,,,,,,,,,,,,,,,,,,,,,,,,,,,,,,,,,,,,,,,,,,,,,,,,,,,,,,,,,,,,,,,,,,,,,,,,,,,,,,,,,,,
1725717296.772916,1725717296.774542,225.0,0.0,4218.589844,4282.94873,4312.563965,4307.179688,4258.333496,4327.179688,4062.307617,4274.487305,4269.102539,4250.641113,4508.077148,4562.05127,4375.512695,4450.512695,3837.0,0.0,11.0,,,,0.0,4.0,4.0,4.0,4.0,4.0,4.0,4.0,4.0,4.0,4.0,4.0,4.0,4.0,4.0,100.0,,,,,,,,,,,,,,,,,,,,,,,,,,,,,,,,,,,,,,,,,,,,,,,,,,,,,,,,,,,,,,,,,,,,,,,,,,,,,,,,,,,,,,,,,,,,,,,,,,,,,,,,,,,,,,,,,,,,,,,,,,,,,,,,,,,
1725717296.77682,1725717296.778446,226.0,0.0,4219.230957,4282.692383,4314.102539,4303.205078,4256.153809,4327.94873,4062.05127,4266.153809,4264.743652,4250.512695,4509.102539,4557.820313,4368.846191,4449.230957,2892.0,0.0,11.0,,,,0.0,4.0,4.0,4.0,4.0,4.0,4.0,4.0,4.0,4.0,4.0,4.0,4.0,4.0,4.0,100.0,,,,,,,,,,,,,,,,,,,,,,,,,,,,,,,,,,,,,,,,,,,,,,,,,,,,,,,,,,,,,,,,,,,,,,,,,,,,,,,,,,,,,,,,,,,,,,,,,,,,,,,,,,,,,,,,,,,,,,,,,,,,,,,,,,,
1725717296.780724,1725717296.78235,227.0,0.0,4217.05127,4282.179688,4311.538574,4297.692383,4252.563965,4327.94873,4060.384521,4260.0,4263.077148,4250.512695,4509.871582,4550.897461,4365.128418,4446.410156,3121.0,0.0,11.0,,,,0.0,4.0,4.0,4.0,4.0,4.0,4.0,4.0,4.0,4.0,4.0,4.0,4.0,4.0,4.0,100.0,,,,,,,,,,,,,,,,,,,,,,,,,,,,,,,,,,,,,,,,,,,,,,,,,,,,,,,,,,,,,,,,,,,,,,,,,,,,,,,,,,,,,,,,,,,,,,,,,,,,,,,,,,,,,,,,,,,,,,,,,,,,,,,,,,,
1725717296.784628,1725717296.786154,228.0,0.0,4214.358887,4281.922852,4305.769043,4293.717773,4249.102539,4327.307617,4059.743652,4259.487305,4265.769043,4250.512695,4510.0,4544.871582,4368.333496,4444.230957,3421.0,0.0,11.0,,,,0.0,4.0,4.0,4.0,4.0,4.0,4.0,4.0,4.0,4.0,4.0,4.0,4.0,4.0,4.0,100.0,,,,,,,,,,,,,,,,,,,,,,,,,,,,,,,,,,,,,,,,,,,,,,,,,,,,,,,,0.0,0.0,1.0,0.0,1.0,0.0,,,,,,,,,,,,,,,,,,,,,,,,,,,,,,,,,,,,,,,,,,,,,,,,,,,,,,,,,,,,,,,,,,,,,,
1725717296.788532,1725717296.790058,229.0,0.0,4213.333496,4281.794922,4299.615234,4293.077148,4248.077148,4326.794922,4062.05127,4263.974121,4270.897461,4249.871582,4507.94873,4542.820313,4377.94873,4443.333496,3837.0,0.0,11.0,,,,0.0,4.0,4.0,4.0,4.0,4.0,4.0,4.0,4.0,4.0,4.0,4.0,4.0,4.0,4.0,100.0,,,,,,,,,,,,,,,,,,,,,,,,,,,,,,,,,,,,,,,,,,,,,,,,,,,,,,,,,,,,,,,,,,,,,,,,,,,,,,,,,,,,,,,,,,,,,,,,,,,,,,,,,,,,,,,,,,,,,,,,,,,,,,,,,,,
1725717296.792436,1725717296.793962,230.0,0.0,4214.615234,4282.05127,4296.538574,4295.256348,4250.128418,4327.563965,4067.179443,4269.743652,4275.512695,4248.461426,4503.717773,4545.0,4390.128418,4443.974121,2892.0,0.0,11.0,,,,0.0,4.0,4.0,4.0,4.0,4.0,4.0,4.0,4.0,4.0,4.0,4.0,4.0,4.0,4.0,100.0,,,,,,,,,,,,,,,,,,,,,,,,,,,,,,,,,,,,,,,,,,,,,,,,,,,,,,,,,,,,,,,,,,,,,,,,,,,,,,,,,,,,,,,,,,,,,,,,,,,,,,,,,,,,,,,,,,,,,,,,,,,,,,,,,,,
1725717296.796341,1725717296.797866,231.0,0.0,4216.666504,4282.436035,4297.820313,4298.461426,4253.846191,4329.743652,4073.205078,4272.692383,4277.05127,4247.307617,4499.615234,4549.230957,4399.487305,4445.512695,3121.0,0.0,11.0,,,,0.0,4.0,4.0,4.0,4.0,4.0,4.0,4.0,4.0,4.0,4.0,4.0,4.0,4.0,4.0,100.0,,,,,,,,,,,,,,,,,,,,,,,,,,,,,,,,,,,,,,,,,,,,,,,,,,,,,,,,,,,,,,,,,,,,,,,,,,,,,,,,,,,,,,,,,,,,,,,,,,,,,,,,,,,,,,,,,,,,,,,,,,,,,,,,,,,
1725717296.800245,1725717296.801671,232.0,0.0,4217.179688,4282.820313,4301.922852,4300.769043,4256.794922,4332.563965,4077.820557,4271.666504,4275.256348,4247.436035,4498.846191,4552.436035,4402.307617,4447.692383,3421.0,0.0,11.0,,,,0.0,4.0,4.0,4.0,4.0,4.0,4.0,4.0,4.0,4.0,4.0,4.0,4.0,4.0,4.0,100.0,,,,,,,,,,,,,,,,,,,,,,,,,,,,,,,,,,,,,,,,,,,,,,,,,,,,,,,,,,,,,,,,,,,,,,,,,,,,,,,,,,,,,,,,,,,,,,,,,,,,,,,,,,,,,,,,,,,,,,,,,,,,,,,,,,,
1725717296.804149,1725717296.805575,233.0,0.0,4215.0,4282.307617,4305.769043,4301.025879,4256.922852,4335.0,4079.487061,4268.717773,4271.666504,4248.717773,4502.179688,4552.692383,4397.563965,4449.102539,3837.0,0.0,11.0,,,,0.0,4.0,4.0,4.0,4.0,4.0,4.0,4.0,4.0,4.0,4.0,4.0,4.0,4.0,4.0,100.0,,,,,,,,,,,,,,,,,,,,,,,,,,,,,,,,,,,,,,,,,,,,,,,,,,,,,,,,,,,,,,,,,,,,,,,,,,,,,,,,,,,,,,,,,,,,,,,,,,,,,,,,,,,,,,,,,,,,,,,,,,,,,,,,,,,
1725717296.808053,1725717296.809479,234.0,0.0,4210.128418,4280.897461,4307.05127,4299.358887,4254.358887,4336.025879,4079.230713,4266.282227,4268.333496,4249.487305,4506.922852,4550.0,4388.077148,4448.589844,2892.0,0.0,11.0,,,,0.0,4.0,4.0,4.0,4.0,4.0,4.0,4.0,4.0,4.0,4.0,4.0,4.0,4.0,4.0,100.0,,,,,,,,,,,,,,,,,,,,,,,,,,,,,,,,,,,,,,,,,,,,,,,,,,,,,,,,,,,,,,,,,,,,,,,,,,,,,,,,,,,,,,,,,,,,,,,,,,,,,,,,,,,,,,,,,,,,,,,,,,,,,,,,,,,
1725717296.811957,1725717296.813483,235.0,0.0,4204.230957,4279.102539,4305.512695,4297.05127,4251.410156,4335.384766,4079.230713,4265.512695,4266.794922,4248.205078,4509.102539,4545.384766,4378.974121,4445.384766,3121.0,0.0,11.0,,,,0.0,4.0,4.0,4.0,4.0,4.0,4.0,4.0,4.0,4.0,4.0,4.0,4.0,4.0,4.0,100.0,,,,,,,,,,,,,,,,,,,,,,,,,,,,,,,,,,,,,,,,,,,,,,,,,,,,,,,,,,,,,,,,,,,,,,,,,,,,,,,,,,,,,,,,,,,,,,,,,,,,,,,,,,,,,,,,,,,,,,,,,,,,,,,,,,,
1725717296.815861,1725717296.817387,236.0,0.0,4199.358887,4277.820313,4302.563965,4295.256348,4250.0,4333.846191,4080.897461,4265.128418,4266.794922,4245.0,4506.025879,4540.384766,4373.974121,4440.0,3421.0,0.0,11.0,,,,0.0,4.0,4.0,4.0,4.0,4.0,4.0,4.0,4.0,4.0,4.0,4.0,4.0,4.0,4.0,100.0,,,,,,,,,,,,,,,,,,,,,,,,,,,,,,,,,,,,,,,,,,,,,,,,,,,,,,,,0.0,0.0,1.0,0.0,1.0,0.0,,,,,,,,,,,,,,,,,,,,,,,,,,,,,,,,,,,,,,,,,,,,,,,,,,,,,,,,,,,,,,,,,,,,,,
1725717296.819765,1725717296.821291,237.0,0.0,4197.307617,4277.179688,4299.487305,4294.871582,4250.384766,4332.563965,4083.846191,4263.717773,4266.794922,4241.922852,4498.717773,4536.538574,4372.94873,4434.230957,3837.0,0.0,11.0,,,,0.0,4.0,4.0,4.0,4.0,4.0,4.0,4.0,4.0,4.0,4.0,4.0,4.0,4.0,4.0,100.0,,,,,,,,,,,,,,,,,,,,,,,,,,,,,,,,,,,,,,,,,,,,,,,,,,,,,,,,,,,,,,,,,,,,,,,,,,,,,,,,,,,,,,,,,,,,,,,,,,,,,,,,,,,,,,,,,,,,,,,,,,,,,,,,,,,
1725717296.823669,1725717296.825195,238.0,0.0,4198.333496,4277.05127,4297.307617,4295.769043,4251.794922,4332.436035,4086.923096,4261.794922,4265.769043,4240.641113,4490.897461,4535.256348,4373.461426,4430.384766,2892.0,0.0,11.0,,,,0.0,4.0,4.0,4.0,4.0,4.0,4.0,4.0,4.0,4.0,4.0,4.0,4.0,4.0,4.0,100.0,,,,,,,,,,,,,,,,,,,,,,,,,,,,,,,,,,,,,,,,,,,,,,,,,,,,,,,,,,,,,,,,,,,,,,,,,,,,,,,,,,,,,,,,,,,,,,,,,,,,,,,,,,,,,,,,,,,,,,,,,,,,,,,,,,,
1725717296.827573,1725717296.829199,239.0,0.0,4200.897461,4277.179688,4296.282227,4296.153809,4252.692383,4333.205078,4088.974365,4261.794922,4264.230957,4241.794922,4487.05127,4536.666504,4372.436035,4429.871582,3121.0,0.0,11.0,,,,0.0,4.0,4.0,4.0,4.0,4.0,4.0,4.0,4.0,4.0,4.0,4.0,4.0,4.0,4.0,100.0,,,,,,,,,,,,,,,,,,,,,,,,,,,,,,,,,,,,,,,,,,,,,,,,,,,,,,,,,,,,,,,,,,,,,,,,,,,,,,,,,,,,,,,,,,,,,,,,,,,,,,,,,,,,,,,,,,,,,,,,,,,,,,,,,,,
1725717296.831478,1725717296.833103,240.0,0.0,4203.205078,4277.307617,4296.282227,4295.384766,4252.307617,4334.230957,4089.871826,4265.256348,4263.589844,4244.615234,4489.615234,4540.769043,4369.487305,4433.077148,3421.0,0.0,11.0,,,,0.0,4.0,4.0,4.0,4.0,4.0,4.0,4.0,4.0,4.0,4.0,4.0,4.0,4.0,4.0,100.0,,,,,,,,,,,,,,,,,,,,,,,,,,,,,,,,,,,,,,,,,,,,,,,,,,,,,,,,,,,,,,,,,,,,,,,,,,,,,,,,,,,,,,,,,,,,,,,,,,,,,,,,,,,,,,,,,,,,,,,,,,,,,,,,,,,
1725717296.835382,1725717296.837007,241.0,0.0,4203.589844,4277.307617,4297.436035,4294.230957,4250.769043,4334.358887,4091.153809,4271.282227,4265.256348,4248.205078,4497.307617,4546.410156,4366.025879,4438.589844,3837.0,0.0,11.0,,,,0.0,4.0,4.0,4.0,4.0,4.0,4.0,4.0,4.0,4.0,4.0,4.0,4.0,4.0,4.0,100.0,,,,,,,,,,,,,,,,,,,,,,,,,,,,,,,,,,,,,,,,,,,,,,,,,,,,,,,,,,,,,,,,,,,,,,,,,,,,,,,,,,,,,,,,,,,,,,,,,,,,,,,,,,,,,,,,,,,,,,,,,,,,,,,,,,,
1725717296.839286,1725717296.840911,242.0,0.0,4202.179688,4277.179688,4298.846191,4293.974121,4248.974121,4334.102539,4093.589844,4276.922852,4269.615234,4251.410156,4506.153809,4552.179688,4364.230957,4443.717773,2892.0,0.0,11.0,,,,0.0,4.0,4.0,4.0,4.0,4.0,4.0,4.0,4.0,4.0,4.0,4.0,4.0,4.0,4.0,100.0,,,,,,,,,,,,,,,,,,,,,,,,,,,,,,,,,,,,,,,,,,,,,,,,,,,,,,,,,,,,,,,,,,,,,,,,,,,,,,,,,,,,,,,,,,,,,,,,,,,,,,,,,,,,,,,,,,,,,,,,,,,,,,,,,,,
1725717296.84319,1725717296.844915,243.0,0.0,4200.641113,4277.179688,4299.743652,4295.512695,4248.333496,4334.230957,4097.05127,4280.128418,4274.871582,4253.077148,4512.179688,4556.282227,4365.256348,4446.538574,3121.0,0.0,11.0,,,,0.0,4.0,4.0,4.0,4.0,4.0,4.0,4.0,4.0,4.0,4.0,4.0,4.0,4.0,4.0,100.0,,,,,,,,,,,,,,,,,,,,,,,,,,,,,,,,,,,,,,,,,,,,,,,,,,,,,,,,,,,,,,,,,,,,,,,,,,,,,,,,,,,,,,,,,,,,,,,,,,,,,,,,,,,,,,,,,,,,,,,,,,,,,,,,,,,
1725717296.847094,1725717296.84882,244.0,0.0,4201.025879,4277.94873,4300.0,4298.589844,4249.358887,4335.512695,4100.512695,4281.025879,4279.102539,4252.94873,4513.461426,4557.94873,4368.846191,4446.666504,3421.0,0.0,11.0,,,,0.0,4.0,4.0,4.0,4.0,4.0,4.0,4.0,4.0,4.0,4.0,4.0,4.0,4.0,4.0,100.0,,,,,,,,,,,,,,,,,1.0,0.0,0.0,,,,,,,,,,,,,,,,,,,,,,,,,,,,,,,,,,,,,0.0,0.0,1.0,0.0,1.0,0.0,1.815261,1.543527,0.549363,0.158882,0.057591,1.501605,1.375188,0.669697,0.257201,0.173816,1.16097,1.157588,0.647561,0.157083,0.061171,1.057818,1.19986,0.646737,0.31007,0.096487,0.328324,0.345306,0.164989,0.174256,0.104521,1.092814,0.592684,0.196396,0.100057,0.073496,1.054294,0.697156,0.35609,0.136924,0.069658,0.887025,3.49114,0.668966,0.367482,0.161212,1.069441,1.22346,0.65811,0.281387,0.107844,2.347745,1.311554,0.761507,0.35064,0.248746,3.342728,2.256916,1.375194,0.712285,0.487888,4.006308,5.064283,0.936119,0.3561,0.142952,4.146577,2.345714,1.17952,0.859576,0.437064,2.73123,2.921347,1.160198,0.30694,0.08573
1725717296.850998,1725717296.852724,245.0,0.0,4204.230957,4279.102539,4299.358887,4302.05127,4251.025879,4337.692383,4103.461426,4281.153809,4281.538574,4251.282227,4511.153809,4557.307617,4373.717773,4445.641113,3837.0,0.0,11.0,,,,0.0,4.0,4.0,4.0,4.0,4.0,4.0,4.0,4.0,4.0,4.0,4.0,4.0,4.0,4.0,100.0,,,,,,,,,,,,,,,,,,,,,,,,,,,,,,,,,,,,,,,,,,,,,,,,,,,,,,,,,,,,,,,,,,,,,,,,,,,,,,,,,,,,,,,,,,,,,,,,,,,,,,,,,,,,,,,,,,,,,,,,,,,,,,,,,,,
1725717296.854902,1725717296.856628,246.0,0.0,4209.102539,4280.256348,4298.589844,4304.358887,4251.538574,4339.871582,4106.282227,4281.538574,4282.179688,4248.717773,4507.692383,4555.641113,4377.179688,4445.128418,2892.0,0.0,11.0,,,,0.0,4.0,4.0,4.0,4.0,4.0,4.0,4.0,4.0,4.0,4.0,4.0,4.0,4.0,4.0,100.0,,,,,,,,,,,,,,,,,,,,,,,,,,,,,,,,,,,,,,,,,,,,,,,,,,,,,,,,,,,,,,,,,,,,,,,,,,,,,,,,,,,,,,,,,,,,,,,,,,,,,,,,,,,,,,,,,,,,,,,,,,,,,,,,,,,
1725717296.858806,1725717296.860532,247.0,0.0,4213.461426,4280.769043,4297.94873,4305.128418,4250.641113,4341.153809,4109.102539,4281.794922,4281.538574,4246.282227,4505.0,4553.974121,4377.307617,4445.0,3121.0,0.0,11.0,,,,0.0,4.0,4.0,4.0,4.0,4.0,4.0,4.0,4.0,4.0,4.0,4.0,4.0,4.0,4.0,100.0,,,,,,,,,,,,,,,,,,,,,,,,,,,,,,,,,,,,,,,,,,,,,,,,,,,,,,,,,,,,,,,,,,,,,,,,,,,,,,,,,,,,,,,,,,,,,,,,,,,,,,,,,,,,,,,,,,,,,,,,,,,,,,,,,,,
1725717296.86271,1725717296.864336,248.0,0.0,4215.769043,4280.256348,4297.94873,4305.0,4249.615234,4341.538574,4112.436035,4280.641113,4279.871582,4245.0,4503.589844,4553.077148,4373.461426,4444.487305,3421.0,0.0,11.0,,,,0.0,4.0,4.0,4.0,4.0,4.0,4.0,4.0,4.0,4.0,4.0,4.0,4.0,4.0,4.0,100.0,,,,,,,,,,,,,,,,,,,,,,,,,,,,,,,,,,,,,,,,,,,,,,,,,,,,,,,,,,,,,,,,,,,,,,,,,,,,,,,,,,,,,,,,,,,,,,,,,,,,,,,,,,,,,,,,,,,,,,,,,,,,,,,,,,,
1725717296.866614,1725717296.86824,249.0,0.0,4215.897461,4279.230957,4298.717773,4305.641113,4250.256348,4341.538574,4116.153809,4278.846191,4278.333496,4245.256348,4502.94873,4552.94873,4367.820313,4443.205078,3837.0,0.0,11.0,,,,0.0,4.0,4.0,4.0,4.0,4.0,4.0,4.0,4.0,4.0,4.0,4.0,4.0,4.0,4.0,100.0,,,,,,,,,,,,,,,,,,,,,,,,,,,,,,,,,,,,,,,,,,,,,,,,,,,,,,,,,,,,,,,,,,,,,,,,,,,,,,,,,,,,,,,,,,,,,,,,,,,,,,,,,,,,,,,,,,,,,,,,,,,,,,,,,,,
1725717296.870519,1725717296.872144,250.0,0.0,4214.871582,4278.461426,4300.256348,4307.563965,4253.205078,4341.794922,4119.743652,4278.205078,4278.205078,4247.179688,4503.333496,4553.717773,4364.358887,4441.922852,2892.0,0.0,11.0,,,,0.0,4.0,4.0,4.0,4.0,4.0,4.0,4.0,4.0,4.0,4.0,4.0,4.0,4.0,4.0,100.0,,,,,,,,,,,,,,,,,,,,,,,,,,,,,,,,,,,,,,,,,,,,,,,,,,,,,,,,,,,,,,,,,,,,,,,,,,,,,,,,,,,,,,,,,,,,,,,,,,,,,,,,,,,,,,,,,,,,,,,,,,,,,,,,,,,
1725717296.874423,1725717296.876048,251.0,0.0,4214.358887,4278.589844,4302.179688,4310.128418,4257.179688,4342.436035,4122.94873,4279.358887,4279.615234,4249.358887,4504.615234,4555.128418,4365.0,4441.538574,3121.0,0.0,11.0,,,,0.0,4.0,4.0,4.0,4.0,4.0,4.0,4.0,4.0,4.0,4.0,4.0,4.0,4.0,4.0,100.0,,,,,,,,,,,,,,,,,,,,,,,,,,,,,,,,,,,,,,,,,,,,,,,,,,,,,,,,,,,,,,,,,,,,,,,,,,,,,,,,,,,,,,,,,,,,,,,,,,,,,,,,,,,,,,,,,,,,,,,,,,,,,,,,,,,
1725717296.878327,1725717296.879853,252.0,0.0,4215.128418,4279.358887,4304.487305,4312.05127,4261.025879,4343.077148,4126.410156,4281.153809,4280.769043,4249.743652,4505.897461,4556.794922,4368.589844,4442.307617,3421.0,0.0,11.0,,,,0.0,4.0,4.0,4.0,4.0,4.0,4.0,4.0,4.0,4.0,4.0,4.0,4.0,4.0,4.0,100.0,,,,,,,,,,,,,,,,,,,,,,,,,,,,,,,,,,,,,,,,,,,,,,,,,,,,,,,,0.0,0.0,1.0,0.0,1.0,0.0,,,,,,,,,,,,,,,,,,,,,,,,,,,,,,,,,,,,,,,,,,,,,,,,,,,,,,,,,,,,,,,,,,,,,,
1725717296.882231,1725717296.883757,253.0,0.0,4217.05127,4279.743652,4306.922852,4312.563965,4263.333496,4343.589844,4130.897461,4281.410156,4279.871582,4247.563965,4505.897461,4558.333496,4371.282227,4443.461426,3837.0,0.0,11.0,,,,0.0,4.0,4.0,4.0,4.0,4.0,4.0,4.0,4.0,4.0,4.0,4.0,4.0,4.0,4.0,100.0,,,,,,,,,,,,,,,,,,,,,,,,,,,,,,,,,,,,,,,,,,,,,,,,,,,,,,,,,,,,,,,,,,,,,,,,,,,,,,,,,,,,,,,,,,,,,,,,,,,,,,,,,,,,,,,,,,,,,,,,,,,,,,,,,,,
1725717296.886135,1725717296.887661,254.0,0.0,4218.717773,4278.846191,4309.102539,4311.794922,4263.846191,4343.846191,4136.794922,4278.846191,4276.666504,4244.743652,4505.384766,4559.102539,4370.128418,4443.846191,2892.0,0.0,11.0,,,,0.0,4.0,4.0,4.0,4.0,4.0,4.0,4.0,4.0,4.0,4.0,4.0,4.0,4.0,4.0,100.0,,,,,,,,,,,,,,,,,,,,,,,,,,,,,,,,,,,,,,,,,,,,,,,,,,,,,,,,,,,,,,,,,,,,,,,,,,,,,,,,,,,,,,,,,,,,,,,,,,,,,,,,,,,,,,,,,,,,,,,,,,,,,,,,,,,
1725717296.890039,1725717296.891465,255.0,0.0,4218.717773,4277.307617,4310.128418,4310.512695,4263.205078,4343.717773,4142.94873,4273.717773,4272.436035,4244.358887,4506.025879,4558.461426,4365.641113,4443.589844,11.0,0.0,11.0,,,,0.0,4.0,4.0,4.0,4.0,4.0,4.0,4.0,4.0,4.0,4.0,4.0,4.0,4.0,4.0,100.0,,,,,,,,,,,,,,,,,,,,,,,,,,,,,,,,,,,,,,,,,,,,,,,,,,,,,,,,,,,,,,,,,,,,,,,,,,,,,,,,,,,,,,,,,,,,,,,,,,,,,,,,,,,,,,,,,,,,,,,,,,,,,,,,,,,
1725717296.893943,1725717296.895369,0.0,0.0,4217.436035,4276.410156,4310.128418,4309.615234,4262.179688,4343.333496,4148.589844,4268.077148,4268.717773,4246.922852,4508.333496,4556.922852,4361.025879,4443.333496,2695.0,0.0,11.0,,,,0.0,4.0,4.0,4.0,4.0,4.0,4.0,4.0,4.0,4.0,4.0,4.0,4.0,4.0,4.0,100.0,,,,,,,,,,,,,,,,,,,,,,,,,,,,,,,,,,,,,,,,,,,,,,,,,,,,,,,,,,,,,,,,,,,,,,,,,,,,,,,,,,,,,,,,,,,,,,,,,,,,,,,,,,,,,,,,,,,,,,,,,,,,,,,,,,,
1725717296.897847,1725717296.899273,1.0,0.0,4216.282227,4277.05127,4309.487305,4309.615234,4261.666504,4342.94873,4153.333496,4264.487305,4266.282227,4249.487305,4510.256348,4555.897461,4359.743652,4443.717773,2566.0,0.0,11.0,,,,0.0,4.0,4.0,4.0,4.0,4.0,4.0,4.0,4.0,4.0,4.0,4.0,4.0,4.0,4.0,100.0,,,,,,,,,,,,,,,,,,,,,,,,,,,,,,,,,,,,,,,,,,,,,,,,,,,,,,,,,,,,,,,,,,,,,,,,,,,,,,,,,,,,,,,,,,,,,,,,,,,,,,,,,,,,,,,,,,,,,,,,,,,,,,,,,,,
1725717296.901751,1725717296.903177,2.0,0.0,4216.025879,4278.077148,4309.358887,4310.256348,4262.05127,4342.563965,4157.307617,4264.615234,4265.384766,4248.589844,4508.589844,4555.769043,4363.205078,4444.743652,2501.0,0.0,11.0,,,,0.0,4.0,4.0,4.0,4.0,4.0,4.0,4.0,4.0,4.0,4.0,4.0,4.0,4.0,4.0,100.0,,,,,,,,,,,,,,,,,,,,,,,,,,,,,,,,,,,,,,,,,,,,,,,,,,,,,,,,,,,,,,,,,,,,,,,,,,,,,,,,,,,,,,,,,,,,,,,,,,,,,,,,,,,,,,,,,,,,,,,,,,,,,,,,,,,
1725717296.905656,1725717296.906982,3.0,0.0,4216.666504,4277.692383,4310.128418,4311.153809,4263.077148,4342.179688,4160.641113,4267.179688,4265.128418,4243.846191,4502.307617,4556.025879,4368.974121,4445.512695,2474.0,0.0,11.0,,,,0.0,4.0,4.0,4.0,4.0,4.0,4.0,4.0,4.0,4.0,4.0,4.0,4.0,4.0,4.0,100.0,,,,,,,,,,,,,,,,,,,,,,,,,,,,,,,,,,,,,,,,,,,,,,,,,,,,,,,,,,,,,,,,,,,,,,,,,,,,,,,,,,,,,,,,,,,,,,,,,,,,,,,,,,,,,,,,,,,,,,,,,,,,,,,,,,,
1725717296.90956,1725717296.910886,4.0,0.0,4217.179688,4275.128418,4311.153809,4311.922852,4263.974121,4341.538574,4163.461426,4269.230957,4265.256348,4238.205078,4494.487305,4555.769043,4372.820313,4445.256348,2443.0,0.0,11.0,,,,0.0,4.0,4.0,4.0,4.0,4.0,4.0,4.0,4.0,4.0,4.0,4.0,4.0,4.0,4.0,100.0,,,,,,,,,,,,,,,,,,,,,,,,,,,,,,,,,,,,,,,,,,,,,,,,,,,,,,,,0.0,0.0,1.0,0.0,1.0,0.0,,,,,,,,,,,,,,,,,,,,,,,,,,,,,,,,,,,,,,,,,,,,,,,,,,,,,,,,,,,,,,,,,,,,,,
1725717296.913464,1725717296.91479,5.0,0.0,4217.436035,4271.153809,4311.666504,4312.179688,4263.717773,4340.897461,4166.025879,4268.846191,4265.897461,4235.641113,4490.641113,4555.256348,4372.307617,4443.846191,2398.0,0.0,11.0,,,,0.0,4.0,4.0,4.0,4.0,4.0,4.0,4.0,4.0,4.0,4.0,4.0,4.0,4.0,4.0,100.0,,,,,,,,,,,,,,,,,,,,,,,,,,,,,,,,,,,,,,,,,,,,,,,,,,,,,,,,,,,,,,,,,,,,,,,,,,,,,,,,,,,,,,,,,,,,,,,,,,,,,,,,,,,,,,,,,,,,,,,,,,,,,,,,,,,
1725717296.917368,1725717296.918794,6.0,0.0,4217.563965,4268.717773,4311.538574,4312.05127,4262.307617,4340.512695,4168.846191,4266.666504,4267.436035,4237.94873,4493.846191,4555.128418,4368.461426,4442.94873,2423.0,0.0,11.0,,,,0.0,4.0,4.0,4.0,4.0,4.0,4.0,4.0,4.0,4.0,4.0,4.0,4.0,4.0,4.0,100.0,,,,,,,,,,,,,,,,,,,,,,,,,,,,,,,,,,,,,,,,,,,,,,,,,,,,,,,,,,,,,,,,,,,,,,,,,,,,,,,,,,,,,,,,,,,,,,,,,,,,,,,,,,,,,,,,,,,,,,,,,,,,,,,,,,,
1725717296.921272,1725717296.922698,7.0,0.0,4218.077148,4270.128418,4311.153809,4311.794922,4260.769043,4340.769043,4172.436035,4265.0,4270.384766,4243.974121,4501.922852,4556.666504,4365.128418,4443.974121,2494.0,0.0,11.0,,,,0.0,4.0,4.0,4.0,4.0,4.0,4.0,4.0,4.0,4.0,4.0,4.0,4.0,4.0,4.0,100.0,,,,,,,,,,,,,,,,,,,,,,,,,,,,,,,,,,,,,,,,,,,,,,,,,,,,,,,,,,,,,,,,,,,,,,,,,,,,,,,,,,,,,,,,,,,,,,,,,,,,,,,,,,,,,,,,,,,,,,,,,,,,,,,,,,,
1725717296.925176,1725717296.926602,8.0,0.0,4219.358887,4275.384766,4311.538574,4311.666504,4260.384766,4341.794922,4176.794922,4265.641113,4274.102539,4250.512695,4508.974121,4558.974121,4364.743652,4446.410156,2476.0,0.0,11.0,,,,0.0,4.0,4.0,4.0,4.0,4.0,4.0,4.0,4.0,4.0,4.0,4.0,4.0,4.0,4.0,100.0,,,,,,,,,,,,,,,,,,,,,,,,,,,,,,,,,,,,,,,,,,,,,,,,,,,,,,,,,,,,,,,,,,,,,,,,,,,,,,,,,,,,,,,,,,,,,,,,,,,,,,,,,,,,,,,,,,,,,,,,,,,,,,,,,,,
1725717296.92908,1725717296.930606,9.0,0.0,4220.897461,4281.666504,4312.436035,4312.436035,4261.410156,4343.077148,4181.410156,4267.94873,4276.282227,4253.205078,4509.487305,4560.641113,4366.794922,4448.077148,2576.0,0.0,11.0,,,,0.0,4.0,4.0,4.0,4.0,4.0,4.0,4.0,4.0,4.0,4.0,4.0,4.0,4.0,4.0,100.0,,,,,,,,,,,,,,,,,,,,,,,,,,,,,,,,,,,,,,,,,,,,,,,,,,,,,,,,,,,,,,,,,,,,,,,,,,,,,,,,,,,,,,,,,,,,,,,,,,,,,,,,,,,,,,,,,,,,,,,,,,,,,,,,,,,
1725717296.932984,1725717296.93451,10.0,0.0,4221.794922,4285.128418,4313.205078,4313.974121,4262.563965,4343.717773,4185.0,4269.871582,4274.871582,4250.128418,4503.333496,4560.384766,4367.563965,4447.05127,2900.0,0.0,11.0,,,,0.0,4.0,4.0,4.0,4.0,4.0,4.0,4.0,4.0,4.0,4.0,4.0,4.0,4.0,4.0,100.0,,,,,,,,,,,,,,,,,,,,,,,,,,,,,,,,,,,,,,,,,,,,,,,,,,,,,,,,,,,,,,,,,,,,,,,,,,,,,,,,,,,,,,,,,,,,,,,,,,,,,,,,,,,,,,,,,,,,,,,,,,,,,,,,,,,
1725717296.936888,1725717296.938414,11.0,0.0,4220.897461,4283.717773,4312.820313,4315.128418,4262.307617,4343.077148,4186.282227,4269.358887,4270.384766,4243.077148,4494.615234,4558.333496,4364.487305,4443.461426,3124.0,0.0,11.0,,,,0.0,4.0,4.0,4.0,4.0,4.0,4.0,4.0,4.0,4.0,4.0,4.0,4.0,4.0,4.0,100.0,,,,,,,,,,,,,,,,,,,,,,,,,,,,,,,,,,,,,,,,,,,,,,,,,,,,,,,,,,,,,,,,,,,,,,,,,,,,,,,,,,,,,,,,,,,,,,,,,,,,,,,,,,,,,,,,,,,,,,,,,,,,,,,,,,,
1725717296.940792,1725717296.942318,12.0,0.0,4217.436035,4278.077148,4310.897461,4314.358887,4259.615234,4341.410156,4185.512695,4266.794922,4265.512695,4236.794922,4488.846191,4555.384766,4358.846191,4439.358887,3415.0,0.0,11.0,,,,0.0,4.0,4.0,4.0,4.0,4.0,4.0,4.0,4.0,4.0,4.0,4.0,4.0,4.0,4.0,100.0,,,,,,,,,,,,,,,,,,,,,,,,,,,,,,,,,,,,,,,,,,,,,,,,,,,,,,,,0.0,0.0,1.0,0.0,1.0,0.0,,,,,,,,,,,,,,,,,,,,,,,,,,,,,,,,,,,,,,,,,,,,,,,,,,,,,,,,,,,,,,,,,,,,,,
1725717296.944696,1725717296.946222,13.0,0.0,4212.05127,4271.153809,4307.307617,4310.769043,4254.871582,4339.487305,4183.974121,4263.974121,4263.589844,4234.871582,4488.461426,4552.820313,4354.743652,4437.05127,3852.0,0.0,11.0,,,,0.0,4.0,4.0,4.0,4.0,4.0,4.0,4.0,4.0,4.0,4.0,4.0,4.0,4.0,4.0,100.0,,,,,,,,,,,,,,,,,,,,,,,,,,,,,,,,,,,,,,,,,,,,,,,,,,,,,,,,,,,,,,,,,,,,,,,,,,,,,,,,,,,,,,,,,,,,,,,,,,,,,,,,,,,,,,,,,,,,,,,,,,,,,,,,,,,
1725717296.9486,1725717296.950226,14.0,0.0,4206.282227,4266.025879,4302.820313,4305.384766,4250.256348,4338.461426,4183.205078,4262.94873,4265.384766,4237.692383,4492.179688,4551.025879,4355.384766,4437.436035,2900.0,0.0,11.0,,,,0.0,4.0,4.0,4.0,4.0,4.0,4.0,4.0,4.0,4.0,4.0,4.0,4.0,4.0,4.0,100.0,,,,,,,,,,,,,,,,,,,,,,,,,,,,,,,,,,,,,,,,,,,,,,,,,,,,,,,,,,,,,,,,,,,,,,,,,,,,,,,,,,,,,,,,,,,,,,,,,,,,,,,,,,,,,,,,,,,,,,,,,,,,,,,,,,,
1725717296.952505,1725717296.95413,15.0,0.0,4201.794922,4264.102539,4298.717773,4300.0,4247.563965,4338.717773,4183.589844,4263.717773,4268.974121,4242.05127,4496.153809,4549.230957,4360.256348,4438.461426,3124.0,0.0,11.0,,,,0.0,4.0,4.0,4.0,4.0,4.0,4.0,4.0,4.0,4.0,4.0,4.0,4.0,4.0,4.0,100.0,,,,,,,,,,,,,,,,,,,,,,,,,,,,,,,,,,,,,,,,,,,,,,,,,,,,,,,,,,,,,,,,,,,,,,,,,,,,,,,,,,,,,,,,,,,,,,,,,,,,,,,,,,,,,,,,,,,,,,,,,,,,,,,,,,,
1725717296.956409,1725717296.958035,16.0,0.0,4199.487305,4264.230957,4296.666504,4296.410156,4247.307617,4339.871582,4184.487305,4265.641113,4271.025879,4244.230957,4497.436035,4546.538574,4365.897461,4437.436035,3415.0,0.0,11.0,,,,0.0,4.0,4.0,4.0,4.0,4.0,4.0,4.0,4.0,4.0,4.0,4.0,4.0,4.0,4.0,100.0,,,,,,,,,,,,,,,,,,,,,,,,,,,,,,,,,,,,,,,,,,,,,,,,,,,,,,,,,,,,,,,,,,,,,,,,,,,,,,,,,,,,,,,,,,,,,,,,,,,,,,,,,,,,,,,,,,,,,,,,,,,,,,,,,,,
1725717296.960313,1725717296.961939,17.0,0.0,4199.102539,4265.0,4296.794922,4295.512695,4247.94873,4341.153809,4184.615234,4266.922852,4270.0,4242.307617,4495.512695,4542.436035,4368.589844,4433.846191,3852.0,0.0,11.0,,,,0.0,4.0,4.0,4.0,4.0,4.0,4.0,4.0,4.0,4.0,4.0,4.0,4.0,4.0,4.0,100.0,,,,,,,,,,,,,,,,,,,,,,,,,,,,,,,,,,,,,,,,,,,,,,,,,,,,,,,,,,,,,,,,,,,,,,,,,,,,,,,,,,,,,,,,,,,,,,,,,,,,,,,,,,,,,,,,,,,,,,,,,,,,,,,,,,,
1725717296.964217,1725717296.965943,18.0,0.0,4200.0,4265.769043,4297.307617,4296.538574,4248.333496,4342.179688,4183.974121,4266.538574,4266.666504,4237.820313,4492.436035,4537.94873,4367.05127,4429.102539,2900.0,0.0,11.0,,,,0.0,4.0,4.0,4.0,4.0,4.0,4.0,4.0,4.0,4.0,4.0,4.0,4.0,4.0,4.0,100.0,,,,,,,,,,,,,,,,,,,,,,,,,,,,,,,,,,,,,,,,,,,,,,,,,,,,,,,,,,,,,,,,,,,,,,,,,,,,,,,,,,,,,,,,,,,,,,,,,,,,,,,,,,,,,,,,,,,,,,,,,,,,,,,,,,,
1725717296.968121,1725717296.969847,19.0,0.0,4201.153809,4266.153809,4296.025879,4297.563965,4247.94873,4342.820313,4184.743652,4265.128418,4263.974121,4233.589844,4490.512695,4534.871582,4362.692383,4426.025879,3124.0,0.0,11.0,,,,0.0,4.0,4.0,4.0,4.0,4.0,4.0,4.0,4.0,4.0,4.0,4.0,4.0,4.0,4.0,100.0,,,,,,,,,,,,,,,,,,,,,,,,,,,,,,,,,,,,,,,,,,,,,,,,,,,,,,,,,,,,,,,,,,,,,,,,,,,,,,,,,,,,,,,,,,,,,,,,,,,,,,,,,,,,,,,,,,,,,,,,,,,,,,,,,,,
1725717296.972025,1725717296.973751,20.0,0.0,4201.794922,4265.897461,4292.436035,4297.307617,4247.307617,4342.692383,4188.333496,4263.717773,4263.333496,4231.666504,4490.512695,4533.974121,4357.94873,4425.897461,3415.0,0.0,11.0,,,,0.0,4.0,4.0,4.0,4.0,4.0,4.0,4.0,4.0,4.0,4.0,4.0,4.0,4.0,4.0,100.0,,,,,,,,,,,,,,,,,1.0,0.0,0.0,,,,,,,,,,,,,,,,,,,,,,,,,,,,,,,,,,,,,0.0,0.0,1.0,0.0,2048.0,0.0,1.617179,1.614186,0.516133,0.152141,0.061251,1.288461,1.574858,0.753731,0.257548,0.161296,1.029779,1.080113,0.593395,0.151999,0.057361,0.949851,1.1941,0.583531,0.256522,0.087161,0.322933,0.287941,0.196601,0.194964,0.100386,1.254113,0.595405,0.16036,0.119613,0.082621,1.146825,0.70813,0.358894,0.147008,0.07307,0.896284,3.544753,0.608661,0.427577,0.167269,1.059568,1.101987,0.748098,0.318371,0.115495,2.046043,1.21257,0.988648,0.378896,0.25116,2.801347,2.216149,1.466186,0.73361,0.482439,3.504698,4.598155,0.876201,0.352266,0.159319,3.433474,2.60291,1.389359,0.885878,0.417123,2.221234,2.751787,1.106014,0.372628,0.088591
1725717296.975929,1725717296.977655,21.0,0.0,4201.025879,4265.128418,4287.563965,4295.769043,4247.436035,4341.794922,4193.717773,4263.589844,4264.230957,4232.307617,4490.641113,4533.846191,4354.230957,4427.307617,3852.0,0.0,11.0,,,,0.0,4.0,4.0,4.0,4.0,4.0,4.0,4.0,4.0,4.0,4.0,4.0,4.0,4.0,4.0,100.0,,,,,,,,,,,,,,,,,,,,,,,,,,,,,,,,,,,,,,,,,,,,,,,,,,,,,,,,,,,,,,,,,,,,,,,,,,,,,,,,,,,,,,,,,,,,,,,,,,,,,,,,,,,,,,,,,,,,,,,,,,,,,,,,,,,
1725717296.979833,1725717296.981559,22.0,0.0,4199.102539,4264.230957,4283.974121,4294.743652,4248.589844,4340.897461,4198.461426,4264.230957,4265.0,4234.230957,4489.487305,4532.692383,4352.179688,4427.692383,2900.0,0.0,11.0,,,,0.0,4.0,4.0,4.0,4.0,4.0,4.0,4.0,4.0,4.0,4.0,4.0,4.0,4.0,4.0,100.0,,,,,,,,,,,,,,,,,,,,,,,,,,,,,,,,,,,,,,,,,,,,,,,,,,,,,,,,,,,,,,,,,,,,,,,,,,,,,,,,,,,,,,,,,,,,,,,,,,,,,,,,,,,,,,,,,,,,,,,,,,,,,,,,,,,
1725717296.983737,1725717296.985363,23.0,0.0,4197.692383,4264.358887,4283.846191,4295.897461,4250.0,4340.769043,4200.769043,4264.615234,4264.871582,4235.769043,4486.922852,4530.384766,4351.410156,4425.512695,3124.0,0.0,11.0,,,,0.0,4.0,4.0,4.0,4.0,4.0,4.0,4.0,4.0,4.0,4.0,4.0,4.0,4.0,4.0,100.0,,,,,,,,,,,,,,,,,,,,,,,,,,,,,,,,,,,,,,,,,,,,,,,,,,,,,,,,,,,,,,,,,,,,,,,,,,,,,,,,,,,,,,,,,,,,,,,,,,,,,,,,,,,,,,,,,,,,,,,,,,,,,,,,,,,
1725717296.987641,1725717296.989267,24.0,0.0,4198.846191,4266.922852,4287.692383,4300.0,4250.897461,4342.436035,4201.410156,4263.846191,4263.974121,4235.641113,4485.512695,4529.743652,4351.794922,4422.692383,3415.0,0.0,11.0,,,,0.0,4.0,4.0,4.0,4.0,4.0,4.0,4.0,4.0,4.0,4.0,4.0,4.0,4.0,4.0,100.0,,,,,,,,,,,,,,,,,,,,,,,,,,,,,,,,,,,,,,,,,,,,,,,,,,,,,,,,,,,,,,,,,,,,,,,,,,,,,,,,,,,,,,,,,,,,,,,,,,,,,,,,,,,,,,,,,,,,,,,,,,,,,,,,,,,
1725717296.991546,1725717296.993172,25.0,0.0,4203.589844,4272.05127,4294.102539,4305.256348,4251.025879,4345.641113,4202.436035,4263.077148,4263.461426,4234.230957,4487.94873,4533.461426,4353.717773,4422.436035,3852.0,0.0,11.0,,,,0.0,4.0,4.0,4.0,4.0,4.0,4.0,4.0,4.0,4.0,4.0,4.0,4.0,4.0,4.0,100.0,,,,,,,,,,,,,,,,,,,,,,,,,,,,,,,,,,,,,,,,,,,,,,,,,,,,,,,,,,,,,,,,,,,,,,,,,,,,,,,,,,,,,,,,,,,,,,,,,,,,,,,,,,,,,,,,,,,,,,,,,,,,,,,,,,,
1725717296.99545,1725717296.996976,26.0,0.0,4210.641113,4278.589844,4299.871582,4309.743652,4250.641113,4348.974121,4205.0,4263.205078,4264.230957,4232.94873,4493.846191,4541.025879,4357.436035,4427.179688,2900.0,0.0,11.0,,,,0.0,4.0,4.0,4.0,4.0,4.0,4.0,4.0,4.0,4.0,4.0,4.0,4.0,4.0,4.0,100.0,,,,,,,,,,,,,,,,,,,,,,,,,,,,,,,,,,,,,,,,,,,,,,,,,,,,,,,,,,,,,,,,,,,,,,,,,,,,,,,,,,,,,,,,,,,,,,,,,,,,,,,,,,,,,,,,,,,,,,,,,,,,,,,,,,,
1725717296.999354,1725717297.00088,27.0,0.0,4216.922852,4283.461426,4302.820313,4312.05127,4250.128418,4350.256348,4208.077148,4264.615234,4266.025879,4233.077148,4500.512695,4549.358887,4361.794922,4435.641113,3124.0,0.0,11.0,,,,0.0,4.0,4.0,4.0,4.0,4.0,4.0,4.0,4.0,4.0,4.0,4.0,4.0,4.0,4.0,100.0,,,,,,,,,,,,,,,,,,,,,,,,,,,,,,,,,,,,,,,,,,,,,,,,,,,,,,,,,,,,,,,,,,,,,,,,,,,,,,,,,,,,,,,,,,,,,,,,,,,,,,,,,,,,,,,,,,,,,,,,,,,,,,,,,,,
1725717297.003258,1725717297.004784,28.0,0.0,4219.487305,4283.974121,4302.692383,4312.307617,4249.743652,4348.461426,4210.0,4266.025879,4267.436035,4233.974121,4504.358887,4553.717773,4364.871582,4443.589844,3415.0,0.0,11.0,,,,0.0,4.0,4.0,4.0,4.0,4.0,4.0,4.0,4.0,4.0,4.0,4.0,4.0,4.0,4.0,100.0,,,,,,,,,,,,,,,,,,,,,,,,,,,,,,,,,,,,,,,,,,,,,,,,,,,,,,,,0.0,0.0,1.0,0.0,2048.0,0.0,,,,,,,,,,,,,,,,,,,,,,,,,,,,,,,,,,,,,,,,,,,,,,,,,,,,,,,,,,,,,,,,,,,,,,
1725717297.007162,1725717297.008688,29.0,0.0,4216.666504,4279.871582,4300.769043,4311.922852,4249.358887,4344.615234,4208.974121,4266.282227,4267.179688,4234.230957,4504.102539,4552.05127,4366.025879,4447.307617,3852.0,0.0,11.0,,,,0.0,4.0,4.0,4.0,4.0,4.0,4.0,4.0,4.0,4.0,4.0,4.0,4.0,4.0,4.0,100.0,,,,,,,,,,,,,,,,,,,,,,,,,,,,,,,,,,,,,,,,,,,,,,,,,,,,,,,,,,,,,,,,,,,,,,,,,,,,,,,,,,,,,,,,,,,,,,,,,,,,,,,,,,,,,,,,,,,,,,,,,,,,,,,,,,,
1725717297.011066,1725717297.012492,30.0,0.0,4210.128418,4274.102539,4298.077148,4311.410156,4248.974121,4340.897461,4205.512695,4265.128418,4265.769043,4234.102539,4501.410156,4545.897461,4365.641113,4445.641113,2900.0,0.0,11.0,,,,0.0,4.0,4.0,4.0,4.0,4.0,4.0,4.0,4.0,4.0,4.0,4.0,4.0,4.0,4.0,100.0,,,,,,,,,,,,,,,,,,,,,,,,,,,,,,,,,,,,,,,,,,,,,,,,,,,,,,,,,,,,,,,,,,,,,,,,,,,,,,,,,,,,,,,,,,,,,,,,,,,,,,,,,,,,,,,,,,,,,,,,,,,,,,,,,,,
1725717297.01497,1725717297.016396,31.0,0.0,4203.205078,4270.897461,4295.128418,4310.128418,4248.717773,4339.358887,4201.538574,4263.589844,4265.0,4234.615234,4498.717773,4539.615234,4365.256348,4440.897461,3124.0,0.0,11.0,,,,0.0,4.0,4.0,4.0,4.0,4.0,4.0,4.0,4.0,4.0,4.0,4.0,4.0,4.0,4.0,100.0,,,,,,,,,,,,,,,,,,,,,,,,,,,,,,,,,,,,,,,,,,,,,,,,,,,,,,,,,,,,,,,,,,,,,,,,,,,,,,,,,,,,,,,,,,,,,,,,,,,,,,,,,,,,,,,,,,,,,,,,,,,,,,,,,,,
1725717297.018874,1725717297.0203,32.0,0.0,4199.358887,4271.794922,4291.666504,4307.179688,4247.692383,4340.384766,4199.487305,4262.563965,4265.641113,4236.282227,4497.436035,4536.282227,4365.256348,4435.769043,0.0,0.0,11.0,,,,0.0,4.0,4.0,4.0,4.0,4.0,4.0,4.0,4.0,4.0,4.0,4.0,4.0,4.0,4.0,100.0,,,,,,,,,,,,,,,,,,,,,,,,,,,,,,,,,,,,,,,,,,,,,,,,,,,,,,,,,,,,,,,,,,,,,,,,,,,,,,,,,,,,,,,,,,,,,,,,,,,,,,,,,,,,,,,,,,,,,,,,,,,,,,,,,,,
1725717297.022778,1725717297.024304,33.0,0.0,4199.615234,4275.0,4287.692383,4302.94873,4245.384766,4342.563965,4200.128418,4261.922852,4267.179688,4237.436035,4497.563965,4536.538574,4365.128418,4432.436035,0.0,0.0,11.0,,,,0.0,4.0,4.0,4.0,4.0,4.0,4.0,4.0,4.0,4.0,4.0,4.0,4.0,4.0,4.0,100.0,,,,,,,,,,,,,,,,,,,,,,,,,,,,,,,,,,,,,,,,,,,,,,,,,,,,,,,,,,,,,,,,,,,,,,,,,,,,,,,,,,,,,,,,,,,,,,,,,,,,,,,,,,,,,,,,,,,,,,,,,,,,,,,,,,,
1725717297.026683,1725717297.028209,34.0,0.0,4202.436035,4276.666504,4283.717773,4298.846191,4241.538574,4343.589844,4202.05127,4261.666504,4267.563965,4236.794922,4497.692383,4538.461426,4363.974121,4431.282227,0.0,0.0,11.0,,,,0.0,4.0,4.0,4.0,4.0,4.0,4.0,4.0,4.0,4.0,4.0,4.0,4.0,4.0,4.0,100.0,,,,,,,,,,,,,,,,,,,,,,,,,,,,,,,,,,,,,,,,,,,,,,,,,,,,,,,,,,,,,,,,,,,,,,,,,,,,,,,,,,,,,,,,,,,,,,,,,,,,,,,,,,,,,,,,,,,,,,,,,,,,,,,,,,,
1725717297.030587,1725717297.032113,35.0,0.0,4205.0,4274.487305,4280.897461,4296.282227,4237.436035,4343.077148,4203.077148,4261.922852,4265.641113,4234.871582,4497.179688,4539.871582,4361.794922,4431.282227,0.0,0.0,11.0,,,,0.0,4.0,4.0,4.0,4.0,4.0,4.0,4.0,4.0,4.0,4.0,4.0,4.0,4.0,4.0,100.0,,,,,,,,,,,,,,,,,,,,,,,,,,,,,,,,,,,,,,,,,,,,,,,,,,,,,,,,,,,,,,,,,,,,,,,,,,,,,,,,,,,,,,,,,,,,,,,,,,,,,,,,,,,,,,,,,,,,,,,,,,,,,,,,,,,
1725717297.034491,1725717297.036117,36.0,0.0,4205.384766,4269.102539,4280.0,4295.641113,4234.230957,4341.666504,4201.922852,4262.563965,4261.922852,4234.102539,4496.538574,4539.743652,4359.358887,4431.282227,0.0,0.0,11.0,,,,0.0,4.0,4.0,4.0,4.0,4.0,4.0,4.0,4.0,4.0,4.0,4.0,4.0,4.0,4.0,100.0,,,,,,,,,,,,,,,,,,,,,,,,,,,,,,,,,,,,,,,,,,,,,,,,,,,,,,,,0.0,0.0,1.0,0.0,2048.0,0.0,,,,,,,,,,,,,,,,,,,,,,,,,,,,,,,,,,,,,,,,,,,,,,,,,,,,,,,,,,,,,,,,,,,,,,
1725717297.038395,1725717297.040021,37.0,0.0,4203.717773,4263.461426,4280.384766,4296.153809,4233.205078,4341.025879,4200.0,4262.563965,4258.589844,4236.025879,4496.922852,4538.589844,4357.436035,4430.512695,0.0,0.0,11.0,,,,0.0,4.0,4.0,4.0,4.0,4.0,4.0,4.0,4.0,4.0,4.0,4.0,4.0,4.0,4.0,100.0,,,,,,,,,,,,,,,,,,,,,,,,,,,,,,,,,,,,,,,,,,,,,,,,,,,,,,,,,,,,,,,,,,,,,,,,,,,,,,,,,,,,,,,,,,,,,,,,,,,,,,,,,,,,,,,,,,,,,,,,,,,,,,,,,,,
1725717297.042299,1725717297.043925,38.0,0.0,4201.666504,4260.641113,4281.282227,4296.922852,4234.102539,4341.794922,4200.128418,4260.769043,4258.461426,4240.384766,4499.487305,4537.692383,4356.666504,4429.358887,0.0,0.0,11.0,,,,0.0,4.0,4.0,4.0,4.0,4.0,4.0,4.0,4.0,4.0,4.0,4.0,4.0,4.0,4.0,100.0,,,,,,,,,,,,,,,,,,,,,,,,,,,,,,,,,,,,,,,,,,,,,,,,,,,,,,,,,,,,,,,,,,,,,,,,,,,,,,,,,,,,,,,,,,,,,,,,,,,,,,,,,,,,,,,,,,,,,,,,,,,,,,,,,,,
1725717297.046203,1725717297.047829,39.0,0.0,4200.641113,4261.538574,4281.794922,4297.05127,4235.897461,4342.820313,4203.846191,4257.307617,4261.922852,4245.0,4503.461426,4537.94873,4357.05127,4428.589844,0.0,0.0,11.0,,,,0.0,4.0,4.0,4.0,4.0,4.0,4.0,4.0,4.0,4.0,4.0,4.0,4.0,4.0,4.0,100.0,,,,,,,,,,,,,,,,,,,,,,,,,,,,,,,,,,,,,,,,,,,,,,,,,,,,,,,,,,,,,,,,,,,,,,,,,,,,,,,,,,,,,,,,,,,,,,,,,,,,,,,,,,,,,,,,,,,,,,,,,,,,,,,,,,,
1725717297.050107,1725717297.051733,40.0,0.0,4200.512695,4264.230957,4281.538574,4297.05127,4236.794922,4342.820313,4209.615234,4254.102539,4265.769043,4247.179688,4506.666504,4539.358887,4358.589844,4428.974121,0.0,0.0,11.0,,,,0.0,4.0,4.0,4.0,4.0,4.0,4.0,4.0,4.0,4.0,4.0,4.0,4.0,4.0,4.0,100.0,,,,,,,,,,,,,,,,,,,,,,,,,,,,,,,,,,,,,,,,,,,,,,,,,,,,,,,,,,,,,,,,,,,,,,,,,,,,,,,,,,,,,,,,,,,,,,,,,,,,,,,,,,,,,,,,,,,,,,,,,,,,,,,,,,,
1725717297.054011,1725717297.055737,41.0,0.0,4200.641113,4265.384766,4280.641113,4297.05127,4236.025879,4341.282227,4214.871582,4252.820313,4266.025879,4244.871582,4506.794922,4540.769043,4360.0,4430.256348,0.0,0.0,11.0,,,,0.0,4.0,4.0,4.0,4.0,4.0,4.0,4.0,4.0,4.0,4.0,4.0,4.0,4.0,4.0,100.0,,,,,,,,,,,,,,,,,,,,,,,,,,,,,,,,,,,,,,,,,,,,,,,,,,,,,,,,,,,,,,,,,,,,,,,,,,,,,,,,,,,,,,,,,,,,,,,,,,,,,,,,,,,,,,,,,,,,,,,,,,,,,,,,,,,
1725717297.057915,1725717297.059641,42.0,0.0,4200.512695,4262.820313,4279.487305,4297.179688,4234.230957,4338.974121,4217.94873,4254.358887,4260.769043,4238.461426,4503.974121,4540.897461,4359.615234,4431.153809,0.0,0.0,11.0,,,,0.0,4.0,4.0,4.0,4.0,4.0,4.0,4.0,4.0,4.0,4.0,4.0,4.0,4.0,4.0,100.0,,,,,,,,,,,,,,,,,,,,,,,,,,,,,,,,,,,,,,,,,,,,,,,,,,,,,,,,,,,,,,,,,,,,,,,,,,,,,,,,,,,,,,,,,,,,,,,,,,,,,,,,,,,,,,,,,,,,,,,,,,,,,,,,,,,
1725717297.061819,1725717297.063545,43.0,0.0,4200.0,4257.179688,4278.846191,4297.179688,4232.307617,4336.794922,4219.102539,4256.794922,4252.692383,4230.897461,4500.384766,4539.102539,4356.410156,4431.025879,0.0,0.0,11.0,,,,0.0,4.0,4.0,4.0,4.0,4.0,4.0,4.0,4.0,4.0,4.0,4.0,4.0,4.0,4.0,100.0,,,,,,,,,,,,,,,,,,,,,,,,,,,,,,,,,,,,,,,,,,,,,,,,,,,,,,,,,,,,,,,,,,,,,,,,,,,,,,,,,,,,,,,,,,,,,,,,,,,,,,,,,,,,,,,,,,,,,,,,,,,,,,,,,,,
1725717297.065724,1725717297.067449,44.0,0.0,4199.487305,4251.282227,4278.717773,4296.282227,4231.282227,4335.128418,4219.743652,4258.205078,4247.05127,4226.410156,4497.179688,4535.512695,4351.410156,4429.615234,0.0,0.0,11.0,,,,0.0,4.0,4.0,4.0,4.0,4.0,4.0,4.0,4.0,4.0,4.0,4.0,4.0,4.0,4.0,100.0,,,,,,,,,,,,,,,,,,,,,,,,,,,,,,,,,,,,,,,,,,,,,,,,,,,,,,,,0.0,0.0,1.0,0.0,2048.0,0.0,,,,,,,,,,,,,,,,,,,,,,,,,,,,,,,,,,,,,,,,,,,,,,,,,,,,,,,,,,,,,,,,,,,,,,
1725717297.069628,1725717297.071254,45.0,0.0,4198.974121,4247.307617,4278.205078,4294.615234,4231.153809,4333.717773,4221.153809,4257.820313,4247.692383,4227.692383,4493.717773,4531.666504,4347.820313,4427.436035,0.0,0.0,11.0,,,,0.0,4.0,4.0,4.0,4.0,4.0,4.0,4.0,4.0,4.0,4.0,4.0,4.0,4.0,4.0,100.0,,,,,,,,,,,,,,,,,,,,,,,,,,,,,,,,,,,,,,,,,,,,,,,,,,,,,,,,,,,,,,,,,,,,,,,,,,,,,,,,,,,,,,,,,,,,,,,,,,,,,,,,,,,,,,,,,,,,,,,,,,,,,,,,,,,
1725717297.073532,1725717297.075158,46.0,0.0,4198.205078,4246.025879,4277.436035,4293.077148,4231.794922,4332.563965,4223.974121,4257.307617,4254.230957,4234.743652,4489.230957,4529.743652,4347.94873,4425.641113,0.0,0.0,11.0,,,,0.0,4.0,4.0,4.0,4.0,4.0,4.0,4.0,4.0,4.0,4.0,4.0,4.0,4.0,4.0,100.0,,,,,,,,,,,,,,,,,,,,,,,,,,,,,,,,,,,,,,,,,,,,,,,,,,,,,,,,,,,,,,,,,,,,,,,,,,,,,,,,,,,,,,,,,,,,,,,,,,,,,,,,,,,,,,,,,,,,,,,,,,,,,,,,,,,
1725717297.077436,1725717297.079062,47.0,0.0,4197.692383,4246.794922,4276.922852,4292.692383,4232.563965,4332.307617,4227.94873,4258.589844,4262.820313,4244.102539,4485.897461,4531.282227,4351.922852,4425.128418,0.0,0.0,11.0,,,,0.0,4.0,4.0,4.0,4.0,4.0,4.0,4.0,4.0,4.0,4.0,4.0,4.0,4.0,4.0,100.0,,,,,,,,,,,,,,,,,,,,,,,,,,,,,,,,,,,,,,,,,,,,,,,,,,,,,,,,,,,,,,,,,,,,,,,,,,,,,,,,,,,,,,,,,,,,,,,,,,,,,,,,,,,,,,,,,,,,,,,,,,,,,,,,,,,
1725717297.08134,1725717297.082966,48.0,0.0,4198.077148,4249.102539,4277.692383,4293.846191,4233.205078,4333.333496,4231.794922,4261.410156,4268.461426,4251.410156,4487.94873,4535.897461,4357.820313,4426.410156,0.0,0.0,11.0,,,,0.0,4.0,4.0,4.0,4.0,4.0,4.0,4.0,4.0,4.0,4.0,4.0,4.0,4.0,4.0,100.0,,,,,,,,,,,,,,,,,,,,,,,,,,,,,,,,,,,,,,,,,,,,,,,,,,,,,,,,,,,,,,,,,,,,,,,,,,,,,,,,,,,,,,,,,,,,,,,,,,,,,,,,,,,,,,,,,,,,,,,,,,,,,,,,,,,
1725717297.085244,1725717297.08677,49.0,0.0,4199.102539,4252.563965,4279.615234,4295.512695,4233.461426,4335.897461,4234.230957,4263.717773,4268.846191,4252.436035,4495.512695,4540.641113,4362.94873,4428.717773,0.0,0.0,11.0,,,,0.0,4.0,4.0,4.0,4.0,4.0,4.0,4.0,4.0,4.0,4.0,4.0,4.0,4.0,4.0,100.0,,,,,,,,,,,,,,,,,,,,,,,,,,,,,,,,,,,,,,,,,,,,,,,,,,,,,,,,,,,,,,,,,,,,,,,,,,,,,,,,,,,,,,,,,,,,,,,,,,,,,,,,,,,,,,,,,,,,,,,,,,,,,,,,,,,
1725717297.089148,1725717297.090674,50.0,0.0,4200.384766,4256.410156,4281.282227,4296.538574,4233.461426,4338.974121,4234.615234,4263.205078,4265.512695,4246.922852,4504.102539,4542.05127,4364.615234,4431.025879,0.0,0.0,11.0,,,,0.0,4.0,4.0,4.0,4.0,4.0,4.0,4.0,4.0,4.0,4.0,4.0,4.0,4.0,4.0,100.0,,,,,,,,,,,,,,,,,,,,,,,,,,,,,,,,,,,,,,,,,,,,,,,,,,,,,,,,,,,,,,,,,,,,,,,,,,,,,,,,,,,,,,,,,,,,,,,,,,,,,,,,,,,,,,,,,,,,,,,,,,,,,,,,,,,
1725717297.093052,1725717297.094578,51.0,0.0,4201.282227,4259.615234,4281.794922,4296.538574,4233.205078,4341.410156,4234.102539,4259.230957,4261.410156,4237.820313,4506.794922,4538.589844,4362.307617,4431.794922,0.0,0.0,11.0,,,,0.0,4.0,4.0,4.0,4.0,4.0,4.0,4.0,4.0,4.0,4.0,4.0,4.0,4.0,4.0,100.0,,,,,,,,,,,,,,,,,,,,,,,,,,,,,,,,,,,,,,,,,,,,,,,,,,,,,,,,,,,,,,,,,,,,,,,,,,,,,,,,,,,,,,,,,,,,,,,,,,,,,,,,,,,,,,,,,,,,,,,,,,,,,,,,,,,
1725717297.096956,1725717297.098482,52.0,0.0,4201.538574,4261.025879,4281.153809,4295.769043,4232.94873,4342.563965,4234.230957,4253.846191,4258.846191,4230.384766,4501.794922,4532.692383,4357.436035,4430.641113,0.0,0.0,11.0,,,,0.0,4.0,4.0,4.0,4.0,4.0,4.0,4.0,4.0,4.0,4.0,4.0,4.0,4.0,4.0,100.0,1.0,50.0,4.0,4.0,4.0,4.0,4.0,1.0,1.0,4.0,4.0,4.0,4.0,4.0,4.0,4.0,1.0,0.0,0.0,,,,,,,,,,,,,,,,,,,,,,,,,,,,,,,,,,,,,0.0,0.0,1.0,0.0,2048.0,0.0,1.574248,1.81204,0.54129,0.165606,0.065671,1.275992,1.906709,0.904245,0.263323,0.151269,1.102733,1.040597,0.59413,0.156792,0.054674,0.979137,1.271024,0.541324,0.223461,0.076017,0.397715,0.285394,0.238268,0.211498,0.096625,1.283042,0.583256,0.127605,0.13769,0.08758,1.257225,0.753982,0.3942,0.156816,0.07605,0.929425,3.298429,0.603398,0.495045,0.174327,1.128202,0.958667,0.878738,0.389263,0.125344,1.962129,1.174097,1.265237,0.430645,0.25237,2.639379,2.454459,1.622952,0.818526,0.468357,3.420747,3.929871,0.997185,0.37027,0.180095,3.111909,3.125479,1.669028,1.005806,0.389681,2.113186,2.719605,1.189794,0.488221,0.095134
1725717297.10086,1725717297.102287,53.0,0.0,4201.282227,4261.025879,4279.743652,4295.512695,4233.333496,4341.922852,4236.153809,4251.025879,4258.205078,4228.846191,4493.846191,4528.333496,4353.589844,4429.102539,0.0,0.0,11.0,,,,0.0,4.0,4.0,4.0,4.0,4.0,4.0,4.0,4.0,4.0,4.0,4.0,4.0,4.0,4.0,100.0,,,,,,,,,,,,,,,,,,,,,,,,,,,,,,,,,,,,,,,,,,,,,,,,,,,,,,,,,,,,,,,,,,,,,,,,,,,,,,,,,,,,,,,,,,,,,,,,,,,,,,,,,,,,,,,,,,,,,,,,,,,,,,,,,,,
1725717297.104764,1725717297.106191,54.0,0.0,4200.897461,4260.769043,4278.333496,4296.153809,4233.974121,4340.0,4239.871582,4253.077148,4259.615234,4233.974121,4490.0,4528.589844,4354.102539,4428.717773,0.0,0.0,11.0,,,,0.0,4.0,4.0,4.0,4.0,4.0,4.0,4.0,4.0,4.0,4.0,4.0,4.0,4.0,4.0,100.0,,,,,,,,,,,,,,,,,,,,,,,,,,,,,,,,,,,,,,,,,,,,,,,,,,,,,,,,,,,,,,,,,,,,,,,,,,,,,,,,,,,,,,,,,,,,,,,,,,,,,,,,,,,,,,,,,,,,,,,,,,,,,,,,,,,
1725717297.108668,1725717297.110095,55.0,0.0,4200.897461,4261.666504,4277.820313,4297.692383,4234.102539,4337.94873,4244.102539,4259.358887,4262.820313,4243.077148,4493.461426,4533.333496,4358.717773,4430.0,0.0,0.0,11.0,,,,0.0,4.0,4.0,4.0,4.0,4.0,4.0,4.0,4.0,4.0,4.0,4.0,4.0,4.0,4.0,100.0,,,,,,,,,,,,,,,,,,,,,,,,,,,,,,,,,,,,,,,,,,,,,,,,,,,,,,,,,,,,,,,,,,,,,,,,,,,,,,,,,,,,,,,,,,,,,,,,,,,,,,,,,,,,,,,,,,,,,,,,,,,,,,,,,,,
1725717297.112573,1725717297.113999,56.0,0.0,4201.410156,4263.846191,4278.974121,4299.102539,4233.846191,4337.05127,4247.436035,4266.153809,4266.922852,4251.025879,4500.641113,4538.717773,4363.846191,4431.538574,0.0,0.0,11.0,,,,0.0,4.0,4.0,4.0,4.0,4.0,4.0,4.0,4.0,4.0,4.0,4.0,4.0,4.0,4.0,100.0,,,,,,,,,,,,,,,,,,,,,,,,,,,,,,,,,,,,,,,,,,,,,,,,,,,,,,,,,,,,,,,,,,,,,,,,,,,,,,,,,,,,,,,,,,,,,,,,,,,,,,,,,,,,,,,,,,,,,,,,,,,,,,,,,,,
1725717297.116477,1725717297.117803,57.0,0.0,4202.563965,4266.282227,4281.666504,4299.743652,4234.615234,4337.94873,4249.487305,4269.615234,4271.025879,4253.717773,4505.384766,4541.410156,4365.384766,4431.794922,0.0,0.0,11.0,,,,0.0,4.0,4.0,4.0,4.0,4.0,4.0,4.0,4.0,4.0,4.0,4.0,4.0,4.0,4.0,100.0,,,,,,,,,,,,,,,,,,,,,,,,,,,,,,,,,,,,,,,,,,,,,,,,,,,,,,,,,,,,,,,,,,,,,,,,,,,,,,,,,,,,,,,,,,,,,,,,,,,,,,,,,,,,,,,,,,,,,,,,,,,,,,,,,,,
1725717297.120381,1725717297.121707,58.0,0.0,4204.743652,4267.820313,4284.743652,4299.487305,4237.436035,4340.384766,4250.897461,4268.974121,4273.846191,4251.410156,4503.974121,4540.641113,4362.692383,4431.025879,0.0,0.0,11.0,,,,0.0,4.0,4.0,4.0,4.0,4.0,4.0,4.0,4.0,4.0,4.0,4.0,4.0,4.0,4.0,100.0,,,,,,,,,,,,,,,,,,,,,,,,,,,,,,,,,,,,,,,,,,,,,,,,,,,,,,,,,,,,,,,,,,,,,,,,,,,,,,,,,,,,,,,,,,,,,,,,,,,,,,,,,,,,,,,,,,,,,,,,,,,,,,,,,,,
1725717297.124285,1725717297.125611,59.0,0.0,4208.461426,4267.692383,4286.922852,4299.102539,4241.666504,4342.692383,4252.820313,4266.025879,4274.102539,4247.563965,4499.102539,4538.717773,4358.974121,4431.153809,0.0,0.0,11.0,,,,0.0,4.0,4.0,4.0,4.0,4.0,4.0,4.0,4.0,4.0,4.0,4.0,4.0,4.0,4.0,100.0,,,,,,,,,,,,,,,,,,,,,,,,,,,,,,,,,,,,,,,,,,,,,,,,,,,,,,,,,,,,,,,,,,,,,,,,,,,,,,,,,,,,,,,,,,,,,,,,,,,,,,,,,,,,,,,,,,,,,,,,,,,,,,,,,,,
1725717297.128189,1725717297.129615,60.0,0.0,4213.205078,4266.410156,4287.307617,4298.974121,4245.384766,4343.461426,4256.153809,4263.333496,4271.666504,4245.897461,4495.769043,4538.461426,4358.077148,4433.717773,0.0,0.0,11.0,,,,0.0,4.0,4.0,4.0,4.0,4.0,4.0,4.0,4.0,4.0,4.0,4.0,4.0,4.0,4.0,100.0,,,,,,,,,,,,,,,,,,,,,,,,,,,,,,,,,,,,,,,,,,,,,,,,,,,,,,,,0.0,0.0,1.0,0.0,2048.0,0.0,,,,,,,,,,,,,,,,,,,,,,,,,,,,,,,,,,,,,,,,,,,,,,,,,,,,,,,,,,,,,,,,,,,,,,
1725717297.132093,1725717297.133519,61.0,0.0,4216.794922,4265.128418,4286.025879,4298.717773,4246.410156,4341.922852,4260.641113,4261.922852,4267.692383,4246.922852,4497.436035,4539.871582,4361.282227,4437.94873,0.0,0.0,11.0,,,,0.0,4.0,4.0,4.0,4.0,4.0,4.0,4.0,4.0,4.0,4.0,4.0,4.0,4.0,4.0,100.0,,,,,,,,,,,,,,,,,,,,,,,,,,,,,,,,,,,,,,,,,,,,,,,,,,,,,,,,,,,,,,,,,,,,,,,,,,,,,,,,,,,,,,,,,,,,,,,,,,,,,,,,,,,,,,,,,,,,,,,,,,,,,,,,,,,
1725717297.135997,1725717297.137424,62.0,0.0,4217.307617,4264.358887,4283.846191,4297.94873,4244.102539,4338.461426,4264.358887,4262.05127,4264.487305,4248.717773,4502.563965,4540.256348,4366.025879,4440.641113,0.0,0.0,11.0,,,,0.0,4.0,4.0,4.0,4.0,4.0,4.0,4.0,4.0,4.0,4.0,4.0,4.0,4.0,4.0,100.0,,,,,,,,,,,,,,,,,,,,,,,,,,,,,,,,,,,,,,,,,,,,,,,,,,,,,,,,,,,,,,,,,,,,,,,,,,,,,,,,,,,,,,,,,,,,,,,,,,,,,,,,,,,,,,,,,,,,,,,,,,,,,,,,,,,
1725717297.139901,1725717297.141428,63.0,0.0,4214.102539,4263.461426,4281.538574,4296.153809,4239.871582,4334.230957,4265.512695,4262.563965,4263.589844,4248.461426,4506.153809,4537.179688,4367.94873,4439.743652,0.0,0.0,11.0,,,,0.0,4.0,4.0,4.0,4.0,4.0,4.0,4.0,4.0,4.0,4.0,4.0,4.0,4.0,4.0,100.0,,,,,,,,,,,,,,,,,,,,,,,,,,,,,,,,,,,,,,,,,,,,,,,,,,,,,,,,,,,,,,,,,,,,,,,,,,,,,,,,,,,,,,,,,,,,,,,,,,,,,,,,,,,,,,,,,,,,,,,,,,,,,,,,,,,
1725717297.143805,1725717297.145332,64.0,0.0,4208.589844,4261.282227,4279.230957,4292.692383,4235.256348,4330.641113,4263.717773,4262.94873,4264.615234,4245.256348,4504.487305,4531.538574,4364.487305,4435.256348,0.0,0.0,11.0,,,,0.0,4.0,4.0,4.0,4.0,4.0,4.0,4.0,4.0,4.0,4.0,4.0,4.0,4.0,4.0,100.0,,,,,,,,,,,,,,,,,,,,,,,,,,,,,,,,,,,,,,,,,,,,,,,,,,,,,,,,,,,,,,,,,,,,,,,,,,,,,,,,,,,,,,,,,,,,,,,,,,,,,,,,,,,,,,,,,,,,,,,,,,,,,,,,,,,
1725717297.147709,1725717297.149236,65.0,0.0,4203.333496,4257.692383,4276.922852,4287.94873,4232.05127,4328.333496,4260.128418,4262.692383,4265.897461,4239.871582,4498.589844,4526.666504,4356.922852,4430.256348,0.0,0.0,11.0,,,,0.0,4.0,4.0,4.0,4.0,4.0,4.0,4.0,4.0,4.0,4.0,4.0,4.0,4.0,4.0,100.0,,,,,,,,,,,,,,,,,,,,,,,,,,,,,,,,,,,,,,,,,,,,,,,,,,,,,,,,,,,,,,,,,,,,,,,,,,,,,,,,,,,,,,,,,,,,,,,,,,,,,,,,,,,,,,,,,,,,,,,,,,,,,,,,,,,
1725717297.151614,1725717297.15314,66.0,0.0,4200.128418,4253.846191,4274.358887,4282.179688,4230.641113,4327.307617,4257.179688,4261.282227,4265.128418,4234.487305,4492.94873,4524.358887,4350.128418,4427.307617,0.0,0.0,11.0,,,,0.0,4.0,4.0,4.0,4.0,4.0,4.0,4.0,4.0,4.0,4.0,4.0,4.0,4.0,4.0,100.0,,,,,,,,,,,,,,,,,,,,,,,,,,,,,,,,,,,,,,,,,,,,,,,,,,,,,,,,,,,,,,,,,,,,,,,,,,,,,,,,,,,,,,,,,,,,,,,,,,,,,,,,,,,,,,,,,,,,,,,,,,,,,,,,,,,
1725717297.155518,1725717297.157044,67.0,0.0,4198.717773,4250.897461,4271.538574,4276.282227,4230.384766,4327.307617,4256.282227,4257.94873,4261.282227,4230.769043,4490.897461,4523.974121,4348.077148,4426.922852,0.0,0.0,11.0,,,,0.0,4.0,4.0,4.0,4.0,4.0,4.0,4.0,4.0,4.0,4.0,4.0,4.0,4.0,4.0,100.0,,,,,,,,,,,,,,,,,,,,,,,,,,,,,,,,,,,,,,,,,,,,,,,,,,,,,,,,,,,,,,,,,,,,,,,,,,,,,,,,,,,,,,,,,,,,,,,,,,,,,,,,,,,,,,,,,,,,,,,,,,,,,,,,,,,
1725717297.159422,1725717297.160848,68.0,0.0,4197.179688,4248.846191,4268.205078,4271.153809,4230.384766,4327.179688,4257.179688,4252.94873,4255.512695,4229.230957,4490.769043,4522.820313,4350.769043,4426.794922,0.0,0.0,11.0,,,,0.0,4.0,4.0,4.0,4.0,4.0,4.0,4.0,4.0,4.0,4.0,4.0,4.0,4.0,4.0,100.0,,,,,,,,,,,,,,,,,,,,,,,,,,,,,,,,,,,,,,,,,,,,,,,,,,,,,,,,0.0,0.0,1.0,0.0,2048.0,0.0,,,,,,,,,,,,,,,,,,,,,,,,,,,,,,,,,,,,,,,,,,,,,,,,,,,,,,,,,,,,,,,,,,,,,,
1725717297.163326,1725717297.164752,69.0,0.0,4193.974121,4246.282227,4265.128418,4267.307617,4230.128418,4326.538574,4258.846191,4248.461426,4250.384766,4229.358887,4487.820313,4519.743652,4353.589844,4424.358887,0.0,0.0,11.0,,,,0.0,4.0,4.0,4.0,4.0,4.0,4.0,4.0,4.0,4.0,4.0,4.0,4.0,4.0,4.0,100.0,,,,,,,,,,,,,,,,,,,,,,,,,,,,,,,,,,,,,,,,,,,,,,,,,,,,,,,,,,,,,,,,,,,,,,,,,,,,,,,,,,,,,,,,,,,,,,,,,,,,,,,,,,,,,,,,,,,,,,,,,,,,,,,,,,,
1725717297.16723,1725717297.168656,70.0,0.0,4189.102539,4242.05127,4263.077148,4264.871582,4229.358887,4325.128418,4260.641113,4246.666504,4248.846191,4230.128418,4480.512695,4516.282227,4351.282227,4419.358887,0.0,0.0,11.0,,,,0.0,4.0,4.0,4.0,4.0,4.0,4.0,4.0,4.0,4.0,4.0,4.0,4.0,4.0,4.0,100.0,,,,,,,,,,,,,,,,,,,,,,,,,,,,,,,,,,,,,,,,,,,,,,,,,,,,,,,,,,,,,,,,,,,,,,,,,,,,,,,,,,,,,,,,,,,,,,,,,,,,,,,,,,,,,,,,,,,,,,,,,,,,,,,,,,,
1725717297.171134,1725717297.172561,71.0,0.0,4184.102539,4236.794922,4262.307617,4263.846191,4228.589844,4323.461426,4262.05127,4248.205078,4252.179688,4230.897461,4472.820313,4514.487305,4342.563965,4413.589844,0.0,0.0,11.0,,,,0.0,4.0,4.0,4.0,4.0,4.0,4.0,4.0,4.0,4.0,4.0,4.0,4.0,4.0,4.0,100.0,,,,,,,,,,,,,,,,,,,,,,,,,,,,,,,,,,,,,,,,,,,,,,,,,,,,,,,,,,,,,,,,,,,,,,,,,,,,,,,,,,,,,,,,,,,,,,,,,,,,,,,,,,,,,,,,,,,,,,,,,,,,,,,,,,,
1725717297.175038,1725717297.176365,72.0,0.0,4181.282227,4232.692383,4262.179688,4264.358887,4227.94873,4322.307617,4263.077148,4251.410156,4258.205078,4231.153809,4471.025879,4515.256348,4332.179688,4410.0,0.0,0.0,11.0,,,,0.0,4.0,4.0,4.0,4.0,4.0,4.0,4.0,4.0,4.0,4.0,4.0,4.0,4.0,4.0,100.0,,,,,,,,,,,,,,,,,,,,,,,,,,,,,,,,,,,,,,,,,,,,,,,,,,,,,,,,,,,,,,,,,,,,,,,,,,,,,,,,,,,,,,,,,,,,,,,,,,,,,,,,,,,,,,,,,,,,,,,,,,,,,,,,,,,
1725717297.178942,1725717297.180269,73.0,0.0,4181.666504,4231.410156,4262.307617,4266.282227,4227.563965,4322.05127,4263.846191,4253.974121,4262.94873,4229.871582,4475.897461,4517.563965,4326.538574,4409.743652,0.0,0.0,11.0,,,,0.0,4.0,4.0,4.0,4.0,4.0,4.0,4.0,4.0,4.0,4.0,4.0,4.0,4.0,4.0,100.0,,,,,,,,,,,,,,,,,,,,,,,,,,,,,,,,,,,,,,,,,,,,,,,,,,,,,,,,,,,,,,,,,,,,,,,,,,,,,,,,,,,,,,,,,,,,,,,,,,,,,,,,,,,,,,,,,,,,,,,,,,,,,,,,,,,
1725717297.182846,1725717297.184173,74.0,0.0,4183.846191,4232.820313,4262.820313,4268.333496,4227.307617,4322.820313,4263.974121,4254.230957,4263.077148,4226.410156,4480.641113,4518.717773,4327.94873,4410.769043,0.0,0.0,11.0,,,,0.0,4.0,4.0,4.0,4.0,4.0,4.0,4.0,4.0,4.0,4.0,4.0,4.0,4.0,4.0,100.0,,,,,,,,,,,,,,,,,,,,,,,,,,,,,,,,,,,,,,,,,,,,,,,,,,,,,,,,,,,,,,,,,,,,,,,,,,,,,,,,,,,,,,,,,,,,,,,,,,,,,,,,,,,,,,,,,,,,,,,,,,,,,,,,,,,
1725717297.186751,1725717297.188077,75.0,0.0,4185.384766,4234.871582,4263.846191,4269.358887,4227.436035,4324.230957,4264.358887,4252.436035,4257.94873,4221.153809,4477.179688,4516.666504,4333.077148,4409.743652,0.0,0.0,11.0,,,,0.0,4.0,4.0,4.0,4.0,4.0,4.0,4.0,4.0,4.0,4.0,4.0,4.0,4.0,4.0,100.0,,,,,,,,,,,,,,,,,,,,,,,,,,,,,,,,,,,,,,,,,,,,,,,,,,,,,,,,,,,,,,,,,,,,,,,,,,,,,,,,,,,,,,,,,,,,,,,,,,,,,,,,,,,,,,,,,,,,,,,,,,,,,,,,,,,
1725717297.190655,1725717297.191881,76.0,0.0,4184.230957,4235.128418,4264.487305,4268.333496,4228.589844,4325.769043,4265.897461,4249.358887,4250.0,4215.641113,4463.589844,4511.410156,4336.282227,4404.871582,0.0,0.0,11.0,,,,0.0,4.0,4.0,4.0,4.0,4.0,4.0,4.0,4.0,4.0,4.0,4.0,4.0,4.0,4.0,100.0,,,,,,,,,,,,,,,,,,,,,,,,,,,,,,,,,,,,,,,,,,,,,,,,,,,,,,,,0.0,0.0,1.0,0.0,2048.0,0.0,,,,,,,,,,,,,,,,,,,,,,,,,,,,,,,,,,,,,,,,,,,,,,,,,,,,,,,,,,,,,,,,,,,,,,
1725717297.194559,1725717297.195785,77.0,0.0,4180.384766,4233.077148,4263.589844,4266.538574,4230.897461,4326.666504,4269.358887,4246.538574,4243.589844,4211.538574,4446.794922,4505.384766,4334.871582,4398.205078,0.0,0.0,11.0,,,,0.0,4.0,4.0,4.0,4.0,4.0,4.0,4.0,4.0,4.0,4.0,4.0,4.0,4.0,4.0,100.0,,,,,,,,,,,,,,,,,,,,,,,,,,,,,,,,,,,,,,,,,,,,,,,,,,,,,,,,,,,,,,,,,,,,,,,,,,,,,,,,,,,,,,,,,,,,,,,,,,,,,,,,,,,,,,,,,,,,,,,,,,,,,,,,,,,
1725717297.198463,1725717297.199689,78.0,0.0,4175.512695,4230.641113,4260.384766,4265.641113,4233.077148,4327.05127,4274.102539,4244.871582,4241.666504,4210.769043,4437.307617,4501.538574,4331.794922,4393.846191,0.0,0.0,11.0,,,,0.0,4.0,4.0,4.0,4.0,4.0,4.0,4.0,4.0,4.0,4.0,4.0,4.0,4.0,4.0,100.0,,,,,,,,,,,,,,,,,,,,,,,,,,,,,,,,,,,,,,,,,,,,,,,,,,,,,,,,,,,,,,,,,,,,,,,,,,,,,,,,,,,,,,,,,,,,,,,,,,,,,,,,,,,,,,,,,,,,,,,,,,,,,,,,,,,
1725717297.202367,1725717297.203594,79.0,0.0,4171.410156,4229.615234,4255.897461,4266.282227,4233.461426,4327.05127,4278.205078,4245.384766,4245.0,4214.230957,4441.410156,4501.410156,4331.538574,4394.358887,0.0,0.0,11.0,,,,0.0,4.0,4.0,4.0,4.0,4.0,4.0,4.0,4.0,4.0,4.0,4.0,4.0,4.0,4.0,100.0,,,,,,,,,,,,,,,,,,,,,,,,,,,,,,,,,,,,,,,,,,,,,,,,,,,,,,,,,,,,,,,,,,,,,,,,,,,,,,,,,,,,,,,,,,,,,,,,,,,,,,,,,,,,,,,,,,,,,,,,,,,,,,,,,,,
1725717297.206271,1725717297.207398,80.0,0.0,4168.205078,4230.512695,4251.410156,4266.538574,4231.538574,4327.05127,4280.128418,4248.077148,4250.641113,4220.128418,4455.512695,4503.589844,4335.256348,4398.461426,0.0,0.0,11.0,,,,0.0,4.0,4.0,4.0,4.0,4.0,4.0,4.0,4.0,4.0,4.0,4.0,4.0,4.0,4.0,100.0,,,,,,,,,,,,,,,,,,,,,,,,,,,,,,,,,,,,,,,,,,,,,,,,,,,,,,,,,,,,,,,,,,,,,,,,,,,,,,,,,,,,,,,,,,,,,,,,,,,,,,,,,,,,,,,,,,,,,,,,,,,,,,,,,,,
1725717297.210175,1725717297.211302,81.0,0.0,4166.153809,4231.538574,4248.205078,4264.487305,4228.461426,4327.179688,4279.871582,4251.153809,4254.615234,4224.615234,4469.358887,4505.512695,4339.358887,4402.307617,0.0,0.0,11.0,,,,0.0,4.0,4.0,4.0,4.0,4.0,4.0,4.0,4.0,4.0,4.0,4.0,4.0,4.0,4.0,100.0,,,,,,,,,,,,,,,,,,,,,,,,,,,,,,,,,,,,,,,,,,,,,,,,,,,,,,,,,,,,,,,,,,,,,,,,,,,,,,,,,,,,,,,,,,,,,,,,,,,,,,,,,,,,,,,,,,,,,,,,,,,,,,,,,,,
1725717297.214079,1725717297.215206,82.0,0.0,4165.769043,4230.512695,4246.410156,4260.897461,4226.153809,4327.179688,4279.230957,4251.794922,4253.846191,4224.102539,4472.94873,4505.897461,4339.230957,4403.589844,0.0,0.0,11.0,,,,0.0,4.0,4.0,4.0,4.0,4.0,4.0,4.0,4.0,4.0,4.0,4.0,4.0,4.0,4.0,100.0,,,,,,,,,,,,,,,,,,,,,,,,,,,,,,,,,,,,,,,,,,,,,,,,,,,,,,,,,,,,,,,,,,,,,,,,,,,,,,,,,,,,,,,,,,,,,,,,,,,,,,,,,,,,,,,,,,,,,,,,,,,,,,,,,,,
1725717297.217983,1725717297.21911,83.0,0.0,4167.94873,4227.307617,4245.769043,4259.487305,4225.897461,4326.794922,4280.769043,4248.205078,4248.589844,4217.820313,4465.0,4504.743652,4333.717773,4402.307617,0.0,0.0,11.0,,,,0.0,4.0,4.0,4.0,4.0,4.0,4.0,4.0,4.0,4.0,4.0,4.0,4.0,4.0,4.0,100.0,,,,,,,,,,,,,,,,,,,,,,,,,,,,,,,,,,,,,,,,,,,,,,,,,,,,,,,,,,,,,,,,,,,,,,,,,,,,,,,,,,,,,,,,,,,,,,,,,,,,,,,,,,,,,,,,,,,,,,,,,,,,,,,,,,,
1725717297.221887,1725717297.222914,84.0,0.0,4172.820313,4224.871582,4245.897461,4263.846191,4227.692383,4326.282227,4286.025879,4241.282227,4241.666504,4208.846191,4454.230957,4503.205078,4326.922852,4401.153809,0.0,0.0,11.0,,,,0.0,4.0,4.0,4.0,4.0,4.0,4.0,4.0,4.0,4.0,4.0,4.0,4.0,4.0,4.0,100.0,,,,,,,,,,,,,,,,,1.0,0.0,0.0,,,,,,,,,,,,,,,,,,,,,,,,,,,,,,,,,,,,,0.0,0.0,1.0,0.0,2048.0,0.0,1.682936,2.028111,0.579723,0.18796,0.072558,1.363131,2.198688,1.035483,0.270393,0.143813,1.336157,1.014275,0.606899,0.165894,0.054135,1.11121,1.369383,0.519331,0.208221,0.067437,0.554399,0.311694,0.269601,0.214345,0.092581,1.164595,0.560226,0.100257,0.14855,0.086887,1.411232,0.802937,0.431193,0.161347,0.078062,0.941582,2.79378,0.628272,0.544211,0.180032,1.22474,0.792981,0.991363,0.463679,0.133526,1.974589,1.144035,1.481254,0.482141,0.250862,2.698828,2.744528,1.712827,0.907883,0.443991,3.621158,3.152318,1.173149,0.388647,0.199845,3.02919,3.638594,1.890786,1.15849,0.361949,2.268871,2.725054,1.30364,0.60452,0.104974
1725717297.225792,1725717297.226818,85.0,0.0,4179.358887,4226.153809,4246.666504,4273.974121,4230.769043,4326.410156,4294.487305,4235.128418,4236.794922,4202.692383,4451.794922,4502.05127,4325.641113,4402.179688,0.0,0.0,11.0,,,,0.0,4.0,4.0,4.0,4.0,4.0,4.0,4.0,4.0,4.0,4.0,4.0,4.0,4.0,4.0,100.0,,,,,,,,,,,,,,,,,,,,,,,,,,,,,,,,,,,,,,,,,,,,,,,,,,,,,,,,,,,,,,,,,,,,,,,,,,,,,,,,,,,,,,,,,,,,,,,,,,,,,,,,,,,,,,,,,,,,,,,,,,,,,,,,,,,
1725717297.229696,1725717297.230722,86.0,0.0,4185.128418,4231.538574,4247.94873,4285.641113,4233.846191,4326.922852,4303.077148,4233.077148,4236.282227,4202.820313,4461.410156,4501.922852,4333.205078,4405.769043,0.0,0.0,11.0,,,,0.0,4.0,4.0,4.0,4.0,4.0,4.0,4.0,4.0,4.0,4.0,4.0,4.0,4.0,4.0,100.0,,,,,,,,,,,,,,,,,,,,,,,,,,,,,,,,,,,,,,,,,,,,,,,,,,,,,,,,,,,,,,,,,,,,,,,,,,,,,,,,,,,,,,,,,,,,,,,,,,,,,,,,,,,,,,,,,,,,,,,,,,,,,,,,,,,
1725717297.2336,1725717297.234726,87.0,0.0,4188.333496,4237.436035,4248.846191,4293.461426,4235.128418,4327.692383,4308.974121,4236.153809,4240.256348,4208.846191,4475.641113,4503.589844,4346.025879,4410.384766,0.0,0.0,11.0,,,,0.0,4.0,4.0,4.0,4.0,4.0,4.0,4.0,4.0,4.0,4.0,4.0,4.0,4.0,4.0,100.0,,,,,,,,,,,,,,,,,,,,,,,,,,,,,,,,,,,,,,,,,,,,,,,,,,,,,,,,,,,,,,,,,,,,,,,,,,,,,,,,,,,,,,,,,,,,,,,,,,,,,,,,,,,,,,,,,,,,,,,,,,,,,,,,,,,
1725717297.237504,1725717297.238631,88.0,0.0,4188.461426,4238.974121,4249.102539,4294.102539,4234.230957,4327.94873,4311.153809,4242.307617,4246.794922,4216.922852,4482.692383,4508.077148,4355.512695,4413.974121,0.0,0.0,11.0,,,,0.0,4.0,4.0,4.0,4.0,4.0,4.0,4.0,4.0,4.0,4.0,4.0,4.0,4.0,4.0,100.0,,,,,,,,,,,,,,,,,,,,,,,,,,,,,,,,,,,,,,,,,,,,,,,,,,,,,,,,,,,,,,,,,,,,,,,,,,,,,,,,,,,,,,,,,,,,,,,,,,,,,,,,,,,,,,,,,,,,,,,,,,,,,,,,,,,
1725717297.241408,1725717297.242535,89.0,0.0,4186.666504,4234.871582,4248.205078,4288.461426,4232.05127,4327.94873,4311.410156,4248.205078,4252.307617,4221.794922,4476.666504,4514.230957,4356.025879,4415.128418,0.0,0.0,11.0,,,,0.0,4.0,4.0,4.0,4.0,4.0,4.0,4.0,4.0,4.0,4.0,4.0,4.0,4.0,4.0,100.0,,,,,,,,,,,,,,,,,,,,,,,,,,,,,,,,,,,,,,,,,,,,,,,,,,,,,,,,,,,,,,,,,,,,,,,,,,,,,,,,,,,,,,,,,,,,,,,,,,,,,,,,,,,,,,,,,,,,,,,,,,,,,,,,,,,
1725717297.245312,1725717297.246539,90.0,0.0,4184.743652,4227.692383,4246.666504,4281.025879,4230.641113,4327.94873,4312.563965,4250.641113,4254.230957,4221.282227,4462.563965,4518.717773,4349.871582,4414.487305,0.0,0.0,11.0,,,,0.0,4.0,4.0,4.0,4.0,4.0,4.0,4.0,4.0,4.0,4.0,4.0,4.0,4.0,4.0,100.0,,,,,,,,,,,,,,,,,,,,,,,,,,,,,,,,,,,,,,,,,,,,,,,,,,,,,,,,,,,,,,,,,,,,,,,,,,,,,,,,,,,,,,,,,,,,,,,,,,,,,,,,,,,,,,,,,,,,,,,,,,,,,,,,,,,
1725717297.249216,1725717297.250443,91.0,0.0,4184.230957,4222.436035,4245.384766,4276.282227,4230.769043,4328.717773,4316.538574,4249.102539,4252.179688,4217.179688,4452.05127,4517.94873,4344.487305,4413.333496,0.0,0.0,11.0,,,,0.0,4.0,4.0,4.0,4.0,4.0,4.0,4.0,4.0,4.0,4.0,4.0,4.0,4.0,4.0,100.0,,,,,,,,,,,,,,,,,,,,,,,,,,,,,,,,,,,,,,,,,,,,,,,,,,,,,,,,,,,,,,,,,,,,,,,,,,,,,,,,,,,,,,,,,,,,,,,,,,,,,,,,,,,,,,,,,,,,,,,,,,,,,,,,,,,
1725717297.25312,1725717297.254347,92.0,0.0,4185.256348,4222.820313,4244.743652,4276.794922,4232.05127,4330.641113,4322.692383,4245.769043,4248.461426,4213.333496,4452.563965,4512.179688,4345.641113,4412.94873,0.0,0.0,11.0,,,,0.0,4.0,4.0,4.0,4.0,4.0,4.0,4.0,4.0,4.0,4.0,4.0,4.0,4.0,4.0,100.0,,,,,,,,,,,,,,,,,,,,,,,,,,,,,,,,,,,,,,,,,,,,,,,,,,,,,,,,0.0,0.0,1.0,0.0,2048.0,0.0,,,,,,,,,,,,,,,,,,,,,,,,,,,,,,,,,,,,,,,,,,,,,,,,,,,,,,,,,,,,,,,,,,,,,,
1725717297.257024,1725717297.258251,93.0,0.0,4186.538574,4228.333496,4244.743652,4281.282227,4233.205078,4333.589844,4329.102539,4243.974121,4246.538574,4212.94873,4462.94873,4505.769043,4352.436035,4413.717773,0.0,0.0,11.0,,,,0.0,4.0,4.0,4.0,4.0,4.0,4.0,4.0,4.0,4.0,4.0,4.0,4.0,4.0,4.0,100.0,,,,,,,,,,,,,,,,,,,,,,,,,,,,,,,,,,,,,,,,,,,,,,,,,,,,,,,,,,,,,,,,,,,,,,,,,,,,,,,,,,,,,,,,,,,,,,,,,,,,,,,,,,,,,,,,,,,,,,,,,,,,,,,,,,,
1725717297.260929,1725717297.262155,94.0,0.0,4187.179688,4234.871582,4245.128418,4286.794922,4233.205078,4337.179688,4333.974121,4245.384766,4248.717773,4216.282227,4474.743652,4503.974121,4358.589844,4414.358887,0.0,0.0,11.0,,,,0.0,4.0,4.0,4.0,4.0,4.0,4.0,4.0,4.0,4.0,4.0,4.0,4.0,4.0,4.0,100.0,,,,,,,,,,,,,,,,,,,,,,,,,,,,,,,,,,,,,,,,,,,,,,,,,,,,,,,,,,,,,,,,,,,,,,,,,,,,,,,,,,,,,,,,,,,,,,,,,,,,,,,,,,,,,,,,,,,,,,,,,,,,,,,,,,,
1725717297.264833,1725717297.265959,95.0,0.0,4186.794922,4238.333496,4245.384766,4290.897461,4232.563965,4340.512695,4337.05127,4248.717773,4253.717773,4220.384766,4480.256348,4508.205078,4358.846191,4413.974121,0.0,0.0,11.0,,,,0.0,4.0,4.0,4.0,4.0,4.0,4.0,4.0,4.0,4.0,4.0,4.0,4.0,4.0,4.0,100.0,,,,,,,,,,,,,,,,,,,,,,,,,,,,,,,,,,,,,,,,,,,,,,,,,,,,,,,,,,,,,,,,,,,,,,,,,,,,,,,,,,,,,,,,,,,,,,,,,,,,,,,,,,,,,,,,,,,,,,,,,,,,,,,,,,,
1725717297.268737,1725717297.269863,96.0,0.0,4186.282227,4236.666504,4245.897461,4293.846191,4232.692383,4342.820313,4339.615234,4251.666504,4258.589844,4222.179688,4478.333496,4516.025879,4353.333496,4412.692383,0.0,0.0,11.0,,,,0.0,4.0,4.0,4.0,4.0,4.0,4.0,4.0,4.0,4.0,4.0,4.0,4.0,4.0,4.0,100.0,,,,,,,,,,,,,,,,,,,,,,,,,,,,,,,,,,,,,,,,,,,,,,,,,,,,,,,,,,,,,,,,,,,,,,,,,,,,,,,,,,,,,,,,,,,,,,,,,,,,,,,,,,,,,,,,,,,,,,,,,,,,,,,,,,,
1725717297.272641,1725717297.273768,97.0,0.0,4186.153809,4231.410156,4246.794922,4296.538574,4233.974121,4343.717773,4342.94873,4252.436035,4260.512695,4221.538574,4474.102539,4522.307617,4347.307617,4411.922852,0.0,0.0,11.0,,,,0.0,4.0,4.0,4.0,4.0,4.0,4.0,4.0,4.0,4.0,4.0,4.0,4.0,4.0,4.0,100.0,,,,,,,,,,,,,,,,,,,,,,,,,,,,,,,,,,,,,,,,,,,,,,,,,,,,,,,,,,,,,,,,,,,,,,,,,,,,,,,,,,,,,,,,,,,,,,,,,,,,,,,,,,,,,,,,,,,,,,,,,,,,,,,,,,,
1725717297.276545,1725717297.277672,98.0,0.0,4185.769043,4226.922852,4247.307617,4298.846191,4235.512695,4343.717773,4347.179688,4251.538574,4259.743652,4220.641113,4473.333496,4523.589844,4345.384766,4412.94873,0.0,0.0,11.0,,,,0.0,4.0,4.0,4.0,4.0,4.0,4.0,4.0,4.0,4.0,4.0,4.0,4.0,4.0,4.0,100.0,,,,,,,,,,,,,,,,,,,,,,,,,,,,,,,,,,,,,,,,,,,,,,,,,,,,,,,,,,,,,,,,,,,,,,,,,,,,,,,,,,,,,,,,,,,,,,,,,,,,,,,,,,,,,,,,,,,,,,,,,,,,,,,,,,,
1725717297.280449,1725717297.281476,99.0,0.0,4183.846191,4226.282227,4246.282227,4299.487305,4236.282227,4343.589844,4351.282227,4250.641113,4259.102539,4221.794922,4476.794922,4519.615234,4348.205078,4414.743652,0.0,0.0,11.0,,,,0.0,4.0,4.0,4.0,4.0,4.0,4.0,4.0,4.0,4.0,4.0,4.0,4.0,4.0,4.0,100.0,,,,,,,,,,,,,,,,,,,,,,,,,,,,,,,,,,,,,,,,,,,,,,,,,,,,,,,,,,,,,,,,,,,,,,,,,,,,,,,,,,,,,,,,,,,,,,,,,,,,,,,,,,,,,,,,,,,,,,,,,,,,,,,,,,,
1725717297.284353,1725717297.28538,100.0,0.0,4179.871582,4229.230957,4242.94873,4297.179688,4236.025879,4343.333496,4354.358887,4250.769043,4260.128418,4224.487305,4480.128418,4513.205078,4351.538574,4414.743652,0.0,0.0,11.0,,,,0.0,4.0,4.0,4.0,4.0,4.0,4.0,4.0,4.0,4.0,4.0,4.0,4.0,4.0,4.0,100.0,,,,,,,,,,,,,,,,,,,,,,,,,,,,,,,,,,,,,,,,,,,,,,,,,,,,,,,,0.0,0.0,1.0,0.0,2048.0,0.0,,,,,,,,,,,,,,,,,,,,,,,,,,,,,,,,,,,,,,,,,,,,,,,,,,,,,,,,,,,,,,,,,,,,,,
1725717297.288257,1725717297.289284,101.0,0.0,4174.615234,4232.563965,4238.205078,4293.461426,4235.256348,4342.820313,4356.153809,4251.025879,4261.922852,4226.153809,4478.333496,4507.692383,4351.666504,4411.025879,0.0,0.0,11.0,,,,0.0,4.0,4.0,4.0,4.0,4.0,4.0,4.0,4.0,4.0,4.0,4.0,4.0,4.0,4.0,100.0,,,,,,,,,,,,,,,,,,,,,,,,,,,,,,,,,,,,,,,,,,,,,,,,,,,,,,,,,,,,,,,,,,,,,,,,,,,,,,,,,,,,,,,,,,,,,,,,,,,,,,,,,,,,,,,,,,,,,,,,,,,,,,,,,,,
1725717297.292161,1725717297.293188,102.0,0.0,4170.0,4232.820313,4233.589844,4291.666504,4234.615234,4342.05127,4357.436035,4250.256348,4261.922852,4224.743652,4471.922852,4505.384766,4347.692383,4404.230957,0.0,0.0,11.0,,,,0.0,4.0,4.0,4.0,4.0,4.0,4.0,4.0,4.0,4.0,4.0,4.0,4.0,4.0,4.0,100.0,,,,,,,,,,,,,,,,,,,,,,,,,,,,,,,,,,,,,,,,,,,,,,,,,,,,,,,,,,,,,,,,,,,,,,,,,,,,,,,,,,,,,,,,,,,,,,,,,,,,,,,,,,,,,,,,,,,,,,,,,,,,,,,,,,,
1725717297.296065,1725717297.296992,103.0,0.0,4167.563965,4229.358887,4231.025879,4293.589844,4234.230957,4341.794922,4359.743652,4248.974121,4259.743652,4221.153809,4465.384766,4506.282227,4342.563965,4397.820313,0.0,0.0,11.0,,,,0.0,4.0,4.0,4.0,4.0,4.0,4.0,4.0,4.0,4.0,4.0,4.0,4.0,4.0,4.0,100.0,,,,,,,,,,,,,,,,,,,,,,,,,,,,,,,,,,,,,,,,,,,,,,,,,,,,,,,,,,,,,,,,,,,,,,,,,,,,,,,,,,,,,,,,,,,,,,,,,,,,,,,,,,,,,,,,,,,,,,,,,,,,,,,,,,,
1725717297.299969,1725717297.300896,104.0,0.0,4167.94873,4224.230957,4231.153809,4297.563965,4234.615234,4342.436035,4362.94873,4249.230957,4256.794922,4217.307617,4462.563965,4508.846191,4339.871582,4395.512695,0.0,0.0,11.0,,,,0.0,4.0,4.0,4.0,4.0,4.0,4.0,4.0,4.0,4.0,4.0,4.0,4.0,4.0,4.0,100.0,,,,,,,,,,,,,,,,,,,,,,,,,,,,,,,,,,,,,,,,,,,,,,,,,,,,,,,,,,,,,,,,,,,,,,,,,,,,,,,,,,,,,,,,,,,,,,,,,,,,,,,,,,,,,,,,,,,,,,,,,,,,,,,,,,,
1725717297.303873,1725717297.304801,105.0,0.0,4170.256348,4220.256348,4233.589844,4300.0,4235.512695,4343.846191,4366.282227,4251.410156,4254.487305,4214.743652,4462.307617,4511.538574,4339.871582,4397.94873,0.0,0.0,11.0,,,,0.0,4.0,4.0,4.0,4.0,4.0,4.0,4.0,4.0,4.0,4.0,4.0,4.0,4.0,4.0,100.0,,,,,,,,,,,,,,,,,,,,,,,,,,,,,,,,,,,,,,,,,,,,,,,,,,,,,,,,,,,,,,,,,,,,,,,,,,,,,,,,,,,,,,,,,,,,,,,,,,,,,,,,,,,,,,,,,,,,,,,,,,,,,,,,,,,
1725717297.307778,1725717297.308705,106.0,0.0,4172.563965,4217.94873,4236.410156,4298.077148,4235.897461,4344.230957,4368.205078,4252.820313,4251.922852,4212.307617,4459.358887,4512.563965,4339.230957,4401.282227,0.0,0.0,11.0,,,,0.0,4.0,4.0,4.0,4.0,4.0,4.0,4.0,4.0,4.0,4.0,4.0,4.0,4.0,4.0,100.0,,,,,,,,,,,,,,,,,,,,,,,,,,,,,,,,,,,,,,,,,,,,,,,,,,,,,,,,,,,,,,,,,,,,,,,,,,,,,,,,,,,,,,,,,,,,,,,,,,,,,,,,,,,,,,,,,,,,,,,,,,,,,,,,,,,
1725717297.311682,1725717297.312509,107.0,0.0,4171.410156,4215.512695,4236.922852,4291.410156,4234.743652,4340.769043,4367.820313,4249.743652,4246.538574,4207.307617,4450.256348,4509.743652,4333.077148,4400.384766,0.0,0.0,11.0,,,,0.0,4.0,4.0,4.0,4.0,4.0,4.0,4.0,4.0,4.0,4.0,4.0,4.0,4.0,4.0,100.0,,,,,,,,,,,,,,,,,,,,,,,,,,,,,,,,,,,,,,,,,,,,,,,,,,,,,,,,,,,,,,,,,,,,,,,,,,,,,,,,,,,,,,,,,,,,,,,,,,,,,,,,,,,,,,,,,,,,,,,,,,,,,,,,,,,
1725717297.315586,1725717297.316413,108.0,0.0,4165.384766,4211.410156,4233.077148,4282.563965,4231.538574,4332.05127,4365.512695,4240.641113,4237.563965,4198.589844,4436.922852,4501.666504,4320.0,4392.179688,0.0,0.0,11.0,,,,0.0,4.0,4.0,4.0,4.0,4.0,4.0,4.0,4.0,4.0,4.0,4.0,4.0,4.0,4.0,100.0,,,,,,,,,,,,,,,,,,,,,,,,,,,,,,,,,,,,,,,,,,,,,,,,,,,,,,,,0.0,0.0,1.0,0.0,2048.0,0.0,,,,,,,,,,,,,,,,,,,,,,,,,,,,,,,,,,,,,,,,,,,,,,,,,,,,,,,,,,,,,,,,,,,,,,
1725717297.31949,1725717297.320317,109.0,0.0,4155.641113,4205.256348,4225.512695,4275.128418,4227.307617,4318.717773,4362.820313,4228.333496,4226.794922,4188.205078,4425.897461,4489.230957,4303.974121,4378.589844,0.0,0.0,11.0,,,,0.0,4.0,4.0,4.0,4.0,4.0,4.0,4.0,4.0,4.0,4.0,4.0,4.0,4.0,4.0,100.0,,,,,,,,,,,,,,,,,,,,,,,,,,,,,,,,,,,,,,,,,,,,,,,,,,,,,,,,,,,,,,,,,,,,,,,,,,,,,,,,,,,,,,,,,,,,,,,,,,,,,,,,,,,,,,,,,,,,,,,,,,,,,,,,,,,
1725717297.323394,1725717297.324321,110.0,0.0,4146.666504,4198.717773,4217.94873,4272.307617,4222.820313,4304.871582,4361.538574,4218.461426,4218.333496,4180.128418,4421.538574,4476.410156,4291.153809,4366.025879,0.0,0.0,11.0,,,,0.0,4.0,4.0,4.0,4.0,4.0,4.0,4.0,4.0,4.0,4.0,4.0,4.0,4.0,4.0,100.0,,,,,,,,,,,,,,,,,,,,,,,,,,,,,,,,,,,,,,,,,,,,,,,,,,,,,,,,,,,,,,,,,,,,,,,,,,,,,,,,,,,,,,,,,,,,,,,,,,,,,,,,,,,,,,,,,,,,,,,,,,,,,,,,,,,
1725717297.327298,1725717297.328225,111.0,0.0,4142.179688,4193.846191,4213.974121,4274.102539,4218.846191,4295.128418,4362.563965,4215.641113,4215.128418,4177.563965,4422.436035,4468.077148,4285.897461,4359.743652,0.0,0.0,11.0,,,,0.0,4.0,4.0,4.0,4.0,4.0,4.0,4.0,4.0,4.0,4.0,4.0,4.0,4.0,4.0,100.0,,,,,,,,,,,,,,,,,,,,,,,,,,,,,,,,,,,,,,,,,,,,,,,,,,,,,,,,,,,,,,,,,,,,,,,,,,,,,,,,,,,,,,,,,,,,,,,,,,,,,,,,,,,,,,,,,,,,,,,,,,,,,,,,,,,
1725717297.331202,1725717297.332129,112.0,0.0,4142.94873,4192.179688,4214.358887,4277.563965,4215.897461,4292.05127,4365.769043,4220.0,4217.820313,4179.615234,4423.205078,4467.05127,4287.94873,4360.256348,0.0,0.0,11.0,,,,0.0,4.0,4.0,4.0,4.0,4.0,4.0,4.0,4.0,4.0,4.0,4.0,4.0,4.0,4.0,100.0,,,,,,,,,,,,,,,,,,,,,,,,,,,,,,,,,,,,,,,,,,,,,,,,,,,,,,,,,,,,,,,,,,,,,,,,,,,,,,,,,,,,,,,,,,,,,,,,,,,,,,,,,,,,,,,,,,,,,,,,,,,,,,,,,,,
1725717297.335106,1725717297.336033,113.0,0.0,4146.282227,4193.077148,4217.692383,4278.589844,4214.487305,4294.871582,4369.871582,4227.436035,4224.615234,4183.974121,4420.641113,4471.666504,4293.974121,4364.615234,0.0,0.0,11.0,,,,0.0,4.0,4.0,4.0,4.0,4.0,4.0,4.0,4.0,4.0,4.0,4.0,4.0,4.0,4.0,100.0,,,,,,,,,,,,,,,,,,,,,,,,,,,,,,,,,,,,,,,,,,,,,,,,,,,,,,,,,,,,,,,,,,,,,,,,,,,,,,,,,,,,,,,,,,,,,,,,,,,,,,,,,,,,,,,,,,,,,,,,,,,,,,,,,,,
1725717297.33901,1725717297.340037,114.0,0.0,4149.102539,4195.256348,4221.794922,4276.922852,4215.0,4300.512695,4373.846191,4233.077148,4232.692383,4189.230957,4417.307617,4478.333496,4300.641113,4369.487305,0.0,0.0,11.0,,,,0.0,4.0,4.0,4.0,4.0,4.0,4.0,4.0,4.0,4.0,4.0,4.0,4.0,4.0,4.0,100.0,,,,,,,,,,,,,,,,,,,,,,,,,,,,,,,,,,,,,,,,,,,,,,,,,,,,,,,,,,,,,,,,,,,,,,,,,,,,,,,,,,,,,,,,,,,,,,,,,,,,,,,,,,,,,,,,,,,,,,,,,,,,,,,,,,,
1725717297.342914,1725717297.343941,115.0,0.0,4150.769043,4197.563965,4225.769043,4275.641113,4217.179688,4305.897461,4377.05127,4235.641113,4240.512695,4195.897461,4419.230957,4484.487305,4306.410156,4374.102539,0.0,0.0,11.0,,,,0.0,4.0,4.0,4.0,4.0,4.0,4.0,4.0,4.0,4.0,4.0,4.0,4.0,4.0,4.0,100.0,,,,,,,,,,,,,,,,,,,,,,,,,,,,,,,,,,,,,,,,,,,,,,,,,,,,,,,,,,,,,,,,,,,,,,,,,,,,,,,,,,,,,,,,,,,,,,,,,,,,,,,,,,,,,,,,,,,,,,,,,,,,,,,,,,,
1725717297.346819,1725717297.347846,116.0,0.0,4153.205078,4200.769043,4229.743652,4279.615234,4220.384766,4309.487305,4379.871582,4237.563965,4247.820313,4205.256348,4430.641113,4490.384766,4311.794922,4380.512695,0.0,0.0,11.0,,,,0.0,4.0,4.0,4.0,4.0,4.0,4.0,4.0,4.0,4.0,4.0,4.0,4.0,4.0,4.0,100.0,,,,,,,,,,,,,,,,,1.0,0.0,0.0,,,,,,,,,,,,,,,,,,,,,,,,,,,,,,,,,,,,,0.0,0.0,1.0,0.0,128.0,0.0,1.890024,2.159115,0.600987,0.205924,0.082671,1.453643,2.306684,1.077548,0.271841,0.138001,1.620381,0.980328,0.592761,0.173505,0.056524,1.223818,1.425896,0.510863,0.204021,0.063983,0.766915,0.341325,0.277584,0.199036,0.087131,0.93681,0.528236,0.081105,0.148624,0.080834,1.608664,0.826034,0.450644,0.157599,0.078458,0.914063,2.147274,0.643634,0.555026,0.183088,1.282427,0.620901,1.03295,0.507959,0.138117,1.93896,1.078312,1.537591,0.507818,0.247422,2.758028,2.874788,1.629587,0.938191,0.414371,3.860062,2.385498,1.270054,0.392538,0.213759,2.928747,3.87246,1.946203,1.274762,0.33979,2.453455,2.65586,1.34253,0.672667,0.116443
1725717297.350723,1725717297.35185,117.0,0.0,4158.974121,4206.410156,4234.615234,4290.256348,4223.717773,4311.794922,4383.589844,4241.794922,4255.0,4217.05127,4449.743652,4497.94873,4318.461426,4390.512695,0.0,0.0,11.0,,,,0.0,4.0,4.0,4.0,4.0,4.0,4.0,4.0,4.0,4.0,4.0,4.0,4.0,4.0,4.0,100.0,,,,,,,,,,,,,,,,,,,,,,,,,,,,,,,,,,,,,,,,,,,,,,,,,,,,,,,,,,,,,,,,,,,,,,,,,,,,,,,,,,,,,,,,,,,,,,,,,,,,,,,,,,,,,,,,,,,,,,,,,,,,,,,,,,,
1725717297.354627,1725717297.355754,118.0,0.0,4168.846191,4215.384766,4240.769043,4304.615234,4227.179688,4313.974121,4388.974121,4248.974121,4262.05127,4228.717773,4469.230957,4508.205078,4327.692383,4403.077148,0.0,0.0,11.0,,,,0.0,4.0,4.0,4.0,4.0,4.0,4.0,4.0,4.0,4.0,4.0,4.0,4.0,4.0,4.0,100.0,,,,,,,,,,,,,,,,,,,,,,,,,,,,,,,,,,,,,,,,,,,,,,,,,,,,,,,,,,,,,,,,,,,,,,,,,,,,,,,,,,,,,,,,,,,,,,,,,,,,,,,,,,,,,,,,,,,,,,,,,,,,,,,,,,,
1725717297.358531,1725717297.359658,119.0,0.0,4180.0,4226.025879,4247.94873,4317.436035,4232.05127,4316.794922,4395.897461,4256.410156,4268.077148,4236.538574,4481.410156,4519.615234,4339.358887,4414.871582,0.0,0.0,11.0,,,,0.0,4.0,4.0,4.0,4.0,4.0,4.0,4.0,4.0,4.0,4.0,4.0,4.0,4.0,4.0,100.0,,,,,,,,,,,,,,,,,,,,,,,,,,,,,,,,,,,,,,,,,,,,,,,,,,,,,,,,,,,,,,,,,,,,,,,,,,,,,,,,,,,,,,,,,,,,,,,,,,,,,,,,,,,,,,,,,,,,,,,,,,,,,,,,,,,
1725717297.362435,1725717297.363562,120.0,0.0,4188.717773,4234.487305,4254.102539,4324.871582,4238.717773,4320.641113,4403.077148,4260.0,4271.153809,4238.974121,4483.461426,4528.717773,4350.897461,4422.307617,0.0,0.0,11.0,,,,0.0,4.0,4.0,4.0,4.0,4.0,4.0,4.0,4.0,4.0,4.0,4.0,4.0,4.0,4.0,100.0,,,,,,,,,,,,,,,,,,,,,,,,,,,,,,,,,,,,,,,,,,,,,,,,,,,,,,,,,,,,,,,,,,,,,,,,,,,,,,,,,,,,,,,,,,,,,,,,,,,,,,,,,,,,,,,,,,,,,,,,,,,,,,,,,,,
1725717297.366339,1725717297.367466,121.0,0.0,4191.922852,4237.692383,4257.436035,4326.282227,4245.512695,4324.487305,4408.846191,4258.077148,4269.487305,4237.179688,4478.461426,4531.666504,4358.205078,4423.846191,0.0,0.0,11.0,,,,0.0,4.0,4.0,4.0,4.0,4.0,4.0,4.0,4.0,4.0,4.0,4.0,4.0,4.0,4.0,100.0,,,,,,,,,,,,,,,,,,,,,,,,,,,,,,,,,,,,,,,,,,,,,,,,,,,,,,,,,,,,,,,,,,,,,,,,,,,,,,,,,,,,,,,,,,,,,,,,,,,,,,,,,,,,,,,,,,,,,,,,,,,,,,,,,,,
1725717297.370243,1725717297.37127,122.0,0.0,4190.256348,4236.153809,4257.94873,4324.102539,4248.974121,4327.05127,4412.05127,4252.436035,4263.589844,4233.974121,4472.436035,4527.94873,4357.307617,4420.641113,0.0,0.0,11.0,,,,0.0,4.0,4.0,4.0,4.0,4.0,4.0,4.0,4.0,4.0,4.0,4.0,4.0,4.0,4.0,100.0,,,,,,,,,,,,,,,,,,,,,,,,,,,,,,,,,,,,,,,,,,,,,,,,,,,,,,,,,,,,,,,,,,,,,,,,,,,,,,,,,,,,,,,,,,,,,,,,,,,,,,,,,,,,,,,,,,,,,,,,,,,,,,,,,,,
1725717297.374147,1725717297.375174,123.0,0.0,4186.538574,4232.820313,4257.05127,4321.282227,4247.436035,4327.307617,4412.820313,4246.922852,4255.769043,4232.05127,4469.358887,4521.025879,4348.717773,4415.641113,0.0,0.0,11.0,,,,0.0,4.0,4.0,4.0,4.0,4.0,4.0,4.0,4.0,4.0,4.0,4.0,4.0,4.0,4.0,100.0,,,,,,,,,,,,,,,,,,,,,,,,,,,,,,,,,,,,,,,,,,,,,,,,,,,,,,,,,,,,,,,,,,,,,,,,,,,,,,,,,,,,,,,,,,,,,,,,,,,,,,,,,,,,,,,,,,,,,,,,,,,,,,,,,,,
1725717297.378051,1725717297.379078,124.0,0.0,4184.102539,4230.769043,4256.794922,4319.487305,4242.307617,4325.0,4411.794922,4244.487305,4249.615234,4232.05127,4470.128418,4515.384766,4337.436035,4412.179688,0.0,0.0,11.0,,,,0.0,4.0,4.0,4.0,4.0,4.0,4.0,4.0,4.0,4.0,4.0,4.0,4.0,4.0,4.0,100.0,,,,,,,,,,,,,,,,,,,,,,,,,,,,,,,,,,,,,,,,,,,,,,,,,,,,,,,,0.0,0.0,1.0,0.0,128.0,0.0,,,,,,,,,,,,,,,,,,,,,,,,,,,,,,,,,,,,,,,,,,,,,,,,,,,,,,,,,,,,,,,,,,,,,,
1725717297.381956,1725717297.382983,125.0,0.0,4184.487305,4231.153809,4257.692383,4319.487305,4236.922852,4321.282227,4410.512695,4245.128418,4247.820313,4233.333496,4473.461426,4514.230957,4330.512695,4411.794922,0.0,0.0,11.0,,,,0.0,4.0,4.0,4.0,4.0,4.0,4.0,4.0,4.0,4.0,4.0,4.0,4.0,4.0,4.0,100.0,,,,,,,,,,,,,,,,,,,,,,,,,,,,,,,,,,,,,,,,,,,,,,,,,,,,,,,,,,,,,,,,,,,,,,,,,,,,,,,,,,,,,,,,,,,,,,,,,,,,,,,,,,,,,,,,,,,,,,,,,,,,,,,,,,,
1725717297.38586,1725717297.386987,126.0,0.0,4187.436035,4232.820313,4258.333496,4321.410156,4234.743652,4317.94873,4410.384766,4246.922852,4251.410156,4234.487305,4477.307617,4517.179688,4331.410156,4414.487305,0.0,0.0,11.0,,,,0.0,4.0,4.0,4.0,4.0,4.0,4.0,4.0,4.0,4.0,4.0,4.0,4.0,4.0,4.0,100.0,,,,,,,,,,,,,,,,,,,,,,,,,,,,,,,,,,,,,,,,,,,,,,,,,,,,,,,,,,,,,,,,,,,,,,,,,,,,,,,,,,,,,,,,,,,,,,,,,,,,,,,,,,,,,,,,,,,,,,,,,,,,,,,,,,,
1725717297.389764,1725717297.390891,127.0,0.0,4190.897461,4233.974121,4257.436035,4324.358887,4236.794922,4316.282227,4412.436035,4248.846191,4258.461426,4234.871582,4479.487305,4522.436035,4338.846191,4419.102539,0.0,0.0,11.0,,,,0.0,4.0,4.0,4.0,4.0,4.0,4.0,4.0,4.0,4.0,4.0,4.0,4.0,4.0,4.0,100.0,,,,,,,,,,,,,,,,,,,,,,,,,,,,,,,,,,,,,,,,,,,,,,,,,,,,,,,,,,,,,,,,,,,,,,,,,,,,,,,,,,,,,,,,,,,,,,,,,,,,,,,,,,,,,,,,,,,,,,,,,,,,,,,,,,,
1725717297.393668,1725717297.394795,128.0,0.0,4193.846191,4234.102539,4255.897461,4327.436035,4242.05127,4316.794922,4416.922852,4250.641113,4265.384766,4234.743652,4479.358887,4527.692383,4347.692383,4423.846191,2685.0,0.0,11.0,,,,0.0,4.0,4.0,4.0,4.0,4.0,4.0,4.0,4.0,4.0,4.0,4.0,4.0,4.0,4.0,100.0,,,,,,,,,,,,,,,,,,,,,,,,,,,,,,,,,,,,,,,,,,,,,,,,,,,,,,,,,,,,,,,,,,,,,,,,,,,,,,,,,,,,,,,,,,,,,,,,,,,,,,,,,,,,,,,,,,,,,,,,,,,,,,,,,,,
1725717297.397572,1725717297.398699,129.0,0.0,4195.384766,4234.487305,4255.512695,4330.128418,4247.692383,4318.717773,4422.436035,4252.179688,4267.436035,4234.743652,4478.333496,4530.512695,4352.307617,4426.410156,2576.0,0.0,11.0,,,,0.0,4.0,4.0,4.0,4.0,4.0,4.0,4.0,4.0,4.0,4.0,4.0,4.0,4.0,4.0,100.0,,,,,,,,,,,,,,,,,,,,,,,,,,,,,,,,,,,,,,,,,,,,,,,,,,,,,,,,,,,,,,,,,,,,,,,,,,,,,,,,,,,,,,,,,,,,,,,,,,,,,,,,,,,,,,,,,,,,,,,,,,,,,,,,,,,
1725717297.401476,1725717297.402503,130.0,0.0,4195.256348,4237.436035,4257.436035,4332.05127,4250.384766,4320.384766,4427.436035,4252.563965,4262.179688,4234.871582,4478.205078,4528.717773,4350.512695,4425.769043,2501.0,0.0,11.0,,,,0.0,4.0,4.0,4.0,4.0,4.0,4.0,4.0,4.0,4.0,4.0,4.0,4.0,4.0,4.0,100.0,,,,,,,,,,,,,,,,,,,,,,,,,,,,,,,,,,,,,,,,,,,,,,,,,,,,,,,,,,,,,,,,,,,,,,,,,,,,,,,,,,,,,,,,,,,,,,,,,,,,,,,,,,,,,,,,,,,,,,,,,,,,,,,,,,,
1725717297.40538,1725717297.406407,131.0,0.0,4192.820313,4243.205078,4260.384766,4332.436035,4249.487305,4320.256348,4430.512695,4250.897461,4252.179688,4234.358887,4478.461426,4522.307617,4344.230957,4421.922852,2474.0,0.0,11.0,,,,0.0,4.0,4.0,4.0,4.0,4.0,4.0,4.0,4.0,4.0,4.0,4.0,4.0,4.0,4.0,100.0,,,,,,,,,,,,,,,,,,,,,,,,,,,,,,,,,,,,,,,,,,,,,,,,,,,,,,,,,,,,,,,,,,,,,,,,,,,,,,,,,,,,,,,,,,,,,,,,,,,,,,,,,,,,,,,,,,,,,,,,,,,,,,,,,,,
1725717297.409284,1725717297.410311,132.0,0.0,4188.846191,4248.846191,4262.179688,4330.512695,4246.538574,4318.717773,4431.666504,4247.563965,4243.974121,4232.436035,4476.538574,4514.102539,4338.205078,4417.05127,2443.0,0.0,11.0,,,,0.0,4.0,4.0,4.0,4.0,4.0,4.0,4.0,4.0,4.0,4.0,4.0,4.0,4.0,4.0,100.0,,,,,,,,,,,,,,,,,,,,,,,,,,,,,,,,,,,,,,,,,,,,,,,,,,,,,,,,0.0,0.0,1.0,0.0,128.0,0.0,,,,,,,,,,,,,,,,,,,,,,,,,,,,,,,,,,,,,,,,,,,,,,,,,,,,,,,,,,,,,,,,,,,,,,
1725717297.413188,1725717297.414215,133.0,0.0,4185.0,4250.897461,4261.410156,4327.179688,4244.230957,4317.692383,4432.05127,4244.743652,4242.563965,4229.358887,4471.282227,4508.589844,4336.666504,4413.974121,2398.0,0.0,11.0,,,,0.0,4.0,4.0,4.0,4.0,4.0,4.0,4.0,4.0,4.0,4.0,4.0,4.0,4.0,4.0,100.0,,,,,,,,,,,,,,,,,,,,,,,,,,,,,,,,,,,,,,,,,,,,,,,,,,,,,,,,,,,,,,,,,,,,,,,,,,,,,,,,,,,,,,,,,,,,,,,,,,,,,,,,,,,,,,,,,,,,,,,,,,,,,,,,,,,
1725717297.417092,1725717297.41802,134.0,0.0,4183.333496,4247.692383,4258.205078,4324.230957,4243.974121,4319.102539,4433.461426,4244.487305,4247.307617,4225.897461,4464.358887,4508.717773,4340.128418,4413.974121,2423.0,0.0,11.0,,,,0.0,4.0,4.0,4.0,4.0,4.0,4.0,4.0,4.0,4.0,4.0,4.0,4.0,4.0,4.0,100.0,,,,,,,,,,,,,,,,,,,,,,,,,,,,,,,,,,,,,,,,,,,,,,,,,,,,,,,,,,,,,,,,,,,,,,,,,,,,,,,,,,,,,,,,,,,,,,,,,,,,,,,,,,,,,,,,,,,,,,,,,,,,,,,,,,,
1725717297.420997,1725717297.421924,135.0,0.0,4184.358887,4240.897461,4253.846191,4323.461426,4245.128418,4322.820313,4436.794922,4246.794922,4252.05127,4222.563965,4459.358887,4513.974121,4344.871582,4416.025879,2493.0,0.0,11.0,,,,0.0,4.0,4.0,4.0,4.0,4.0,4.0,4.0,4.0,4.0,4.0,4.0,4.0,4.0,4.0,100.0,,,,,,,,,,,,,,,,,,,,,,,,,,,,,,,,,,,,,,,,,,,,,,,,,,,,,,,,,,,,,,,,,,,,,,,,,,,,,,,,,,,,,,,,,,,,,,,,,,,,,,,,,,,,,,,,,,,,,,,,,,,,,,,,,,,
1725717297.424901,1725717297.425828,136.0,0.0,4186.794922,4234.102539,4249.871582,4324.871582,4246.538574,4326.538574,4441.282227,4249.230957,4251.025879,4219.358887,4459.230957,4520.512695,4346.410156,4417.307617,2456.0,0.0,11.0,,,,0.0,4.0,4.0,4.0,4.0,4.0,4.0,4.0,4.0,4.0,4.0,4.0,4.0,4.0,4.0,100.0,,,,,,,,,,,,,,,,,,,,,,,,,,,,,,,,,,,,,,,,,,,,,,,,,,,,,,,,,,,,,,,,,,,,,,,,,,,,,,,,,,,,,,,,,,,,,,,,,,,,,,,,,,,,,,,,,,,,,,,,,,,,,,,,,,,
1725717297.428805,1725717297.429832,137.0,0.0,4188.589844,4230.512695,4248.205078,4327.05127,4247.563965,4327.563965,4445.256348,4249.743652,4243.717773,4216.666504,4463.717773,4523.589844,4343.974121,4416.666504,2545.0,0.0,11.0,,,,0.0,4.0,4.0,4.0,4.0,4.0,4.0,4.0,4.0,4.0,4.0,4.0,4.0,4.0,4.0,100.0,,,,,,,,,,,,,,,,,,,,,,,,,,,,,,,,,,,,,,,,,,,,,,,,,,,,,,,,,,,,,,,,,,,,,,,,,,,,,,,,,,,,,,,,,,,,,,,,,,,,,,,,,,,,,,,,,,,,,,,,,,,,,,,,,,,
1725717297.432709,1725717297.433736,138.0,0.0,4188.974121,4230.897461,4250.128418,4328.589844,4248.461426,4324.615234,4447.179688,4247.692383,4235.384766,4216.025879,4470.769043,4520.769043,4340.128418,4414.615234,2887.0,0.0,11.0,,,,0.0,4.0,4.0,4.0,4.0,4.0,4.0,4.0,4.0,4.0,4.0,4.0,4.0,4.0,4.0,100.0,,,,,,,,,,,,,,,,,,,,,,,,,,,,,,,,,,,,,,,,,,,,,,,,,,,,,,,,,,,,,,,,,,,,,,,,,,,,,,,,,,,,,,,,,,,,,,,,,,,,,,,,,,,,,,,,,,,,,,,,,,,,,,,,,,,
1725717297.436613,1725717297.43764,139.0,0.0,4188.205078,4233.589844,4254.358887,4328.717773,4249.487305,4318.846191,4446.794922,4244.743652,4232.05127,4219.102539,4477.05127,4513.205078,4338.974121,4413.589844,3106.0,0.0,11.0,,,,0.0,4.0,4.0,4.0,4.0,4.0,4.0,4.0,4.0,4.0,4.0,4.0,4.0,4.0,4.0,100.0,,,,,,,,,,,,,,,,,,,,,,,,,,,,,,,,,,,,,,,,,,,,,,,,,,,,,,,,,,,,,,,,,,,,,,,,,,,,,,,,,,,,,,,,,,,,,,,,,,,,,,,,,,,,,,,,,,,,,,,,,,,,,,,,,,,
1725717297.440517,1725717297.441544,140.0,0.0,4187.307617,4236.025879,4257.94873,4327.436035,4249.871582,4313.205078,4445.0,4242.820313,4235.769043,4226.410156,4481.025879,4505.256348,4341.666504,4414.358887,3396.0,0.0,11.0,,,,0.0,4.0,4.0,4.0,4.0,4.0,4.0,4.0,4.0,4.0,4.0,4.0,4.0,4.0,4.0,100.0,,,,,,,,,,,,,,,,,,,,,,,,,,,,,,,,,,,,,,,,,,,,,,,,,,,,,,,,0.0,0.0,1.0,0.0,128.0,0.0,,,,,,,,,,,,,,,,,,,,,,,,,,,,,,,,,,,,,,,,,,,,,,,,,,,,,,,,,,,,,,,,,,,,,,
1725717297.444421,1725717297.445548,141.0,0.0,4186.922852,4236.794922,4258.717773,4325.512695,4248.717773,4310.512695,4443.846191,4243.333496,4243.205078,4235.641113,4483.589844,4501.410156,4345.769043,4416.410156,3841.0,0.0,11.0,,,,0.0,4.0,4.0,4.0,4.0,4.0,4.0,4.0,4.0,4.0,4.0,4.0,4.0,4.0,4.0,100.0,,,,,,,,,,,,,,,,,,,,,,,,,,,,,,,,,,,,,,,,,,,,,,,,,,,,,,,,,,,,,,,,,,,,,,,,,,,,,,,,,,,,,,,,,,,,,,,,,,,,,,,,,,,,,,,,,,,,,,,,,,,,,,,,,,,
1725717297.448325,1725717297.449452,142.0,0.0,4187.436035,4236.153809,4256.410156,4323.846191,4246.410156,4311.922852,4445.128418,4245.897461,4249.487305,4242.820313,4486.538574,4503.974121,4347.692383,4418.077148,2887.0,0.0,11.0,,,,0.0,4.0,4.0,4.0,4.0,4.0,4.0,4.0,4.0,4.0,4.0,4.0,4.0,4.0,4.0,100.0,,,,,,,,,,,,,,,,,,,,,,,,,,,,,,,,,,,,,,,,,,,,,,,,,,,,,,,,,,,,,,,,,,,,,,,,,,,,,,,,,,,,,,,,,,,,,,,,,,,,,,,,,,,,,,,,,,,,,,,,,,,,,,,,,,,
