Timestamp,OriginalTimestamp,EEG.Counter,EEG.Interpolated,EEG.AF3,EEG.F7,EEG.F3,EEG.FC5,EEG.T7,EEG.P7,EEG.O1,EEG.O2,EEG.P8,EEG.T8,EEG.FC6,EEG.F4,EEG.F8,EEG.AF4,EEG.RawCq,EEG.Battery,EEG.BatteryPercent,MarkerIndex,MarkerType,MarkerValueInt,EEG.MarkerHardware,CQ.AF3,CQ.F7,CQ.F3,CQ.FC5,CQ.T7,CQ.P7,CQ.O1,CQ.O2,CQ.P8,CQ.T8,CQ.FC6,CQ.F4,CQ.F8,CQ.AF4,CQ.Overall,EQ.SampleRateQuality,EQ.OVERALL,EQ.AF3,EQ.F7,EQ.F3,EQ.FC5,EQ.T7,EQ.P7,EQ.O1,EQ.O2,EQ.P8,EQ.T8,EQ.FC6,EQ.F4,EQ.F8,EQ.AF4,MC.Action,MC.ActionPower,MC.IsActive,PM.Attention.IsActive,PM.Attention.Scaled,PM.Attention.Raw,PM.Attention.Min,PM.Attention.Max,PM.Engagement.IsActive,PM.Engagement.Scaled,PM.Engagement.Raw,PM.Engagement.Min,PM.Engagement.Max,PM.Excitement.IsActive,PM.Excitement.Scaled,PM.Excitement.Raw,PM.Excitement.Min,PM.Excitement.Max,PM.LongTermExcitement,PM.Stress.IsActive,PM.Stress.Scaled,PM.Stress.Raw,PM.Stress.Min,PM.Stress.Max,PM.Relaxation.IsActive,PM.Relaxation.Scaled,PM.Relaxation.Raw,PM.Relaxation.Min,PM.Relaxation.Max,PM.Interest.IsActive,PM.Interest.Scaled,PM.Interest.Raw,PM.Interest.Min,PM.Interest.Max,PM.Focus.IsActive,PM.Focus.Scaled,PM.Focus.Raw,PM.Focus.Min,PM.Focus.Max,FE.BlinkWink,FE.HorizontalEyesDirection,FE.UpperFaceAction,FE.UpperFaceActionPower,FE.LowerFaceAction,FE.LowerFaceActionPower,POW.AF3.Theta,POW.AF3.Alpha,POW.AF3.BetaL,POW.AF3.BetaH,POW.AF3.Gamma,POW.F7.Theta,POW.F7.Alpha,POW.F7.BetaL,POW.F7.BetaH,POW.F7.Gamma,POW.F3.Theta,POW.F3.Alpha,POW.F3.BetaL,POW.F3.BetaH,POW.F3.Gamma,POW.FC5.Theta,POW.FC5.Alpha,POW.FC5.BetaL,POW.FC5.BetaH,POW.FC5.Gamma,POW.T7.Theta,POW.T7.Alpha,POW.T7.BetaL,POW.T7.BetaH,POW.T7.Gamma,POW.P7.Theta,POW.P7.Alpha,POW.P7.BetaL,POW.P7.BetaH,POW.P7.Gamma,POW.O1.Theta,POW.O1.Alpha,POW.O1.BetaL,POW.O1.BetaH,POW.O1.Gamma,POW.O2.Theta,POW.O2.Alpha,POW.O2.BetaL,POW.O2.BetaH,POW.O2.Gamma,POW.P8.Theta,POW.P8.Alpha,POW.P8.BetaL,POW.P8.BetaH,POW.P8.Gamma,POW.T8.Theta,POW.T8.Alpha,POW.T8.BetaL,POW.T8.BetaH,POW.T8.Gamma,POW.FC6.Theta,POW.FC6.Alpha,POW.FC6.BetaL,POW.FC6.BetaH,POW.FC6.Gamma,POW.F4.Theta,POW.F4.Alpha,POW.F4.BetaL,POW.F4.BetaH,POW.F4.Gamma,POW.F8.Theta,POW.F8.Alpha,POW.F8.BetaL,POW.F8.BetaH,POW.F8.Gamma,POW.AF4.Theta,POW.AF4.Alpha,POW.AF4.BetaL,POW.AF4.BetaH,POW.AF4.Gamma
1725710417.959593,1725710417.960768,188.0,0.0,4266.025879,4266.025879,4267.820313,4300.128418,4216.282227,4237.307617,4289.871582,4244.230957,4273.717773,4214.743652,4565.512695,4531.922852,4405.897461,4465.256348,3436.0,1.0,15.0,13.0,1.0,1.0,0.0,4.0,4.0,4.0,4.0,4.0,4.0,4.0,4.0,4.0,4.0,4.0,4.0,4.0,4.0,100.0,,,,,,,,,,,,,,,,,,,,,,,,,,,,,,,,,,,,,,,,,,,,,,,,,,,,,,,,,,,,,,,,,,,,,,,,,,,,,,,,,,,,,,,,,,,,,,,,,,,,,,,,,,,,,,,,,,,,,,,,,,,,,,,,,,,
1725710417.963497,1725710417.964672,189.0,0.0,4266.025879,4265.0,4269.487305,4302.179688,4216.410156,4240.769043,4285.256348,4238.846191,4270.384766,4208.846191,4565.0,4531.025879,4401.538574,4462.436035,3934.0,1.0,15.0,,,,0.0,4.0,4.0,4.0,4.0,4.0,4.0,4.0,4.0,4.0,4.0,4.0,4.0,4.0,4.0,100.0,,,,,,,,,,,,,,,,,,,,,,,,,,,,,,,,,,,,,,,,,,,,,,,,,,,,,,,,,,,,,,,,,,,,,,,,,,,,,,,,,,,,,,,,,,,,,,,,,,,,,,,,,,,,,,,,,,,,,,,,,,,,,,,,,,,
1725710417.967401,1725710417.968476,190.0,0.0,4264.102539,4263.717773,4271.282227,4302.94873,4216.794922,4242.692383,4280.769043,4234.230957,4266.410156,4204.230957,4559.102539,4528.205078,4396.153809,4457.94873,2910.0,1.0,15.0,,,,0.0,4.0,4.0,4.0,4.0,4.0,4.0,4.0,4.0,4.0,4.0,4.0,4.0,4.0,4.0,100.0,,,,,,,,,,,,,,,,,,,,,,,,,,,,,,,,,,,,,,,,,,,,,,,,,,,,,,,,,,,,,,,,,,,,,,,,,,,,,,,,,,,,,,,,,,,,,,,,,,,,,,,,,,,,,,,,,,,,,,,,,,,,,,,,,,,
1725710417.971305,1725710417.97238,191.0,0.0,4262.05127,4261.922852,4272.94873,4301.666504,4217.307617,4242.179688,4277.563965,4232.563965,4263.974121,4203.589844,4550.769043,4525.128418,4392.94873,4455.384766,3142.0,1.0,15.0,,,,0.0,4.0,4.0,4.0,4.0,4.0,4.0,4.0,4.0,4.0,4.0,4.0,4.0,4.0,4.0,100.0,,,,,,,,,,,,,,,,,,,,,,,,,,,,,,,,,,,,,,,,,,,,,,,,,,,,,,,,,,,,,,,,,,,,,,,,,,,,,,,,,,,,,,,,,,,,,,,,,,,,,,,,,,,,,,,,,,,,,,,,,,,,,,,,,,,
1725710417.975209,1725710417.976284,192.0,0.0,4260.769043,4259.102539,4273.846191,4298.333496,4217.436035,4239.743652,4274.615234,4233.461426,4263.846191,4206.025879,4543.974121,4523.974121,4392.692383,4455.897461,3436.0,1.0,15.0,,,,0.0,4.0,4.0,4.0,4.0,4.0,4.0,4.0,4.0,4.0,4.0,4.0,4.0,4.0,4.0,100.0,,,,,,,,,,,,,,,,,,,,,,,,,,,,,,,,,,,,,,,,,,,,,,,,,,,,,,,,0.0,0.0,1.0,0.0,1.0,0.0,,,,,,,,,,,,,,,,,,,,,,,,,,,,,,,,,,,,,,,,,,,,,,,,,,,,,,,,,,,,,,,,,,,,,,
1725710417.979113,1725710417.980188,193.0,0.0,4260.256348,4255.256348,4274.102539,4294.871582,4217.307617,4236.153809,4270.384766,4235.128418,4264.743652,4207.94873,4540.641113,4525.256348,4394.615234,4458.589844,3934.0,1.0,15.0,,,,0.0,4.0,4.0,4.0,4.0,4.0,4.0,4.0,4.0,4.0,4.0,4.0,4.0,4.0,4.0,100.0,,,,,,,,,,,,,,,,,,,,,,,,,,,,,,,,,,,,,,,,,,,,,,,,,,,,,,,,,,,,,,,,,,,,,,,,,,,,,,,,,,,,,,,,,,,,,,,,,,,,,,,,,,,,,,,,,,,,,,,,,,,,,,,,,,,
1725710417.983018,1725710417.983993,194.0,0.0,4260.384766,4251.922852,4274.487305,4294.102539,4216.922852,4232.820313,4265.256348,4236.025879,4265.256348,4206.794922,4539.743652,4526.666504,4395.641113,4460.512695,2910.0,1.0,15.0,,,,0.0,4.0,4.0,4.0,4.0,4.0,4.0,4.0,4.0,4.0,4.0,4.0,4.0,4.0,4.0,100.0,,,,,,,,,,,,,,,,,,,,,,,,,,,,,,,,,,,,,,,,,,,,,,,,,,,,,,,,,,,,,,,,,,,,,,,,,,,,,,,,,,,,,,,,,,,,,,,,,,,,,,,,,,,,,,,,,,,,,,,,,,,,,,,,,,,
1725710417.986922,1725710417.987897,195.0,0.0,4261.025879,4250.769043,4275.512695,4297.563965,4216.794922,4231.666504,4261.922852,4236.153809,4265.0,4203.077148,4538.974121,4525.256348,4393.846191,4459.487305,3142.0,1.0,15.0,,,,0.0,4.0,4.0,4.0,4.0,4.0,4.0,4.0,4.0,4.0,4.0,4.0,4.0,4.0,4.0,100.0,,,,,,,,,,,,,,,,,,,,,,,,,,,,,,,,,,,,,,,,,,,,,,,,,,,,,,,,,,,,,,,,,,,,,,,,,,,,,,,,,,,,,,,,,,,,,,,,,,,,,,,,,,,,,,,,,,,,,,,,,,,,,,,,,,,
1725710417.990826,1725710417.991801,196.0,0.0,4262.307617,4252.436035,4276.922852,4303.846191,4217.179688,4233.589844,4262.820313,4236.153809,4264.230957,4199.230957,4537.307617,4520.0,4388.974121,4455.641113,3436.0,1.0,15.0,,,,0.0,4.0,4.0,4.0,4.0,4.0,4.0,4.0,4.0,4.0,4.0,4.0,4.0,4.0,4.0,100.0,,,,,,,,,,,,,,,,,,,,,,,,,,,,,,,,,,,,,,,,,,,,,,,,,,,,,,,,,,,,,,,,,,,,,,,,,,,,,,,,,,,,,,,,,,,,,,,,,,,,,,,,,,,,,,,,,,,,,,,,,,,,,,,,,,,
1725710417.99473,1725710417.995705,197.0,0.0,4263.717773,4256.794922,4277.563965,4309.230957,4217.692383,4238.077148,4267.563965,4236.025879,4263.589844,4197.05127,4535.897461,4512.692383,4382.692383,4450.512695,3934.0,1.0,15.0,,,,0.0,4.0,4.0,4.0,4.0,4.0,4.0,4.0,4.0,4.0,4.0,4.0,4.0,4.0,4.0,100.0,,,,,,,,,,,,,,,,,,,,,,,,,,,,,,,,,,,,,,,,,,,,,,,,,,,,,,,,,,,,,,,,,,,,,,,,,,,,,,,,,,,,,,,,,,,,,,,,,,,,,,,,,,,,,,,,,,,,,,,,,,,,,,,,,,,
1725710417.998634,1725710417.999509,198.0,0.0,4264.487305,4262.05127,4276.025879,4310.384766,4218.077148,4242.563965,4272.820313,4234.358887,4262.94873,4196.538574,4535.641113,4506.538574,4377.179688,4446.410156,2910.0,1.0,15.0,,,,0.0,4.0,4.0,4.0,4.0,4.0,4.0,4.0,4.0,4.0,4.0,4.0,4.0,4.0,4.0,100.0,,,,,,,,,,,,,,,,,,,,,,,,,,,,,,,,,,,,,,,,,,,,,,,,,,,,,,,,,,,,,,,,,,,,,,,,,,,,,,,,,,,,,,,,,,,,,,,,,,,,,,,,,,,,,,,,,,,,,,,,,,,,,,,,,,,
1725710418.002538,1725710418.003413,199.0,0.0,4263.717773,4265.769043,4272.563965,4306.666504,4217.94873,4244.487305,4274.487305,4230.128418,4261.922852,4196.794922,4536.538574,4503.717773,4373.846191,4444.358887,3142.0,1.0,15.0,,,,0.0,4.0,4.0,4.0,4.0,4.0,4.0,4.0,4.0,4.0,4.0,4.0,4.0,4.0,4.0,100.0,,,,,,,,,,,,,,,,,,,,,,,,,,,,,,,,,,,,,,,,,,,,,,,,,,,,,,,,,,,,,,,,,,,,,,,,,,,,,,,,,,,,,,,,,,,,,,,,,,,,,,,,,,,,,,,,,,,,,,,,,,,,,,,,,,,
1725710418.006442,1725710418.007317,200.0,0.0,4261.153809,4265.897461,4268.333496,4300.256348,4217.563965,4243.333496,4271.282227,4224.615234,4259.871582,4196.922852,4537.436035,4503.974121,4373.333496,4444.102539,3436.0,1.0,15.0,,,,0.0,4.0,4.0,4.0,4.0,4.0,4.0,4.0,4.0,4.0,4.0,4.0,4.0,4.0,4.0,100.0,,,,,,,,,,,,,,,,,,,,,,,,,,,,,,,,,,,,,,,,,,,,,,,,,,,,,,,,0.0,0.0,1.0,0.0,1.0,0.0,,,,,,,,,,,,,,,,,,,,,,,,,,,,,,,,,,,,,,,,,,,,,,,,,,,,,,,,,,,,,,,,,,,,,,
1725710418.010346,1725710418.011122,201.0,0.0,4257.436035,4262.179688,4265.128418,4294.487305,4217.307617,4240.256348,4265.641113,4220.641113,4257.563965,4196.666504,4537.820313,4505.641113,4374.871582,4444.230957,3934.0,1.0,15.0,,,,0.0,4.0,4.0,4.0,4.0,4.0,4.0,4.0,4.0,4.0,4.0,4.0,4.0,4.0,4.0,100.0,,,,,,,,,,,,,,,,,,,,,,,,,,,,,,,,,,,,,,,,,,,,,,,,,,,,,,,,,,,,,,,,,,,,,,,,,,,,,,,,,,,,,,,,,,,,,,,,,,,,,,,,,,,,,,,,,,,,,,,,,,,,,,,,,,,
1725710418.01425,1725710418.015026,202.0,0.0,4253.461426,4256.025879,4264.102539,4291.666504,4217.179688,4236.794922,4261.410156,4220.897461,4256.666504,4196.153809,4537.563965,4506.794922,4377.820313,4443.717773,2910.0,1.0,15.0,,,,0.0,4.0,4.0,4.0,4.0,4.0,4.0,4.0,4.0,4.0,4.0,4.0,4.0,4.0,4.0,100.0,,,,,,,,,,,,,,,,,,,,,,,,,,,,,,,,,,,,,,,,,,,,,,,,,,,,,,,,,,,,,,,,,,,,,,,,,,,,,,,,,,,,,,,,,,,,,,,,,,,,,,,,,,,,,,,,,,,,,,,,,,,,,,,,,,,
1725710418.018155,1725710418.01893,203.0,0.0,4249.743652,4250.384766,4264.871582,4292.307617,4217.436035,4234.102539,4260.897461,4225.0,4257.94873,4196.153809,4537.692383,4506.666504,4380.769043,4442.692383,3142.0,1.0,15.0,,,,0.0,4.0,4.0,4.0,4.0,4.0,4.0,4.0,4.0,4.0,4.0,4.0,4.0,4.0,4.0,100.0,,,,,,,,,,,,,,,,,,,,,,,,,,,,,,,,,,,,,,,,,,,,,,,,,,,,,,,,,,,,,,,,,,,,,,,,,,,,,,,,,,,,,,,,,,,,,,,,,,,,,,,,,,,,,,,,,,,,,,,,,,,,,,,,,,,
1725710418.022059,1725710418.022934,204.0,0.0,4247.05127,4247.692383,4266.410156,4295.128418,4217.563965,4233.077148,4263.333496,4230.256348,4260.641113,4196.794922,4538.205078,4505.641113,4382.692383,4441.922852,3436.0,1.0,15.0,,,,0.0,4.0,4.0,4.0,4.0,4.0,4.0,4.0,4.0,4.0,4.0,4.0,4.0,4.0,4.0,100.0,,,,,,,,,,,,,,,,,,,,,,,,,,,,,,,,,,,,,,,,,,,,,,,,,,,,,,,,,,,,,,,,,,,,,,,,,,,,,,,,,,,,,,,,,,,,,,,,,,,,,,,,,,,,,,,,,,,,,,,,,,,,,,,,,,,
1725710418.025963,1725710418.026838,205.0,0.0,4245.897461,4248.974121,4267.179688,4298.077148,4217.436035,4234.230957,4266.153809,4232.820313,4262.94873,4197.436035,4538.461426,4504.487305,4383.205078,4442.179688,3934.0,1.0,15.0,,,,0.0,4.0,4.0,4.0,4.0,4.0,4.0,4.0,4.0,4.0,4.0,4.0,4.0,4.0,4.0,100.0,,,,,,,,,,,,,,,,,,,,,,,,,,,,,,,,,,,,,,,,,,,,,,,,,,,,,,,,,,,,,,,,,,,,,,,,,,,,,,,,,,,,,,,,,,,,,,,,,,,,,,,,,,,,,,,,,,,,,,,,,,,,,,,,,,,
1725710418.029867,1725710418.030742,206.0,0.0,4246.794922,4253.717773,4266.922852,4299.230957,4217.05127,4236.794922,4266.922852,4230.897461,4263.461426,4198.077148,4537.307617,4503.717773,4382.307617,4443.205078,2910.0,1.0,15.0,,,,0.0,4.0,4.0,4.0,4.0,4.0,4.0,4.0,4.0,4.0,4.0,4.0,4.0,4.0,4.0,100.0,,,,,,,,,,,,,,,,,,,,,,,,,,,,,,,,,,,,,,,,,,,,,,,,,,,,,,,,,,,,,,,,,,,,,,,,,,,,,,,,,,,,,,,,,,,,,,,,,,,,,,,,,,,,,,,,,,,,,,,,,,,,,,,,,,,
1725710418.033771,1725710418.034646,207.0,0.0,4248.846191,4260.0,4265.512695,4298.333496,4216.922852,4239.743652,4265.256348,4226.538574,4262.05127,4199.102539,4535.384766,4503.974121,4381.153809,4443.846191,3142.0,1.0,15.0,,,,0.0,4.0,4.0,4.0,4.0,4.0,4.0,4.0,4.0,4.0,4.0,4.0,4.0,4.0,4.0,100.0,,,,,,,,,,,,,,,,,,,,,,,,,,,,,,,,,,,,,,,,,,,,,,,,,,,,,,,,,,,,,,,,,,,,,,,,,,,,,,,,,,,,,,,,,,,,,,,,,,,,,,,,,,,,,,,,,,,,,,,,,,,,,,,,,,,
1725710418.037675,1725710418.03865,208.0,0.0,4251.282227,4265.0,4264.102539,4296.538574,4217.692383,4242.307617,4262.436035,4223.717773,4259.871582,4201.025879,4533.974121,4505.128418,4380.897461,4443.846191,3436.0,1.0,15.0,,,,0.0,4.0,4.0,4.0,4.0,4.0,4.0,4.0,4.0,4.0,4.0,4.0,4.0,4.0,4.0,100.0,,,,,,,,,,,,,,,,,1.0,0.0,0.0,,,,,,,,,,,,,,,,,,,,,,,,,,,,,,,,,,,,,0.0,0.0,1.0,0.0,1.0,0.0,1.391582,0.927996,0.462876,0.325818,0.079991,1.059392,1.378388,0.344577,0.47211,0.152741,1.589231,0.930622,0.159723,0.162681,0.053175,0.968045,1.652211,0.194886,0.453719,0.180733,0.21771,0.409369,0.235527,0.095085,0.022461,0.055404,0.42662,0.121178,0.044311,0.036808,2.983521,1.873877,0.368761,0.152866,0.161295,1.053035,2.915018,0.890229,0.377656,0.106572,0.757941,1.164534,0.182034,0.237944,0.110048,1.168785,1.383596,0.249212,0.20776,0.136018,2.817597,2.279786,0.659244,0.736713,0.322579,3.925482,3.062541,0.452798,0.617449,0.138262,2.666955,2.649067,0.537312,0.303312,0.148021,3.088521,2.685573,0.668542,0.307908,0.103206
1725710418.041579,1725710418.042554,209.0,0.0,4252.692383,4267.05127,4263.717773,4295.512695,4218.846191,4244.358887,4260.128418,4225.0,4258.974121,4202.94873,4535.0,4506.538574,4382.436035,4443.205078,3934.0,1.0,15.0,,,,0.0,4.0,4.0,4.0,4.0,4.0,4.0,4.0,4.0,4.0,4.0,4.0,4.0,4.0,4.0,100.0,,,,,,,,,,,,,,,,,,,,,,,,,,,,,,,,,,,,,,,,,,,,,,,,,,,,,,,,,,,,,,,,,,,,,,,,,,,,,,,,,,,,,,,,,,,,,,,,,,,,,,,,,,,,,,,,,,,,,,,,,,,,,,,,,,,
1725710418.045483,1725710418.046458,210.0,0.0,4252.692383,4266.025879,4265.256348,4295.0,4219.871582,4245.897461,4259.871582,4229.102539,4260.256348,4204.102539,4539.358887,4507.436035,4385.128418,4442.692383,2910.0,1.0,15.0,,,,0.0,4.0,4.0,4.0,4.0,4.0,4.0,4.0,4.0,4.0,4.0,4.0,4.0,4.0,4.0,100.0,,,,,,,,,,,,,,,,,,,,,,,,,,,,,,,,,,,,,,,,,,,,,,,,,,,,,,,,,,,,,,,,,,,,,,,,,,,,,,,,,,,,,,,,,,,,,,,,,,,,,,,,,,,,,,,,,,,,,,,,,,,,,,,,,,,
1725710418.049387,1725710418.050362,211.0,0.0,4251.538574,4263.333496,4268.717773,4294.743652,4219.615234,4246.538574,4260.897461,4232.307617,4262.94873,4204.358887,4546.410156,4507.563965,4387.563965,4443.077148,3142.0,1.0,15.0,,,,0.0,4.0,4.0,4.0,4.0,4.0,4.0,4.0,4.0,4.0,4.0,4.0,4.0,4.0,4.0,100.0,,,,,,,,,,,,,,,,,,,,,,,,,,,,,,,,,,,,,,,,,,,,,,,,,,,,,,,,,,,,,,,,,,,,,,,,,,,,,,,,,,,,,,,,,,,,,,,,,,,,,,,,,,,,,,,,,,,,,,,,,,,,,,,,,,,
1725710418.053291,1725710418.054366,212.0,0.0,4251.153809,4261.153809,4272.94873,4295.256348,4218.717773,4246.282227,4261.666504,4231.538574,4264.487305,4204.358887,4553.461426,4507.94873,4388.589844,4444.871582,3436.0,1.0,15.0,,,,0.0,4.0,4.0,4.0,4.0,4.0,4.0,4.0,4.0,4.0,4.0,4.0,4.0,4.0,4.0,100.0,,,,,,,,,,,,,,,,,,,,,,,,,,,,,,,,,,,,,,,,,,,,,,,,,,,,,,,,,,,,,,,,,,,,,,,,,,,,,,,,,,,,,,,,,,,,,,,,,,,,,,,,,,,,,,,,,,,,,,,,,,,,,,,,,,,
1725710418.057196,1725710418.058271,213.0,0.0,4252.94873,4260.512695,4276.538574,4298.333496,4218.333496,4245.769043,4260.769043,4227.179688,4262.94873,4204.358887,4557.436035,4509.230957,4388.461426,4448.461426,3934.0,1.0,15.0,,,,0.0,4.0,4.0,4.0,4.0,4.0,4.0,4.0,4.0,4.0,4.0,4.0,4.0,4.0,4.0,100.0,,,,,,,,,,,,,,,,,,,,,,,,,,,,,,,,,,,,,,,,,,,,,,,,,,,,,,,,,,,,,,,,,,,,,,,,,,,,,,,,,,,,,,,,,,,,,,,,,,,,,,,,,,,,,,,,,,,,,,,,,,,,,,,,,,,
1725710418.0611,1725710418.062175,214.0,0.0,4256.666504,4261.153809,4278.461426,4304.230957,4220.0,4246.282227,4257.820313,4222.436035,4258.333496,4204.487305,4556.666504,4511.282227,4388.333496,4452.820313,2910.0,1.0,15.0,,,,0.0,4.0,4.0,4.0,4.0,4.0,4.0,4.0,4.0,4.0,4.0,4.0,4.0,4.0,4.0,100.0,,,,,,,,,,,,,,,,,,,,,,,,,,,,,,,,,,,,,,,,,,,,,,,,,,,,,,,,,,,,,,,,,,,,,,,,,,,,,,,,,,,,,,,,,,,,,,,,,,,,,,,,,,,,,,,,,,,,,,,,,,,,,,,,,,,
1725710418.065004,1725710418.066079,215.0,0.0,4260.512695,4262.436035,4278.589844,4310.128418,4223.846191,4247.692383,4254.230957,4220.512695,4253.461426,4204.615234,4552.307617,4513.333496,4389.102539,4456.410156,3142.0,1.0,15.0,,,,0.0,4.0,4.0,4.0,4.0,4.0,4.0,4.0,4.0,4.0,4.0,4.0,4.0,4.0,4.0,100.0,,,,,,,,,,,,,,,,,,,,,,,,,,,,,,,,,,,,,,,,,,,,,,,,,,,,,,,,,,,,,,,,,,,,,,,,,,,,,,,,,,,,,,,,,,,,,,,,,,,,,,,,,,,,,,,,,,,,,,,,,,,,,,,,,,,
1725710418.068908,1725710418.069983,216.0,0.0,4262.436035,4263.846191,4277.94873,4312.692383,4228.589844,4249.102539,4251.794922,4222.05127,4250.384766,4204.615234,4546.794922,4514.358887,4390.897461,4458.077148,3436.0,1.0,15.0,,,,0.0,4.0,4.0,4.0,4.0,4.0,4.0,4.0,4.0,4.0,4.0,4.0,4.0,4.0,4.0,100.0,,,,,,,,,,,,,,,,,,,,,,,,,,,,,,,,,,,,,,,,,,,,,,,,,,,,,,,,0.0,0.0,1.0,0.0,1.0,0.0,,,,,,,,,,,,,,,,,,,,,,,,,,,,,,,,,,,,,,,,,,,,,,,,,,,,,,,,,,,,,,,,,,,,,,
1725710418.072812,1725710418.073787,217.0,0.0,4261.922852,4265.512695,4277.692383,4310.0,4232.179688,4249.230957,4251.666504,4225.0,4250.128418,4204.358887,4542.692383,4513.846191,4393.717773,4457.692383,3934.0,1.0,15.0,,,,0.0,4.0,4.0,4.0,4.0,4.0,4.0,4.0,4.0,4.0,4.0,4.0,4.0,4.0,4.0,100.0,,,,,,,,,,,,,,,,,,,,,,,,,,,,,,,,,,,,,,,,,,,,,,,,,,,,,,,,,,,,,,,,,,,,,,,,,,,,,,,,,,,,,,,,,,,,,,,,,,,,,,,,,,,,,,,,,,,,,,,,,,,,,,,,,,,
1725710418.076716,1725710418.077691,218.0,0.0,4260.0,4266.794922,4278.077148,4304.487305,4233.333496,4248.205078,4252.307617,4227.307617,4251.794922,4203.589844,4540.641113,4512.05127,4396.538574,4456.025879,2910.0,1.0,15.0,,,,0.0,4.0,4.0,4.0,4.0,4.0,4.0,4.0,4.0,4.0,4.0,4.0,4.0,4.0,4.0,100.0,,,,,,,,,,,,,,,,,,,,,,,,,,,,,,,,,,,,,,,,,,,,,,,,,,,,,,,,,,,,,,,,,,,,,,,,,,,,,,,,,,,,,,,,,,,,,,,,,,,,,,,,,,,,,,,,,,,,,,,,,,,,,,,,,,,
1725710418.08062,1725710418.081595,219.0,0.0,4258.589844,4267.307617,4278.846191,4299.743652,4231.666504,4247.307617,4251.025879,4228.717773,4254.358887,4202.307617,4540.0,4509.871582,4398.205078,4454.230957,3142.0,1.0,15.0,,,,0.0,4.0,4.0,4.0,4.0,4.0,4.0,4.0,4.0,4.0,4.0,4.0,4.0,4.0,4.0,100.0,,,,,,,,,,,,,,,,,,,,,,,,,,,,,,,,,,,,,,,,,,,,,,,,,,,,,,,,,,,,,,,,,,,,,,,,,,,,,,,,,,,,,,,,,,,,,,,,,,,,,,,,,,,,,,,,,,,,,,,,,,,,,,,,,,,
1725710418.084524,1725710418.085499,220.0,0.0,4259.102539,4266.666504,4279.358887,4298.974121,4228.846191,4247.179688,4246.025879,4230.512695,4257.05127,4200.641113,4539.358887,4508.974121,4397.436035,4453.333496,3436.0,1.0,15.0,,,,0.0,4.0,4.0,4.0,4.0,4.0,4.0,4.0,4.0,4.0,4.0,4.0,4.0,4.0,4.0,100.0,,,,,,,,,,,,,,,,,,,,,,,,,,,,,,,,,,,,,,,,,,,,,,,,,,,,,,,,,,,,,,,,,,,,,,,,,,,,,,,,,,,,,,,,,,,,,,,,,,,,,,,,,,,,,,,,,,,,,,,,,,,,,,,,,,,
1725710418.088428,1725710418.089304,221.0,0.0,4261.153809,4265.897461,4279.615234,4302.436035,4226.794922,4247.692383,4238.717773,4233.461426,4259.487305,4199.487305,4538.461426,4509.743652,4394.230957,4453.205078,3934.0,1.0,15.0,,,,0.0,4.0,4.0,4.0,4.0,4.0,4.0,4.0,4.0,4.0,4.0,4.0,4.0,4.0,4.0,100.0,,,,,,,,,,,,,,,,,,,,,,,,,,,,,,,,,,,,,,,,,,,,,,,,,,,,,,,,,,,,,,,,,,,,,,,,,,,,,,,,,,,,,,,,,,,,,,,,,,,,,,,,,,,,,,,,,,,,,,,,,,,,,,,,,,,
1725710418.092332,1725710418.093208,222.0,0.0,4263.589844,4265.512695,4280.0,4308.589844,4226.538574,4247.94873,4232.307617,4236.282227,4261.282227,4199.487305,4537.563965,4511.410156,4389.615234,4452.94873,2910.0,1.0,15.0,,,,0.0,4.0,4.0,4.0,4.0,4.0,4.0,4.0,4.0,4.0,4.0,4.0,4.0,4.0,4.0,100.0,,,,,,,,,,,,,,,,,,,,,,,,,,,,,,,,,,,,,,,,,,,,,,,,,,,,,,,,,,,,,,,,,,,,,,,,,,,,,,,,,,,,,,,,,,,,,,,,,,,,,,,,,,,,,,,,,,,,,,,,,,,,,,,,,,,
1725710418.096237,1725710418.097112,223.0,0.0,4264.487305,4265.769043,4280.0,4314.230957,4227.563965,4247.563965,4229.230957,4236.410156,4261.410156,4200.512695,4537.179688,4512.05127,4385.128418,4451.282227,3142.0,1.0,15.0,,,,0.0,4.0,4.0,4.0,4.0,4.0,4.0,4.0,4.0,4.0,4.0,4.0,4.0,4.0,4.0,100.0,,,,,,,,,,,,,,,,,,,,,,,,,,,,,,,,,,,,,,,,,,,,,,,,,,,,,,,,,,,,,,,,,,,,,,,,,,,,,,,,,,,,,,,,,,,,,,,,,,,,,,,,,,,,,,,,,,,,,,,,,,,,,,,,,,,
1725710418.100141,1725710418.101016,224.0,0.0,4263.589844,4266.153809,4279.358887,4316.410156,4228.333496,4246.538574,4229.230957,4232.436035,4258.974121,4201.410156,4537.179688,4510.384766,4382.307617,4447.94873,3436.0,1.0,15.0,,,,0.0,4.0,4.0,4.0,4.0,4.0,4.0,4.0,4.0,4.0,4.0,4.0,4.0,4.0,4.0,100.0,,,,,,,,,,,,,,,,,,,,,,,,,,,,,,,,,,,,,,,,,,,,,,,,,,,,,,,,0.0,0.0,1.0,0.0,1.0,0.0,,,,,,,,,,,,,,,,,,,,,,,,,,,,,,,,,,,,,,,,,,,,,,,,,,,,,,,,,,,,,,,,,,,,,,
1725710418.104045,1725710418.10482,225.0,0.0,4261.794922,4266.282227,4277.820313,4314.230957,4227.436035,4245.256348,4229.615234,4225.0,4254.358887,4200.897461,4537.307617,4507.179688,4381.538574,4443.974121,3934.0,1.0,15.0,,,,0.0,4.0,4.0,4.0,4.0,4.0,4.0,4.0,4.0,4.0,4.0,4.0,4.0,4.0,4.0,100.0,,,,,,,,,,,,,,,,,,,,,,,,,,,,,,,,,,,,,,,,,,,,,,,,,,,,,,,,,,,,,,,,,,,,,,,,,,,,,,,,,,,,,,,,,,,,,,,,,,,,,,,,,,,,,,,,,,,,,,,,,,,,,,,,,,,
1725710418.107949,1725710418.108724,226.0,0.0,4260.384766,4265.897461,4275.769043,4308.589844,4225.128418,4244.102539,4227.94873,4217.436035,4249.615234,4198.846191,4537.307617,4504.487305,4381.922852,4440.897461,2910.0,1.0,15.0,,,,0.0,4.0,4.0,4.0,4.0,4.0,4.0,4.0,4.0,4.0,4.0,4.0,4.0,4.0,4.0,100.0,,,,,,,,,,,,,,,,,,,,,,,,,,,,,,,,,,,,,,,,,,,,,,,,,,,,,,,,,,,,,,,,,,,,,,,,,,,,,,,,,,,,,,,,,,,,,,,,,,,,,,,,,,,,,,,,,,,,,,,,,,,,,,,,,,,
1725710418.111853,1725710418.112628,227.0,0.0,4260.384766,4265.384766,4274.230957,4302.436035,4222.307617,4243.461426,4223.717773,4213.077148,4247.05127,4196.538574,4536.922852,4503.717773,4382.307617,4440.384766,3142.0,1.0,15.0,,,,0.0,4.0,4.0,4.0,4.0,4.0,4.0,4.0,4.0,4.0,4.0,4.0,4.0,4.0,4.0,100.0,,,,,,,,,,,,,,,,,,,,,,,,,,,,,,,,,,,,,,,,,,,,,,,,,,,,,,,,,,,,,,,,,,,,,,,,,,,,,,,,,,,,,,,,,,,,,,,,,,,,,,,,,,,,,,,,,,,,,,,,,,,,,,,,,,,
1725710418.115757,1725710418.116432,228.0,0.0,4261.410156,4265.0,4273.974121,4298.974121,4220.256348,4243.333496,4218.461426,4213.589844,4247.436035,4195.641113,4536.153809,4504.743652,4382.05127,4442.563965,3436.0,1.0,15.0,,,,0.0,4.0,4.0,4.0,4.0,4.0,4.0,4.0,4.0,4.0,4.0,4.0,4.0,4.0,4.0,100.0,,,,,,,,,,,,,,,,,,,,,,,,,,,,,,,,,,,,,,,,,,,,,,,,,,,,,,,,,,,,,,,,,,,,,,,,,,,,,,,,,,,,,,,,,,,,,,,,,,,,,,,,,,,,,,,,,,,,,,,,,,,,,,,,,,,
1725710418.119661,1725710418.120337,229.0,0.0,4262.820313,4264.871582,4275.512695,4299.487305,4219.358887,4243.205078,4215.384766,4216.666504,4250.0,4196.794922,4535.128418,4506.153809,4381.794922,4445.512695,3934.0,1.0,15.0,,,,0.0,4.0,4.0,4.0,4.0,4.0,4.0,4.0,4.0,4.0,4.0,4.0,4.0,4.0,4.0,100.0,,,,,,,,,,,,,,,,,,,,,,,,,,,,,,,,,,,,,,,,,,,,,,,,,,,,,,,,,,,,,,,,,,,,,,,,,,,,,,,,,,,,,,,,,,,,,,,,,,,,,,,,,,,,,,,,,,,,,,,,,,,,,,,,,,,
1725710418.123565,1725710418.124241,230.0,0.0,4263.333496,4265.0,4278.077148,4303.077148,4219.102539,4242.692383,4215.384766,4218.846191,4252.307617,4199.230957,4534.743652,4507.179688,4382.563965,4447.563965,2910.0,1.0,15.0,,,,0.0,4.0,4.0,4.0,4.0,4.0,4.0,4.0,4.0,4.0,4.0,4.0,4.0,4.0,4.0,100.0,,,,,,,,,,,,,,,,,,,,,,,,,,,,,,,,,,,,,,,,,,,,,,,,,,,,,,,,,,,,,,,,,,,,,,,,,,,,,,,,,,,,,,,,,,,,,,,,,,,,,,,,,,,,,,,,,,,,,,,,,,,,,,,,,,,
1725710418.127469,1725710418.128245,231.0,0.0,4262.820313,4265.0,4280.256348,4306.538574,4219.102539,4241.794922,4217.307617,4218.589844,4252.692383,4201.153809,4536.153809,4507.94873,4385.384766,4448.077148,3142.0,1.0,15.0,,,,0.0,4.0,4.0,4.0,4.0,4.0,4.0,4.0,4.0,4.0,4.0,4.0,4.0,4.0,4.0,100.0,,,,,,,,,,,,,,,,,,,,,,,,,,,,,,,,,,,,,,,,,,,,,,,,,,,,,,,,,,,,,,,,,,,,,,,,,,,,,,,,,,,,,,,,,,,,,,,,,,,,,,,,,,,,,,,,,,,,,,,,,,,,,,,,,,,
1725710418.131374,1725710418.132149,232.0,0.0,4262.05127,4264.871582,4280.769043,4307.563965,4219.102539,4241.282227,4218.077148,4217.179688,4250.897461,4201.153809,4538.974121,4508.589844,4389.871582,4447.94873,3436.0,1.0,15.0,,,,0.0,4.0,4.0,4.0,4.0,4.0,4.0,4.0,4.0,4.0,4.0,4.0,4.0,4.0,4.0,100.0,,,,,,,,,,,,,,,,,,,,,,,,,,,,,,,,,,,,,,,,,,,,,,,,,,,,,,,,0.0,0.0,1.0,0.0,1.0,0.0,,,,,,,,,,,,,,,,,,,,,,,,,,,,,,,,,,,,,,,,,,,,,,,,,,,,,,,,,,,,,,,,,,,,,,
1725710418.135278,1725710418.136053,233.0,0.0,4261.666504,4265.0,4278.717773,4305.384766,4218.974121,4241.922852,4215.641113,4216.153809,4248.717773,4199.487305,4541.025879,4508.461426,4394.615234,4447.436035,3934.0,1.0,15.0,,,,0.0,4.0,4.0,4.0,4.0,4.0,4.0,4.0,4.0,4.0,4.0,4.0,4.0,4.0,4.0,100.0,,,,,,,,,,,,,,,,,,,,,,,,,,,,,,,,,,,,,,,,,,,,,,,,,,,,,,,,,,,,,,,,,,,,,,,,,,,,,,,,,,,,,,,,,,,,,,,,,,,,,,,,,,,,,,,,,,,,,,,,,,,,,,,,,,,
1725710418.139182,1725710418.139957,234.0,0.0,4261.794922,4265.641113,4274.743652,4301.153809,4219.230957,4243.589844,4210.512695,4215.641113,4247.563965,4197.563965,4540.384766,4506.025879,4397.692383,4446.794922,2910.0,1.0,15.0,,,,0.0,4.0,4.0,4.0,4.0,4.0,4.0,4.0,4.0,4.0,4.0,4.0,4.0,4.0,4.0,100.0,,,,,,,,,,,,,,,,,,,,,,,,,,,,,,,,,,,,,,,,,,,,,,,,,,,,,,,,,,,,,,,,,,,,,,,,,,,,,,,,,,,,,,,,,,,,,,,,,,,,,,,,,,,,,,,,,,,,,,,,,,,,,,,,,,,
1725710418.143086,1725710418.143961,235.0,0.0,4262.307617,4266.410156,4269.743652,4296.410156,4219.615234,4245.512695,4205.384766,4215.256348,4247.94873,4197.05127,4537.307617,4501.025879,4397.820313,4445.641113,3142.0,1.0,15.0,,,,0.0,4.0,4.0,4.0,4.0,4.0,4.0,4.0,4.0,4.0,4.0,4.0,4.0,4.0,4.0,100.0,,,,,,,,,,,,,,,,,,,,,,,,,,,,,,,,,,,,,,,,,,,,,,,,,,,,,,,,,,,,,,,,,,,,,,,,,,,,,,,,,,,,,,,,,,,,,,,,,,,,,,,,,,,,,,,,,,,,,,,,,,,,,,,,,,,
1725710418.14699,1725710418.147865,236.0,0.0,4262.563965,4266.410156,4265.897461,4293.205078,4220.128418,4246.794922,4202.436035,4214.487305,4249.102539,4198.077148,4533.974121,4494.743652,4394.871582,4444.487305,3436.0,1.0,15.0,,,,0.0,4.0,4.0,4.0,4.0,4.0,4.0,4.0,4.0,4.0,4.0,4.0,4.0,4.0,4.0,100.0,,,,,,,,,,,,,,,,,,,,,,,,,,,,,,,,,,,,,,,,,,,,,,,,,,,,,,,,,,,,,,,,,,,,,,,,,,,,,,,,,,,,,,,,,,,,,,,,,,,,,,,,,,,,,,,,,,,,,,,,,,,,,,,,,,,
1725710418.150894,1725710418.151769,237.0,0.0,4262.436035,4265.384766,4264.871582,4292.94873,4220.384766,4246.794922,4202.05127,4214.102539,4250.0,4199.358887,4532.820313,4490.256348,4390.256348,4443.846191,3934.0,1.0,15.0,,,,0.0,4.0,4.0,4.0,4.0,4.0,4.0,4.0,4.0,4.0,4.0,4.0,4.0,4.0,4.0,100.0,,,,,,,,,,,,,,,,,,,,,,,,,,,,,,,,,,,,,,,,,,,,,,,,,,,,,,,,,,,,,,,,,,,,,,,,,,,,,,,,,,,,,,,,,,,,,,,,,,,,,,,,,,,,,,,,,,,,,,,,,,,,,,,,,,,
1725710418.154798,1725710418.155673,238.0,0.0,4261.794922,4264.102539,4267.692383,4295.0,4220.0,4245.897461,4202.05127,4215.256348,4250.769043,4199.230957,4534.871582,4490.256348,4385.897461,4443.461426,2910.0,1.0,15.0,,,,0.0,4.0,4.0,4.0,4.0,4.0,4.0,4.0,4.0,4.0,4.0,4.0,4.0,4.0,4.0,100.0,,,,,,,,,,,,,,,,,,,,,,,,,,,,,,,,,,,,,,,,,,,,,,,,,,,,,,,,,,,,,,,,,,,,,,,,,,,,,,,,,,,,,,,,,,,,,,,,,,,,,,,,,,,,,,,,,,,,,,,,,,,,,,,,,,,
1725710418.158702,1725710418.159677,239.0,0.0,4261.666504,4263.333496,4273.333496,4297.563965,4219.487305,4245.512695,4200.384766,4219.358887,4252.563965,4197.820313,4538.461426,4495.128418,4383.205078,4443.333496,3142.0,1.0,15.0,,,,0.0,4.0,4.0,4.0,4.0,4.0,4.0,4.0,4.0,4.0,4.0,4.0,4.0,4.0,4.0,100.0,,,,,,,,,,,,,,,,,,,,,,,,,,,,,,,,,,,,,,,,,,,,,,,,,,,,,,,,,,,,,,,,,,,,,,,,,,,,,,,,,,,,,,,,,,,,,,,,,,,,,,,,,,,,,,,,,,,,,,,,,,,,,,,,,,,
1725710418.162606,1725710418.163581,240.0,0.0,4263.077148,4263.589844,4279.230957,4299.230957,4219.102539,4246.410156,4196.410156,4226.153809,4256.282227,4196.538574,4541.410156,4502.436035,4382.563965,4443.333496,3436.0,1.0,15.0,,,,0.0,4.0,4.0,4.0,4.0,4.0,4.0,4.0,4.0,4.0,4.0,4.0,4.0,4.0,4.0,100.0,,,,,,,,,,,,,,,,,1.0,0.0,0.0,,,,,,,,,,,,,,,,,,,,,,,,,,,,,,,,,,,,,0.0,0.0,1.0,0.0,1.0,0.0,1.5099,0.954462,0.484755,0.341837,0.080545,1.249074,1.37702,0.373687,0.479052,0.139492,1.562902,0.944694,0.198255,0.165694,0.050595,1.134792,1.741342,0.219915,0.474908,0.171421,0.212005,0.408984,0.238305,0.097929,0.02084,0.077571,0.36212,0.141522,0.054846,0.043229,3.08665,1.748844,0.303012,0.133539,0.160848,0.977921,2.820223,0.823621,0.398089,0.108861,0.855642,1.27835,0.190444,0.259421,0.121391,1.251952,1.385273,0.23142,0.231292,0.127444,3.101096,2.085077,0.690311,0.734136,0.342176,4.18213,2.952773,0.417675,0.623192,0.150527,2.975659,2.574702,0.541266,0.35705,0.158417,3.212379,2.452439,0.715047,0.324797,0.113703
1725710418.16651,1725710418.167486,241.0,0.0,4265.128418,4263.974121,4281.666504,4299.743652,4219.358887,4248.205078,4191.410156,4233.333496,4261.282227,4196.538574,4541.922852,4507.820313,4383.205078,4443.077148,3934.0,1.0,15.0,,,,0.0,4.0,4.0,4.0,4.0,4.0,4.0,4.0,4.0,4.0,4.0,4.0,4.0,4.0,4.0,100.0,,,,,,,,,,,,,,,,,,,,,,,,,,,,,,,,,,,,,,,,,,,,,,,,,,,,,,,,,,,,,,,,,,,,,,,,,,,,,,,,,,,,,,,,,,,,,,,,,,,,,,,,,,,,,,,,,,,,,,,,,,,,,,,,,,,
1725710418.170414,1725710418.17139,242.0,0.0,4265.384766,4262.820313,4279.102539,4300.128418,4219.743652,4249.615234,4186.922852,4237.563965,4265.769043,4198.205078,4540.128418,4508.589844,4383.461426,4442.436035,2910.0,1.0,15.0,,,,0.0,4.0,4.0,4.0,4.0,4.0,4.0,4.0,4.0,4.0,4.0,4.0,4.0,4.0,4.0,100.0,,,,,,,,,,,,,,,,,,,,,,,,,,,,,,,,,,,,,,,,,,,,,,,,,,,,,,,,,,,,,,,,,,,,,,,,,,,,,,,,,,,,,,,,,,,,,,,,,,,,,,,,,,,,,,,,,,,,,,,,,,,,,,,,,,,
1725710418.174318,1725710418.175294,243.0,0.0,4261.666504,4258.974121,4272.820313,4300.512695,4219.743652,4249.358887,4184.487305,4236.922852,4267.692383,4200.641113,4537.692383,4504.871582,4382.179688,4441.538574,3142.0,1.0,15.0,,,,0.0,4.0,4.0,4.0,4.0,4.0,4.0,4.0,4.0,4.0,4.0,4.0,4.0,4.0,4.0,100.0,,,,,,,,,,,,,,,,,,,,,,,,,,,,,,,,,,,,,,,,,,,,,,,,,,,,,,,,,,,,,,,,,,,,,,,,,,,,,,,,,,,,,,,,,,,,,,,,,,,,,,,,,,,,,,,,,,,,,,,,,,,,,,,,,,,
1725710418.178223,1725710418.179098,244.0,0.0,4255.128418,4253.589844,4266.794922,4299.871582,4219.230957,4247.692383,4183.717773,4232.94873,4265.897461,4202.436035,4536.538574,4499.615234,4379.102539,4440.128418,3436.0,1.0,15.0,,,,0.0,4.0,4.0,4.0,4.0,4.0,4.0,4.0,4.0,4.0,4.0,4.0,4.0,4.0,4.0,100.0,,,,,,,,,,,,,,,,,,,,,,,,,,,,,,,,,,,,,,,,,,,,,,,,,,,,,,,,,,,,,,,,,,,,,,,,,,,,,,,,,,,,,,,,,,,,,,,,,,,,,,,,,,,,,,,,,,,,,,,,,,,,,,,,,,,
1725710418.182127,1725710418.183002,245.0,0.0,4249.102539,4249.102539,4264.487305,4297.820313,4218.717773,4246.410156,4183.846191,4229.743652,4262.436035,4202.179688,4536.666504,4496.410156,4374.871582,4438.589844,3934.0,1.0,15.0,,,,0.0,4.0,4.0,4.0,4.0,4.0,4.0,4.0,4.0,4.0,4.0,4.0,4.0,4.0,4.0,100.0,,,,,,,,,,,,,,,,,,,,,,,,,,,,,,,,,,,,,,,,,,,,,,,,,,,,,,,,,,,,,,,,,,,,,,,,,,,,,,,,,,,,,,,,,,,,,,,,,,,,,,,,,,,,,,,,,,,,,,,,,,,,,,,,,,,
1725710418.186031,1725710418.186906,246.0,0.0,4247.436035,4247.94873,4267.05127,4295.512695,4218.589844,4246.538574,4183.846191,4230.897461,4260.256348,4200.256348,4537.179688,4497.436035,4371.153809,4437.563965,2910.0,1.0,15.0,,,,0.0,4.0,4.0,4.0,4.0,4.0,4.0,4.0,4.0,4.0,4.0,4.0,4.0,4.0,4.0,100.0,,,,,,,,,,,,,,,,,,,,,,,,,,,,,,,,,,,,,,,,,,,,,,,,,,,,,,,,,,,,,,,,,,,,,,,,,,,,,,,,,,,,,,,,,,,,,,,,,,,,,,,,,,,,,,,,,,,,,,,,,,,,,,,,,,,
1725710418.189935,1725710418.19081,247.0,0.0,4250.769043,4250.897461,4272.820313,4295.384766,4219.102539,4247.820313,4184.102539,4236.666504,4261.794922,4198.461426,4537.179688,4502.307617,4370.128418,4437.692383,3142.0,1.0,15.0,,,,0.0,4.0,4.0,4.0,4.0,4.0,4.0,4.0,4.0,4.0,4.0,4.0,4.0,4.0,4.0,100.0,,,,,,,,,,,,,,,,,,,,,,,,,,,,,,,,,,,,,,,,,,,,,,,,,,,,,,,,,,,,,,,,,,,,,,,,,,,,,,,,,,,,,,,,,,,,,,,,,,,,,,,,,,,,,,,,,,,,,,,,,,,,,,,,,,,
1725710418.193839,1725710418.194614,248.0,0.0,4257.05127,4256.538574,4278.846191,4299.230957,4220.0,4248.077148,4185.0,4243.717773,4266.794922,4198.461426,4537.05127,4508.846191,4373.333496,4439.871582,3436.0,1.0,15.0,,,,0.0,4.0,4.0,4.0,4.0,4.0,4.0,4.0,4.0,4.0,4.0,4.0,4.0,4.0,4.0,100.0,,,,,,,,,,,,,,,,,,,,,,,,,,,,,,,,,,,,,,,,,,,,,,,,,,,,,,,,0.0,0.0,1.0,0.0,1.0,0.0,,,,,,,,,,,,,,,,,,,,,,,,,,,,,,,,,,,,,,,,,,,,,,,,,,,,,,,,,,,,,,,,,,,,,,
1725710418.197743,1725710418.198519,249.0,0.0,4263.077148,4262.179688,4282.563965,4305.769043,4220.769043,4245.897461,4185.512695,4247.820313,4272.179688,4200.897461,4538.461426,4515.128418,4380.384766,4444.358887,3934.0,1.0,15.0,,,,0.0,4.0,4.0,4.0,4.0,4.0,4.0,4.0,4.0,4.0,4.0,4.0,4.0,4.0,4.0,100.0,,,,,,,,,,,,,,,,,,,,,,,,,,,,,,,,,,,,,,,,,,,,,,,,,,,,,,,,,,,,,,,,,,,,,,,,,,,,,,,,,,,,,,,,,,,,,,,,,,,,,,,,,,,,,,,,,,,,,,,,,,,,,,,,,,,
1725710418.201647,1725710418.202423,250.0,0.0,4266.410156,4265.384766,4282.820313,4311.153809,4221.025879,4241.410156,4183.974121,4246.666504,4274.871582,4204.102539,4542.307617,4520.384766,4388.589844,4450.256348,2910.0,1.0,15.0,,,,0.0,4.0,4.0,4.0,4.0,4.0,4.0,4.0,4.0,4.0,4.0,4.0,4.0,4.0,4.0,100.0,,,,,,,,,,,,,,,,,,,,,,,,,,,,,,,,,,,,,,,,,,,,,,,,,,,,,,,,,,,,,,,,,,,,,,,,,,,,,,,,,,,,,,,,,,,,,,,,,,,,,,,,,,,,,,,,,,,,,,,,,,,,,,,,,,,
1725710418.205551,1725710418.206227,251.0,0.0,4266.538574,4265.641113,4280.897461,4312.179688,4220.512695,4236.282227,4179.487305,4241.282227,4273.333496,4205.384766,4547.563965,4524.102539,4394.743652,4456.153809,3142.0,1.0,15.0,,,,0.0,4.0,4.0,4.0,4.0,4.0,4.0,4.0,4.0,4.0,4.0,4.0,4.0,4.0,4.0,100.0,,,,,,,,,,,,,,,,,,,,,,,,,,,,,,,,,,,,,,,,,,,,,,,,,,,,,,,,,,,,,,,,,,,,,,,,,,,,,,,,,,,,,,,,,,,,,,,,,,,,,,,,,,,,,,,,,,,,,,,,,,,,,,,,,,,
1725710418.209455,1725710418.210131,252.0,0.0,4265.128418,4264.102539,4278.974121,4308.717773,4219.487305,4232.820313,4174.102539,4234.615234,4268.846191,4204.358887,4552.05127,4526.666504,4397.05127,4460.256348,3436.0,1.0,15.0,,,,0.0,4.0,4.0,4.0,4.0,4.0,4.0,4.0,4.0,4.0,4.0,4.0,4.0,4.0,4.0,100.0,,,,,,,,,,,,,,,,,,,,,,,,,,,,,,,,,,,,,,,,,,,,,,,,,,,,,,,,,,,,,,,,,,,,,,,,,,,,,,,,,,,,,,,,,,,,,,,,,,,,,,,,,,,,,,,,,,,,,,,,,,,,,,,,,,,
1725710418.213359,1725710418.214035,253.0,0.0,4263.974121,4263.077148,4279.230957,4303.974121,4218.589844,4231.538574,4171.410156,4230.0,4264.615234,4202.820313,4554.102539,4527.820313,4395.769043,4461.794922,3934.0,1.0,15.0,,,,0.0,4.0,4.0,4.0,4.0,4.0,4.0,4.0,4.0,4.0,4.0,4.0,4.0,4.0,4.0,100.0,,,,,,,,,,,,,,,,,,,,,,,,,,,,,,,,,,,,,,,,,,,,,,,,,,,,,,,,,,,,,,,,,,,,,,,,,,,,,,,,,,,,,,,,,,,,,,,,,,,,,,,,,,,,,,,,,,,,,,,,,,,,,,,,,,,
1725710418.217264,1725710418.217939,254.0,0.0,4264.102539,4264.487305,4281.794922,4301.538574,4217.94873,4231.922852,4173.461426,4228.589844,4263.333496,4203.205078,4554.230957,4527.692383,4393.077148,4461.025879,2910.0,1.0,15.0,,,,0.0,4.0,4.0,4.0,4.0,4.0,4.0,4.0,4.0,4.0,4.0,4.0,4.0,4.0,4.0,100.0,,,,,,,,,,,,,,,,,,,,,,,,,,,,,,,,,,,,,,,,,,,,,,,,,,,,,,,,,,,,,,,,,,,,,,,,,,,,,,,,,,,,,,,,,,,,,,,,,,,,,,,,,,,,,,,,,,,,,,,,,,,,,,,,,,,
1725710418.221168,1725710418.221743,255.0,0.0,4265.512695,4267.94873,4285.512695,4303.333496,4218.077148,4232.692383,4179.102539,4229.743652,4265.256348,4206.922852,4553.846191,4526.410156,4391.410156,4459.743652,15.0,1.0,15.0,,,,0.0,4.0,4.0,4.0,4.0,4.0,4.0,4.0,4.0,4.0,4.0,4.0,4.0,4.0,4.0,100.0,,,,,,,,,,,,,,,,,,,,,,,,,,,,,,,,,,,,,,,,,,,,,,,,,,,,,,,,,,,,,,,,,,,,,,,,,,,,,,,,,,,,,,,,,,,,,,,,,,,,,,,,,,,,,,,,,,,,,,,,,,,,,,,,,,,
1725710418.225072,1725710418.225647,0.0,0.0,4268.077148,4271.538574,4288.205078,4307.692383,4218.589844,4232.563965,4183.974121,4231.794922,4268.077148,4212.179688,4554.102539,4524.871582,4392.307617,4459.102539,2708.0,1.0,15.0,,,,0.0,4.0,4.0,4.0,4.0,4.0,4.0,4.0,4.0,4.0,4.0,4.0,4.0,4.0,4.0,100.0,,,,,,,,,,,,,,,,,,,,,,,,,,,,,,,,,,,,,,,,,,,,,,,,,,,,,,,,0.0,0.0,1.0,0.0,1.0,0.0,,,,,,,,,,,,,,,,,,,,,,,,,,,,,,,,,,,,,,,,,,,,,,,,,,,,,,,,,,,,,,,,,,,,,,
1725710418.228976,1725710418.229552,1.0,0.0,4271.153809,4273.589844,4288.974121,4312.05127,4218.846191,4231.410156,4184.102539,4233.077148,4268.974121,4216.282227,4554.743652,4523.846191,4395.641113,4459.871582,2590.0,1.0,15.0,,,,0.0,4.0,4.0,4.0,4.0,4.0,4.0,4.0,4.0,4.0,4.0,4.0,4.0,4.0,4.0,100.0,,,,,,,,,,,,,,,,,,,,,,,,,,,,,,,,,,,,,,,,,,,,,,,,,,,,,,,,,,,,,,,,,,,,,,,,,,,,,,,,,,,,,,,,,,,,,,,,,,,,,,,,,,,,,,,,,,,,,,,,,,,,,,,,,,,
1725710418.23288,1725710418.233556,2.0,0.0,4273.846191,4273.333496,4288.333496,4313.717773,4218.589844,4230.0,4179.102539,4233.717773,4266.794922,4217.179688,4555.256348,4523.717773,4399.743652,4461.410156,2516.0,1.0,15.0,,,,0.0,4.0,4.0,4.0,4.0,4.0,4.0,4.0,4.0,4.0,4.0,4.0,4.0,4.0,4.0,100.0,,,,,,,,,,,,,,,,,,,,,,,,,,,,,,,,,,,,,,,,,,,,,,,,,,,,,,,,,,,,,,,,,,,,,,,,,,,,,,,,,,,,,,,,,,,,,,,,,,,,,,,,,,,,,,,,,,,,,,,,,,,,,,,,,,,
1725710418.236784,1725710418.23746,3.0,0.0,4275.384766,4271.025879,4287.307617,4312.436035,4217.94873,4229.358887,4172.05127,4234.358887,4263.461426,4215.128418,4555.384766,4524.230957,4402.179688,4462.563965,2479.0,1.0,15.0,,,,0.0,4.0,4.0,4.0,4.0,4.0,4.0,4.0,4.0,4.0,4.0,4.0,4.0,4.0,4.0,100.0,,,,,,,,,,,,,,,,,,,,,,,,,,,,,,,,,,,,,,,,,,,,,,,,,,,,,,,,,,,,,,,,,,,,,,,,,,,,,,,,,,,,,,,,,,,,,,,,,,,,,,,,,,,,,,,,,,,,,,,,,,,,,,,,,,,
1725710418.240688,1725710418.241364,4.0,0.0,4274.358887,4267.820313,4286.410156,4309.871582,4217.179688,4229.615234,4166.666504,4235.384766,4262.307617,4212.563965,4555.384766,4525.128418,4401.153809,4462.692383,2448.0,1.0,15.0,,,,0.0,4.0,4.0,4.0,4.0,4.0,4.0,4.0,4.0,4.0,4.0,4.0,4.0,4.0,4.0,100.0,,,,,,,,,,,,,,,,,,,,,,,,,,,,,,,,,,,,,,,,,,,,,,,,,,,,,,,,,,,,,,,,,,,,,,,,,,,,,,,,,,,,,,,,,,,,,,,,,,,,,,,,,,,,,,,,,,,,,,,,,,,,,,,,,,,
1725710418.244592,1725710418.245268,5.0,0.0,4270.769043,4264.871582,4285.769043,4308.205078,4216.666504,4230.128418,4165.384766,4236.153809,4264.230957,4212.05127,4555.641113,4525.769043,4397.692383,4461.794922,2411.0,1.0,15.0,,,,0.0,4.0,4.0,4.0,4.0,4.0,4.0,4.0,4.0,4.0,4.0,4.0,4.0,4.0,4.0,100.0,,,,,,,,,,,,,,,,,,,,,,,,,,,,,,,,,,,,,,,,,,,,,,,,,,,,,,,,,,,,,,,,,,,,,,,,,,,,,,,,,,,,,,,,,,,,,,,,,,,,,,,,,,,,,,,,,,,,,,,,,,,,,,,,,,,
1725710418.248496,1725710418.249272,6.0,0.0,4266.153809,4263.333496,4285.0,4308.077148,4216.794922,4230.128418,4167.307617,4236.025879,4266.794922,4214.487305,4556.025879,4525.641113,4394.487305,4460.128418,2444.0,1.0,15.0,,,,0.0,4.0,4.0,4.0,4.0,4.0,4.0,4.0,4.0,4.0,4.0,4.0,4.0,4.0,4.0,100.0,,,,,,,,,,,,,,,,,,,,,,,,,,,,,,,,,,,,,,,,,,,,,,,,,,,,,,,,,,,,,,,,,,,,,,,,,,,,,,,,,,,,,,,,,,,,,,,,,,,,,,,,,,,,,,,,,,,,,,,,,,,,,,,,,,,
1725710418.252401,1725710418.253176,7.0,0.0,4262.820313,4263.205078,4283.846191,4308.846191,4217.179688,4229.487305,4169.102539,4235.0,4266.282227,4218.077148,4556.410156,4524.358887,4393.717773,4458.333496,2489.0,1.0,15.0,,,,0.0,4.0,4.0,4.0,4.0,4.0,4.0,4.0,4.0,4.0,4.0,4.0,4.0,4.0,4.0,100.0,,,,,,,,,,,,,,,,,,,,,,,,,,,,,,,,,,,,,,,,,,,,,,,,,,,,,,,,,,,,,,,,,,,,,,,,,,,,,,,,,,,,,,,,,,,,,,,,,,,,,,,,,,,,,,,,,,,,,,,,,,,,,,,,,,,
1725710418.256305,1725710418.25708,8.0,0.0,4262.307617,4264.102539,4282.179688,4309.102539,4217.820313,4228.717773,4167.563965,4234.743652,4261.025879,4220.641113,4556.538574,4522.563965,4395.897461,4456.922852,2473.0,1.0,15.0,,,,0.0,4.0,4.0,4.0,4.0,4.0,4.0,4.0,4.0,4.0,4.0,4.0,4.0,4.0,4.0,100.0,,,,,,,,,,,,,,,,,,,,,,,,,,,,,,,,,,,,,,,,,,,,,,,,,,,,,,,,0.0,0.0,1.0,0.0,1.0,0.0,,,,,,,,,,,,,,,,,,,,,,,,,,,,,,,,,,,,,,,,,,,,,,,,,,,,,,,,,,,,,,,,,,,,,,
1725710418.260209,1725710418.260984,9.0,0.0,4264.102539,4265.256348,4280.512695,4308.974121,4218.333496,4228.589844,4162.05127,4236.666504,4253.846191,4220.384766,4556.282227,4521.410156,4399.230957,4456.282227,2560.0,1.0,15.0,,,,0.0,4.0,4.0,4.0,4.0,4.0,4.0,4.0,4.0,4.0,4.0,4.0,4.0,4.0,4.0,100.0,,,,,,,,,,,,,,,,,,,,,,,,,,,,,,,,,,,,,,,,,,,,,,,,,,,,,,,,,,,,,,,,,,,,,,,,,,,,,,,,,,,,,,,,,,,,,,,,,,,,,,,,,,,,,,,,,,,,,,,,,,,,,,,,,,,
1725710418.264113,1725710418.264988,10.0,0.0,4266.410156,4266.153809,4279.358887,4308.846191,4218.461426,4229.230957,4155.384766,4241.282227,4248.461426,4217.94873,4555.769043,4522.05127,4401.410156,4456.410156,2909.0,1.0,15.0,,,,0.0,4.0,4.0,4.0,4.0,4.0,4.0,4.0,4.0,4.0,4.0,4.0,4.0,4.0,4.0,100.0,,,,,,,,,,,,,,,,,,,,,,,,,,,,,,,,,,,,,,,,,,,,,,,,,,,,,,,,,,,,,,,,,,,,,,,,,,,,,,,,,,,,,,,,,,,,,,,,,,,,,,,,,,,,,,,,,,,,,,,,,,,,,,,,,,,
1725710418.268017,1725710418.268892,11.0,0.0,4267.563965,4266.410156,4279.230957,4308.974121,4218.589844,4230.128418,4151.282227,4246.794922,4247.692383,4215.256348,4555.256348,4524.230957,4401.410156,4457.563965,3147.0,1.0,15.0,,,,0.0,4.0,4.0,4.0,4.0,4.0,4.0,4.0,4.0,4.0,4.0,4.0,4.0,4.0,4.0,100.0,,,,,,,,,,,,,,,,,,,,,,,,,,,,,,,,,,,,,,,,,,,,,,,,,,,,,,,,,,,,,,,,,,,,,,,,,,,,,,,,,,,,,,,,,,,,,,,,,,,,,,,,,,,,,,,,,,,,,,,,,,,,,,,,,,,
1725710418.271921,1725710418.272796,12.0,0.0,4267.563965,4265.897461,4280.0,4308.717773,4218.846191,4231.025879,4152.436035,4251.025879,4250.897461,4214.230957,4554.743652,4527.05127,4399.871582,4459.358887,3423.0,1.0,15.0,,,,0.0,4.0,4.0,4.0,4.0,4.0,4.0,4.0,4.0,4.0,4.0,4.0,4.0,4.0,4.0,100.0,,,,,,,,,,,,,,,,,,,,,,,,,,,,,,,,,,,,,,,,,,,,,,,,,,,,,,,,,,,,,,,,,,,,,,,,,,,,,,,,,,,,,,,,,,,,,,,,,,,,,,,,,,,,,,,,,,,,,,,,,,,,,,,,,,,
1725710418.275825,1725710418.276701,13.0,0.0,4266.538574,4265.256348,4281.025879,4307.692383,4219.358887,4231.794922,4157.820313,4251.666504,4255.384766,4215.128418,4554.487305,4529.615234,4398.205078,4461.282227,3934.0,1.0,15.0,,,,0.0,4.0,4.0,4.0,4.0,4.0,4.0,4.0,4.0,4.0,4.0,4.0,4.0,4.0,4.0,100.0,,,,,,,,,,,,,,,,,,,,,,,,,,,,,,,,,,,,,,,,,,,,,,,,,,,,,,,,,,,,,,,,,,,,,,,,,,,,,,,,,,,,,,,,,,,,,,,,,,,,,,,,,,,,,,,,,,,,,,,,,,,,,,,,,,,
1725710418.279729,1725710418.280605,14.0,0.0,4265.128418,4265.384766,4281.538574,4307.05127,4219.487305,4232.307617,4164.230957,4247.820313,4257.692383,4217.05127,4554.871582,4530.384766,4397.563965,4462.179688,2909.0,1.0,15.0,,,,0.0,4.0,4.0,4.0,4.0,4.0,4.0,4.0,4.0,4.0,4.0,4.0,4.0,4.0,4.0,100.0,,,,,,,,,,,,,,,,,,,,,,,,,,,,,,,,,,,,,,,,,,,,,,,,,,,,,,,,,,,,,,,,,,,,,,,,,,,,,,,,,,,,,,,,,,,,,,,,,,,,,,,,,,,,,,,,,,,,,,,,,,,,,,,,,,,
1725710418.283633,1725710418.284409,15.0,0.0,4264.230957,4266.410156,4281.794922,4307.94873,4218.974121,4232.05127,4167.94873,4241.153809,4255.512695,4219.102539,4555.384766,4528.333496,4398.077148,4460.641113,3147.0,1.0,15.0,,,,0.0,4.0,4.0,4.0,4.0,4.0,4.0,4.0,4.0,4.0,4.0,4.0,4.0,4.0,4.0,100.0,,,,,,,,,,,,,,,,,,,,,,,,,,,,,,,,,,,,,,,,,,,,,,,,,,,,,,,,,,,,,,,,,,,,,,,,,,,,,,,,,,,,,,,,,,,,,,,,,,,,,,,,,,,,,,,,,,,,,,,,,,,,,,,,,,,
1725710418.287537,1725710418.288313,16.0,0.0,4264.102539,4266.922852,4282.179688,4309.871582,4218.205078,4231.153809,4166.666504,4234.615234,4249.615234,4219.871582,4554.871582,4523.589844,4398.205078,4456.922852,3423.0,1.0,15.0,,,,0.0,4.0,4.0,4.0,4.0,4.0,4.0,4.0,4.0,4.0,4.0,4.0,4.0,4.0,4.0,100.0,1.0,75.0,4.0,4.0,4.0,4.0,4.0,4.0,1.0,4.0,4.0,4.0,4.0,4.0,4.0,4.0,1.0,0.0,0.0,,,,,,,,,,,,,,,,,,,,,,,,,,,,,,,,,,,,,0.0,0.0,1.0,0.0,1.0,0.0,1.501539,0.908993,0.466366,0.32047,0.079059,1.339182,1.246133,0.37051,0.445296,0.125141,1.466327,0.920174,0.224654,0.155174,0.046032,1.207358,1.665172,0.252769,0.468363,0.156879,0.204531,0.414642,0.240303,0.095513,0.020517,0.145271,0.325462,0.164787,0.068382,0.052516,3.361242,1.500318,0.279341,0.118431,0.15505,0.937761,2.673207,0.735571,0.389252,0.113294,1.007313,1.38642,0.200804,0.256702,0.130315,1.333148,1.326906,0.20962,0.241478,0.122539,3.205538,1.841769,0.67479,0.712784,0.351189,4.359535,2.711355,0.365152,0.578869,0.156617,3.068551,2.238918,0.490403,0.414527,0.164858,3.096395,2.058679,0.738435,0.314782,0.118821
1725710418.291442,1725710418.292217,17.0,0.0,4264.358887,4265.256348,4282.307617,4311.025879,4217.94873,4229.743652,4161.025879,4230.897461,4242.94873,4217.436035,4552.179688,4517.179688,4396.153809,4452.436035,3934.0,1.0,15.0,,,,0.0,4.0,4.0,4.0,4.0,4.0,4.0,4.0,4.0,4.0,4.0,4.0,4.0,4.0,4.0,100.0,,,,,,,,,,,,,,,,,,,,,,,,,,,,,,,,,,,,,,,,,,,,,,,,,,,,,,,,,,,,,,,,,,,,,,,,,,,,,,,,,,,,,,,,,,,,,,,,,,,,,,,,,,,,,,,,,,,,,,,,,,,,,,,,,,,
1725710418.295346,1725710418.296021,18.0,0.0,4263.846191,4260.769043,4281.025879,4309.743652,4218.333496,4227.94873,4154.358887,4230.256348,4238.205078,4210.512695,4547.179688,4511.282227,4391.025879,4448.333496,2909.0,1.0,15.0,,,,0.0,4.0,4.0,4.0,4.0,4.0,4.0,4.0,4.0,4.0,4.0,4.0,4.0,4.0,4.0,100.0,,,,,,,,,,,,,,,,,,,,,,,,,,,,,,,,,,,,,,,,,,,,,,,,,,,,,,,,,,,,,,,,,,,,,,,,,,,,,,,,,,,,,,,,,,,,,,,,,,,,,,,,,,,,,,,,,,,,,,,,,,,,,,,,,,,
1725710418.29925,1725710418.299925,19.0,0.0,4261.922852,4255.0,4277.94873,4306.025879,4218.461426,4226.410156,4150.512695,4230.641113,4235.641113,4200.0,4540.641113,4507.179688,4384.102539,4445.769043,3147.0,1.0,15.0,,,,0.0,4.0,4.0,4.0,4.0,4.0,4.0,4.0,4.0,4.0,4.0,4.0,4.0,4.0,4.0,100.0,,,,,,,,,,,,,,,,,,,,,,,,,,,,,,,,,,,,,,,,,,,,,,,,,,,,,,,,,,,,,,,,,,,,,,,,,,,,,,,,,,,,,,,,,,,,,,,,,,,,,,,,,,,,,,,,,,,,,,,,,,,,,,,,,,,
1725710418.303154,1725710418.303829,20.0,0.0,4258.205078,4250.512695,4273.846191,4300.769043,4217.307617,4225.641113,4150.769043,4229.487305,4233.077148,4189.358887,4533.205078,4505.0,4377.94873,4444.102539,3423.0,1.0,15.0,,,,0.0,4.0,4.0,4.0,4.0,4.0,4.0,4.0,4.0,4.0,4.0,4.0,4.0,4.0,4.0,100.0,,,,,,,,,,,,,,,,,,,,,,,,,,,,,,,,,,,,,,,,,,,,,,,,,,,,,,,,,,,,,,,,,,,,,,,,,,,,,,,,,,,,,,,,,,,,,,,,,,,,,,,,,,,,,,,,,,,,,,,,,,,,,,,,,,,
1725710418.307058,1725710418.307734,21.0,0.0,4253.589844,4248.333496,4269.743652,4295.256348,4214.230957,4226.153809,4152.94873,4225.769043,4228.717773,4182.692383,4525.0,4502.820313,4372.94873,4441.794922,3934.0,1.0,15.0,,,,0.0,4.0,4.0,4.0,4.0,4.0,4.0,4.0,4.0,4.0,4.0,4.0,4.0,4.0,4.0,100.0,,,,,,,,,,,,,,,,,,,,,,,,,,,,,,,,,,,,,,,,,,,,,,,,,,,,,,,,,,,,,,,,,,,,,,,,,,,,,,,,,,,,,,,,,,,,,,,,,,,,,,,,,,,,,,,,,,,,,,,,,,,,,,,,,,,
1725710418.310962,1725710418.311538,22.0,0.0,4249.487305,4246.794922,4265.769043,4289.871582,4209.102539,4227.692383,4152.692383,4220.512695,4223.205078,4180.897461,4515.769043,4498.589844,4367.692383,4436.922852,2909.0,1.0,15.0,,,,0.0,4.0,4.0,4.0,4.0,4.0,4.0,4.0,4.0,4.0,4.0,4.0,4.0,4.0,4.0,100.0,,,,,,,,,,,,,,,,,,,,,,,,,,,,,,,,,,,,,,,,,,,,,,,,,,,,,,,,,,,,,,,,,,,,,,,,,,,,,,,,,,,,,,,,,,,,,,,,,,,,,,,,,,,,,,,,,,,,,,,,,,,,,,,,,,,
1725710418.314866,1725710418.315442,23.0,0.0,4246.666504,4243.589844,4261.922852,4284.615234,4203.333496,4229.487305,4148.205078,4215.897461,4218.589844,4182.179688,4506.538574,4491.922852,4360.384766,4429.358887,3147.0,1.0,15.0,,,,0.0,4.0,4.0,4.0,4.0,4.0,4.0,4.0,4.0,4.0,4.0,4.0,4.0,4.0,4.0,100.0,,,,,,,,,,,,,,,,,,,,,,,,,,,,,,,,,,,,,,,,,,,,,,,,,,,,,,,,,,,,,,,,,,,,,,,,,,,,,,,,,,,,,,,,,,,,,,,,,,,,,,,,,,,,,,,,,,,,,,,,,,,,,,,,,,,
1725710418.31877,1725710418.319346,24.0,0.0,4245.384766,4237.94873,4258.461426,4280.128418,4199.230957,4230.384766,4141.153809,4214.743652,4217.307617,4183.461426,4501.410156,4485.512695,4351.922852,4422.307617,3423.0,1.0,15.0,,,,0.0,4.0,4.0,4.0,4.0,4.0,4.0,4.0,4.0,4.0,4.0,4.0,4.0,4.0,4.0,100.0,,,,,,,,,,,,,,,,,,,,,,,,,,,,,,,,,,,,,,,,,,,,,,,,,,,,,,,,0.0,0.0,1.0,0.0,1.0,0.0,,,,,,,,,,,,,,,,,,,,,,,,,,,,,,,,,,,,,,,,,,,,,,,,,,,,,,,,,,,,,,,,,,,,,,
1725710418.322674,1725710418.32325,25.0,0.0,4245.256348,4232.307617,4256.282227,4278.333496,4198.333496,4230.128418,4135.769043,4218.461426,4220.769043,4183.717773,4504.871582,4484.487305,4346.410156,4420.512695,3934.0,1.0,15.0,,,,0.0,4.0,4.0,4.0,4.0,4.0,4.0,4.0,4.0,4.0,4.0,4.0,4.0,4.0,4.0,100.0,,,,,,,,,,,,,,,,,,,,,,,,,,,,,,,,,,,,,,,,,,,,,,,,,,,,,,,,,,,,,,,,,,,,,,,,,,,,,,,,,,,,,,,,,,,,,,,,,,,,,,,,,,,,,,,,,,,,,,,,,,,,,,,,,,,
1725710418.326579,1725710418.327054,26.0,0.0,4245.897461,4230.512695,4256.538574,4281.282227,4201.153809,4229.743652,4134.871582,4226.666504,4228.589844,4184.102539,4518.589844,4492.05127,4348.461426,4426.153809,2909.0,1.0,15.0,,,,0.0,4.0,4.0,4.0,4.0,4.0,4.0,4.0,4.0,4.0,4.0,4.0,4.0,4.0,4.0,100.0,,,,,,,,,,,,,,,,,,,,,,,,,,,,,,,,,,,,,,,,,,,,,,,,,,,,,,,,,,,,,,,,,,,,,,,,,,,,,,,,,,,,,,,,,,,,,,,,,,,,,,,,,,,,,,,,,,,,,,,,,,,,,,,,,,,
1725710418.330483,1725710418.330958,27.0,0.0,4247.692383,4235.0,4259.615234,4288.461426,4206.282227,4230.0,4137.94873,4236.794922,4239.487305,4187.436035,4538.333496,4507.05127,4358.717773,4437.307617,3147.0,1.0,15.0,,,,0.0,4.0,4.0,4.0,4.0,4.0,4.0,4.0,4.0,4.0,4.0,4.0,4.0,4.0,4.0,100.0,,,,,,,,,,,,,,,,,,,,,,,,,,,,,,,,,,,,,,,,,,,,,,,,,,,,,,,,,,,,,,,,,,,,,,,,,,,,,,,,,,,,,,,,,,,,,,,,,,,,,,,,,,,,,,,,,,,,,,,,,,,,,,,,,,,
1725710418.334387,1725710418.334863,28.0,0.0,4251.025879,4245.128418,4264.871582,4296.922852,4211.794922,4231.282227,4141.794922,4245.641113,4251.410156,4195.256348,4556.282227,4524.230957,4373.974121,4448.974121,3423.0,1.0,15.0,,,,0.0,4.0,4.0,4.0,4.0,4.0,4.0,4.0,4.0,4.0,4.0,4.0,4.0,4.0,4.0,100.0,,,,,,,,,,,,,,,,,,,,,,,,,,,,,,,,,,,,,,,,,,,,,,,,,,,,,,,,,,,,,,,,,,,,,,,,,,,,,,,,,,,,,,,,,,,,,,,,,,,,,,,,,,,,,,,,,,,,,,,,,,,,,,,,,,,
1725710418.338291,1725710418.338867,29.0,0.0,4255.897461,4256.794922,4270.769043,4302.563965,4215.897461,4232.94873,4143.205078,4251.153809,4261.410156,4206.410156,4565.769043,4537.307617,4388.846191,4457.436035,3934.0,1.0,15.0,,,,0.0,4.0,4.0,4.0,4.0,4.0,4.0,4.0,4.0,4.0,4.0,4.0,4.0,4.0,4.0,100.0,,,,,,,,,,,,,,,,,,,,,,,,,,,,,,,,,,,,,,,,,,,,,,,,,,,,,,,,,,,,,,,,,,,,,,,,,,,,,,,,,,,,,,,,,,,,,,,,,,,,,,,,,,,,,,,,,,,,,,,,,,,,,,,,,,,
1725710418.342195,1725710418.342771,30.0,0.0,4261.282227,4265.256348,4275.384766,4304.102539,4218.077148,4233.974121,4142.05127,4252.820313,4266.410156,4216.666504,4565.256348,4542.820313,4398.846191,4462.436035,2909.0,1.0,15.0,,,,0.0,4.0,4.0,4.0,4.0,4.0,4.0,4.0,4.0,4.0,4.0,4.0,4.0,4.0,4.0,100.0,,,,,,,,,,,,,,,,,,,,,,,,,,,,,,,,,,,,,,,,,,,,,,,,,,,,,,,,,,,,,,,,,,,,,,,,,,,,,,,,,,,,,,,,,,,,,,,,,,,,,,,,,,,,,,,,,,,,,,,,,,,,,,,,,,,
1725710418.346099,1725710418.346675,31.0,0.0,4265.512695,4267.94873,4277.94873,4303.077148,4218.974121,4234.102539,4140.128418,4251.794922,4265.641113,4221.410156,4559.230957,4542.563965,4402.05127,4465.512695,3147.0,1.0,15.0,,,,0.0,4.0,4.0,4.0,4.0,4.0,4.0,4.0,4.0,4.0,4.0,4.0,4.0,4.0,4.0,100.0,,,,,,,,,,,,,,,,,,,,,,,,,,,,,,,,,,,,,,,,,,,,,,,,,,,,,,,,,,,,,,,,,,,,,,,,,,,,,,,,,,,,,,,,,,,,,,,,,,,,,,,,,,,,,,,,,,,,,,,,,,,,,,,,,,,
1725710418.350003,1725710418.350579,32.0,0.0,4267.307617,4266.410156,4278.589844,4302.436035,4219.358887,4233.333496,4140.0,4250.384766,4261.153809,4219.102539,4553.974121,4540.769043,4400.0,4468.589844,0.0,1.0,15.0,,,,0.0,4.0,4.0,4.0,4.0,4.0,4.0,4.0,4.0,4.0,4.0,4.0,4.0,4.0,4.0,100.0,,,,,,,,,,,,,,,,,,,,,,,,,,,,,,,,,,,,,,,,,,,,,,,,,,,,,,,,0.0,0.0,1.0,0.0,1.0,0.0,,,,,,,,,,,,,,,,,,,,,,,,,,,,,,,,,,,,,,,,,,,,,,,,,,,,,,,,,,,,,,,,,,,,,,
1725710418.353907,1725710418.354583,33.0,0.0,4266.922852,4263.974121,4278.205078,4304.487305,4219.743652,4232.179688,4142.692383,4250.128418,4257.05127,4212.05127,4553.077148,4540.256348,4396.025879,4471.025879,0.0,1.0,15.0,,,,0.0,4.0,4.0,4.0,4.0,4.0,4.0,4.0,4.0,4.0,4.0,4.0,4.0,4.0,4.0,100.0,,,,,,,,,,,,,,,,,,,,,,,,,,,,,,,,,,,,,,,,,,,,,,,,,,,,,,,,,,,,,,,,,,,,,,,,,,,,,,,,,,,,,,,,,,,,,,,,,,,,,,,,,,,,,,,,,,,,,,,,,,,,,,,,,,,
1725710418.357811,1725710418.358487,34.0,0.0,4265.897461,4263.717773,4278.333496,4308.589844,4219.743652,4231.410156,4147.692383,4251.153809,4256.153809,4205.128418,4555.769043,4540.512695,4393.333496,4471.153809,0.0,1.0,15.0,,,,0.0,4.0,4.0,4.0,4.0,4.0,4.0,4.0,4.0,4.0,4.0,4.0,4.0,4.0,4.0,100.0,,,,,,,,,,,,,,,,,,,,,,,,,,,,,,,,,,,,,,,,,,,,,,,,,,,,,,,,,,,,,,,,,,,,,,,,,,,,,,,,,,,,,,,,,,,,,,,,,,,,,,,,,,,,,,,,,,,,,,,,,,,,,,,,,,,
1725710418.361715,1725710418.362391,35.0,0.0,4265.641113,4265.384766,4279.487305,4312.436035,4219.871582,4231.538574,4152.692383,4252.179688,4258.461426,4201.538574,4558.205078,4539.230957,4392.692383,4468.333496,0.0,1.0,15.0,,,,0.0,4.0,4.0,4.0,4.0,4.0,4.0,4.0,4.0,4.0,4.0,4.0,4.0,4.0,4.0,100.0,,,,,,,,,,,,,,,,,,,,,,,,,,,,,,,,,,,,,,,,,,,,,,,,,,,,,,,,,,,,,,,,,,,,,,,,,,,,,,,,,,,,,,,,,,,,,,,,,,,,,,,,,,,,,,,,,,,,,,,,,,,,,,,,,,,
1725710418.36562,1725710418.366295,36.0,0.0,4266.410156,4266.922852,4280.897461,4313.974121,4220.384766,4233.077148,4155.256348,4252.05127,4262.179688,4201.538574,4557.692383,4535.641113,4393.077148,4463.589844,0.0,1.0,15.0,,,,0.0,4.0,4.0,4.0,4.0,4.0,4.0,4.0,4.0,4.0,4.0,4.0,4.0,4.0,4.0,100.0,,,,,,,,,,,,,,,,,,,,,,,,,,,,,,,,,,,,,,,,,,,,,,,,,,,,,,,,,,,,,,,,,,,,,,,,,,,,,,,,,,,,,,,,,,,,,,,,,,,,,,,,,,,,,,,,,,,,,,,,,,,,,,,,,,,
1725710418.369524,1725710418.370299,37.0,0.0,4267.179688,4266.666504,4281.410156,4312.820313,4221.410156,4235.256348,4154.230957,4250.641113,4264.743652,4203.205078,4554.358887,4530.512695,4392.307617,4459.358887,0.0,1.0,15.0,,,,0.0,4.0,4.0,4.0,4.0,4.0,4.0,4.0,4.0,4.0,4.0,4.0,4.0,4.0,4.0,100.0,,,,,,,,,,,,,,,,,,,,,,,,,,,,,,,,,,,,,,,,,,,,,,,,,,,,,,,,,,,,,,,,,,,,,,,,,,,,,,,,,,,,,,,,,,,,,,,,,,,,,,,,,,,,,,,,,,,,,,,,,,,,,,,,,,,
1725710418.373428,1725710418.374203,38.0,0.0,4267.05127,4264.358887,4280.512695,4309.871582,4221.666504,4236.025879,4151.410156,4248.589844,4264.615234,4204.871582,4550.512695,4525.512695,4388.974121,4456.922852,0.0,1.0,15.0,,,,0.0,4.0,4.0,4.0,4.0,4.0,4.0,4.0,4.0,4.0,4.0,4.0,4.0,4.0,4.0,100.0,,,,,,,,,,,,,,,,,,,,,,,,,,,,,,,,,,,,,,,,,,,,,,,,,,,,,,,,,,,,,,,,,,,,,,,,,,,,,,,,,,,,,,,,,,,,,,,,,,,,,,,,,,,,,,,,,,,,,,,,,,,,,,,,,,,
1725710418.377332,1725710418.378107,39.0,0.0,4265.897461,4261.282227,4278.974121,4306.538574,4220.384766,4234.871582,4149.487305,4247.05127,4262.307617,4206.282227,4548.461426,4522.05127,4383.589844,4456.410156,0.0,1.0,15.0,,,,0.0,4.0,4.0,4.0,4.0,4.0,4.0,4.0,4.0,4.0,4.0,4.0,4.0,4.0,4.0,100.0,,,,,,,,,,,,,,,,,,,,,,,,,,,,,,,,,,,,,,,,,,,,,,,,,,,,,,,,,,,,,,,,,,,,,,,,,,,,,,,,,,,,,,,,,,,,,,,,,,,,,,,,,,,,,,,,,,,,,,,,,,,,,,,,,,,
1725710418.381236,1725710418.382011,40.0,0.0,4264.358887,4259.230957,4277.94873,4303.846191,4218.589844,4233.077148,4151.153809,4246.153809,4260.384766,4208.077148,4548.717773,4521.282227,4379.102539,4457.05127,0.0,1.0,15.0,,,,0.0,4.0,4.0,4.0,4.0,4.0,4.0,4.0,4.0,4.0,4.0,4.0,4.0,4.0,4.0,100.0,,,,,,,,,,,,,,,,,,,,,,,,,,,,,,,,,,,,,,,,,,,,,,,,,,,,,,,,0.0,0.0,1.0,0.0,1.0,0.0,,,,,,,,,,,,,,,,,,,,,,,,,,,,,,,,,,,,,,,,,,,,,,,,,,,,,,,,,,,,,,,,,,,,,,
1725710418.38514,1725710418.385916,41.0,0.0,4263.589844,4259.487305,4277.94873,4302.94873,4217.692383,4233.077148,4156.410156,4246.153809,4260.769043,4210.769043,4550.897461,4523.333496,4378.717773,4458.461426,0.0,1.0,15.0,,,,0.0,4.0,4.0,4.0,4.0,4.0,4.0,4.0,4.0,4.0,4.0,4.0,4.0,4.0,4.0,100.0,,,,,,,,,,,,,,,,,,,,,,,,,,,,,,,,,,,,,,,,,,,,,,,,,,,,,,,,,,,,,,,,,,,,,,,,,,,,,,,,,,,,,,,,,,,,,,,,,,,,,,,,,,,,,,,,,,,,,,,,,,,,,,,,,,,
1725710418.389044,1725710418.38972,42.0,0.0,4264.230957,4261.794922,4278.846191,4304.358887,4219.358887,4235.897461,4163.333496,4247.179688,4263.205078,4214.102539,4553.461426,4527.307617,4383.461426,4460.384766,0.0,1.0,15.0,,,,0.0,4.0,4.0,4.0,4.0,4.0,4.0,4.0,4.0,4.0,4.0,4.0,4.0,4.0,4.0,100.0,,,,,,,,,,,,,,,,,,,,,,,,,,,,,,,,,,,,,,,,,,,,,,,,,,,,,,,,,,,,,,,,,,,,,,,,,,,,,,,,,,,,,,,,,,,,,,,,,,,,,,,,,,,,,,,,,,,,,,,,,,,,,,,,,,,
1725710418.392948,1725710418.393624,43.0,0.0,4265.769043,4264.358887,4280.256348,4307.563965,4223.077148,4240.384766,4168.974121,4248.461426,4265.384766,4216.666504,4555.256348,4531.025879,4390.641113,4462.307617,0.0,1.0,15.0,,,,0.0,4.0,4.0,4.0,4.0,4.0,4.0,4.0,4.0,4.0,4.0,4.0,4.0,4.0,4.0,100.0,,,,,,,,,,,,,,,,,,,,,,,,,,,,,,,,,,,,,,,,,,,,,,,,,,,,,,,,,,,,,,,,,,,,,,,,,,,,,,,,,,,,,,,,,,,,,,,,,,,,,,,,,,,,,,,,,,,,,,,,,,,,,,,,,,,
1725710418.396852,1725710418.397528,44.0,0.0,4267.05127,4265.0,4281.282227,4311.025879,4227.563965,4243.717773,4171.666504,4248.846191,4265.384766,4217.179688,4555.897461,4532.820313,4395.384766,4463.077148,0.0,1.0,15.0,,,,0.0,4.0,4.0,4.0,4.0,4.0,4.0,4.0,4.0,4.0,4.0,4.0,4.0,4.0,4.0,100.0,,,,,,,,,,,,,,,,,,,,,,,,,,,,,,,,,,,,,,,,,,,,,,,,,,,,,,,,,,,,,,,,,,,,,,,,,,,,,,,,,,,,,,,,,,,,,,,,,,,,,,,,,,,,,,,,,,,,,,,,,,,,,,,,,,,
1725710418.400756,1725710418.401332,45.0,0.0,4267.179688,4262.563965,4281.666504,4313.333496,4230.769043,4243.974121,4171.666504,4247.692383,4263.589844,4215.897461,4555.384766,4531.666504,4393.974121,4461.410156,0.0,1.0,15.0,,,,0.0,4.0,4.0,4.0,4.0,4.0,4.0,4.0,4.0,4.0,4.0,4.0,4.0,4.0,4.0,100.0,,,,,,,,,,,,,,,,,,,,,,,,,,,,,,,,,,,,,,,,,,,,,,,,,,,,,,,,,,,,,,,,,,,,,,,,,,,,,,,,,,,,,,,,,,,,,,,,,,,,,,,,,,,,,,,,,,,,,,,,,,,,,,,,,,,
1725710418.40466,1725710418.405236,46.0,0.0,4266.025879,4258.974121,4280.769043,4313.717773,4231.410156,4240.897461,4170.512695,4245.0,4262.307617,4213.846191,4554.230957,4527.94873,4386.153809,4456.794922,0.0,1.0,15.0,,,,0.0,4.0,4.0,4.0,4.0,4.0,4.0,4.0,4.0,4.0,4.0,4.0,4.0,4.0,4.0,100.0,,,,,,,,,,,,,,,,,,,,,,,,,,,,,,,,,,,,,,,,,,,,,,,,,,,,,,,,,,,,,,,,,,,,,,,,,,,,,,,,,,,,,,,,,,,,,,,,,,,,,,,,,,,,,,,,,,,,,,,,,,,,,,,,,,,
1725710418.408564,1725710418.40914,47.0,0.0,4264.230957,4256.922852,4279.230957,4312.436035,4230.512695,4236.538574,4169.871582,4241.666504,4263.077148,4212.563965,4553.077148,4523.846191,4376.282227,4450.769043,0.0,1.0,15.0,,,,0.0,4.0,4.0,4.0,4.0,4.0,4.0,4.0,4.0,4.0,4.0,4.0,4.0,4.0,4.0,100.0,,,,,,,,,,,,,,,,,,,,,,,,,,,,,,,,,,,,,,,,,,,,,,,,,,,,,,,,,,,,,,,,,,,,,,,,,,,,,,,,,,,,,,,,,,,,,,,,,,,,,,,,,,,,,,,,,,,,,,,,,,,,,,,,,,,
1725710418.412469,1725710418.413045,48.0,0.0,4263.077148,4257.692383,4277.94873,4310.256348,4230.0,4233.077148,4170.384766,4238.846191,4265.769043,4212.692383,4552.05127,4521.153809,4370.641113,4446.666504,0.0,1.0,15.0,,,,0.0,4.0,4.0,4.0,4.0,4.0,4.0,4.0,4.0,4.0,4.0,4.0,4.0,4.0,4.0,100.0,,,,,,,,,,,,,,,,,1.0,0.0,0.0,,,,,,,,,,,,,,,,,,,,,,,,,,,,,,,,,,,,,0.0,0.0,1.0,0.0,1.0,0.0,1.393347,0.815563,0.42504,0.270413,0.075102,1.312704,1.025819,0.348461,0.389358,0.113001,1.328975,0.874779,0.233621,0.133185,0.041727,1.17413,1.452178,0.2945,0.435417,0.144326,0.190668,0.409461,0.235417,0.086567,0.020542,0.258217,0.311966,0.181451,0.081758,0.06397,3.634974,1.196797,0.294544,0.108789,0.145243,0.996062,2.5517,0.648229,0.355512,0.121703,1.259441,1.492144,0.208202,0.230675,0.135619,1.442771,1.271132,0.188347,0.239591,0.120249,3.192624,1.681448,0.621515,0.682159,0.345976,4.507111,2.441788,0.310678,0.498278,0.156295,3.007043,1.78856,0.40799,0.463029,0.165975,2.815246,1.62058,0.747913,0.283161,0.117516
1725710418.416373,1725710418.416849,49.0,0.0,4263.205078,4260.0,4277.692383,4308.846191,4230.769043,4232.179688,4171.794922,4237.820313,4267.94873,4213.333496,4550.641113,4521.025879,4372.692383,4446.922852,0.0,1.0,15.0,,,,0.0,4.0,4.0,4.0,4.0,4.0,4.0,4.0,4.0,4.0,4.0,4.0,4.0,4.0,4.0,100.0,,,,,,,,,,,,,,,,,,,,,,,,,,,,,,,,,,,,,,,,,,,,,,,,,,,,,,,,,,,,,,,,,,,,,,,,,,,,,,,,,,,,,,,,,,,,,,,,,,,,,,,,,,,,,,,,,,,,,,,,,,,,,,,,,,,
1725710418.420277,1725710418.420753,50.0,0.0,4264.358887,4261.666504,4277.820313,4309.358887,4232.563965,4234.102539,4172.820313,4239.230957,4267.436035,4213.846191,4548.717773,4522.436035,4380.769043,4450.256348,0.0,1.0,15.0,,,,0.0,4.0,4.0,4.0,4.0,4.0,4.0,4.0,4.0,4.0,4.0,4.0,4.0,4.0,4.0,100.0,,,,,,,,,,,,,,,,,,,,,,,,,,,,,,,,,,,,,,,,,,,,,,,,,,,,,,,,,,,,,,,,,,,,,,,,,,,,,,,,,,,,,,,,,,,,,,,,,,,,,,,,,,,,,,,,,,,,,,,,,,,,,,,,,,,
1725710418.424181,1725710418.424657,51.0,0.0,4265.641113,4262.05127,4278.333496,4311.666504,4233.717773,4236.794922,4172.436035,4242.05127,4264.871582,4215.256348,4547.563965,4523.717773,4389.615234,4453.974121,0.0,1.0,15.0,,,,0.0,4.0,4.0,4.0,4.0,4.0,4.0,4.0,4.0,4.0,4.0,4.0,4.0,4.0,4.0,100.0,,,,,,,,,,,,,,,,,,,,,,,,,,,,,,,,,,,,,,,,,,,,,,,,,,,,,,,,,,,,,,,,,,,,,,,,,,,,,,,,,,,,,,,,,,,,,,,,,,,,,,,,,,,,,,,,,,,,,,,,,,,,,,,,,,,
1725710418.428085,1725710418.428561,52.0,0.0,4265.897461,4262.179688,4278.717773,4314.358887,4233.077148,4238.717773,4171.025879,4245.128418,4263.333496,4219.358887,4549.615234,4524.230957,4395.512695,4456.410156,0.0,1.0,15.0,,,,0.0,4.0,4.0,4.0,4.0,4.0,4.0,4.0,4.0,4.0,4.0,4.0,4.0,4.0,4.0,100.0,,,,,,,,,,,,,,,,,,,,,,,,,,,,,,,,,,,,,,,,,,,,,,,,,,,,,,,,,,,,,,,,,,,,,,,,,,,,,,,,,,,,,,,,,,,,,,,,,,,,,,,,,,,,,,,,,,,,,,,,,,,,,,,,,,,
1725710418.431989,1725710418.432365,53.0,0.0,4265.384766,4263.077148,4278.974121,4316.794922,4230.641113,4239.871582,4169.871582,4247.436035,4265.256348,4225.897461,4556.282227,4524.743652,4397.94873,4457.94873,0.0,1.0,15.0,,,,0.0,4.0,4.0,4.0,4.0,4.0,4.0,4.0,4.0,4.0,4.0,4.0,4.0,4.0,4.0,100.0,,,,,,,,,,,,,,,,,,,,,,,,,,,,,,,,,,,,,,,,,,,,,,,,,,,,,,,,,,,,,,,,,,,,,,,,,,,,,,,,,,,,,,,,,,,,,,,,,,,,,,,,,,,,,,,,,,,,,,,,,,,,,,,,,,,
1725710418.435893,1725710418.436269,54.0,0.0,4264.615234,4264.358887,4279.102539,4318.974121,4227.307617,4241.282227,4170.128418,4248.589844,4270.128418,4232.179688,4565.128418,4526.794922,4398.205078,4460.256348,0.0,1.0,15.0,,,,0.0,4.0,4.0,4.0,4.0,4.0,4.0,4.0,4.0,4.0,4.0,4.0,4.0,4.0,4.0,100.0,,,,,,,,,,,,,,,,,,,,,,,,,,,,,,,,,,,,,,,,,,,,,,,,,,,,,,,,,,,,,,,,,,,,,,,,,,,,,,,,,,,,,,,,,,,,,,,,,,,,,,,,,,,,,,,,,,,,,,,,,,,,,,,,,,,
1725710418.439797,1725710418.440173,55.0,0.0,4264.615234,4264.102539,4279.358887,4321.153809,4225.128418,4243.589844,4171.282227,4248.717773,4275.0,4234.358887,4571.282227,4530.641113,4398.333496,4463.205078,0.0,1.0,15.0,,,,0.0,4.0,4.0,4.0,4.0,4.0,4.0,4.0,4.0,4.0,4.0,4.0,4.0,4.0,4.0,100.0,,,,,,,,,,,,,,,,,,,,,,,,,,,,,,,,,,,,,,,,,,,,,,,,,,,,,,,,,,,,,,,,,,,,,,,,,,,,,,,,,,,,,,,,,,,,,,,,,,,,,,,,,,,,,,,,,,,,,,,,,,,,,,,,,,,
1725710418.443701,1725710418.444177,56.0,0.0,4265.769043,4260.641113,4279.615234,4323.077148,4225.641113,4245.769043,4171.794922,4248.333496,4276.666504,4231.794922,4571.410156,4533.974121,4398.333496,4465.512695,0.0,1.0,15.0,,,,0.0,4.0,4.0,4.0,4.0,4.0,4.0,4.0,4.0,4.0,4.0,4.0,4.0,4.0,4.0,100.0,,,,,,,,,,,,,,,,,,,,,,,,,,,,,,,,,,,,,,,,,,,,,,,,,,,,,,,,0.0,0.0,1.0,0.0,1.0,0.0,,,,,,,,,,,,,,,,,,,,,,,,,,,,,,,,,,,,,,,,,,,,,,,,,,,,,,,,,,,,,,,,,,,,,,
1725710418.447605,1725710418.448082,57.0,0.0,4267.307617,4254.487305,4279.871582,4323.717773,4228.205078,4245.769043,4170.897461,4248.077148,4274.615234,4226.282227,4566.153809,4534.230957,4397.179688,4465.769043,0.0,1.0,15.0,,,,0.0,4.0,4.0,4.0,4.0,4.0,4.0,4.0,4.0,4.0,4.0,4.0,4.0,4.0,4.0,100.0,,,,,,,,,,,,,,,,,,,,,,,,,,,,,,,,,,,,,,,,,,,,,,,,,,,,,,,,,,,,,,,,,,,,,,,,,,,,,,,,,,,,,,,,,,,,,,,,,,,,,,,,,,,,,,,,,,,,,,,,,,,,,,,,,,,
1725710418.45151,1725710418.451986,58.0,0.0,4268.077148,4247.94873,4279.615234,4322.820313,4230.256348,4243.333496,4169.487305,4248.333496,4270.512695,4220.384766,4560.512695,4530.897461,4393.974121,4463.589844,0.0,1.0,15.0,,,,0.0,4.0,4.0,4.0,4.0,4.0,4.0,4.0,4.0,4.0,4.0,4.0,4.0,4.0,4.0,100.0,,,,,,,,,,,,,,,,,,,,,,,,,,,,,,,,,,,,,,,,,,,,,,,,,,,,,,,,,,,,,,,,,,,,,,,,,,,,,,,,,,,,,,,,,,,,,,,,,,,,,,,,,,,,,,,,,,,,,,,,,,,,,,,,,,,
1725710418.455414,1725710418.45599,59.0,0.0,4266.794922,4244.230957,4278.717773,4320.769043,4229.487305,4239.615234,4168.717773,4248.974121,4266.922852,4215.641113,4559.230957,4526.153809,4389.743652,4460.384766,0.0,1.0,15.0,,,,0.0,4.0,4.0,4.0,4.0,4.0,4.0,4.0,4.0,4.0,4.0,4.0,4.0,4.0,4.0,100.0,,,,,,,,,,,,,,,,,,,,,,,,,,,,,,,,,,,,,,,,,,,,,,,,,,,,,,,,,,,,,,,,,,,,,,,,,,,,,,,,,,,,,,,,,,,,,,,,,,,,,,,,,,,,,,,,,,,,,,,,,,,,,,,,,,,
1725710418.459318,1725710418.459894,60.0,0.0,4263.846191,4244.743652,4277.436035,4319.230957,4225.897461,4236.538574,4168.974121,4249.230957,4265.128418,4211.538574,4563.205078,4522.692383,4386.282227,4458.077148,0.0,1.0,15.0,,,,0.0,4.0,4.0,4.0,4.0,4.0,4.0,4.0,4.0,4.0,4.0,4.0,4.0,4.0,4.0,100.0,,,,,,,,,,,,,,,,,,,,,,,,,,,,,,,,,,,,,,,,,,,,,,,,,,,,,,,,,,,,,,,,,,,,,,,,,,,,,,,,,,,,,,,,,,,,,,,,,,,,,,,,,,,,,,,,,,,,,,,,,,,,,,,,,,,
1725710418.463222,1725710418.463798,61.0,0.0,4260.512695,4247.94873,4276.153809,4318.846191,4221.538574,4234.615234,4169.615234,4248.846191,4264.358887,4208.077148,4568.589844,4521.410156,4385.128418,4457.179688,0.0,1.0,15.0,,,,0.0,4.0,4.0,4.0,4.0,4.0,4.0,4.0,4.0,4.0,4.0,4.0,4.0,4.0,4.0,100.0,,,,,,,,,,,,,,,,,,,,,,,,,,,,,,,,,,,,,,,,,,,,,,,,,,,,,,,,,,,,,,,,,,,,,,,,,,,,,,,,,,,,,,,,,,,,,,,,,,,,,,,,,,,,,,,,,,,,,,,,,,,,,,,,,,,
1725710418.467126,1725710418.467702,62.0,0.0,4258.077148,4250.256348,4275.384766,4319.871582,4218.974121,4233.717773,4169.743652,4248.461426,4264.230957,4206.282227,4571.025879,4521.794922,4386.666504,4457.307617,0.0,1.0,15.0,,,,0.0,4.0,4.0,4.0,4.0,4.0,4.0,4.0,4.0,4.0,4.0,4.0,4.0,4.0,4.0,100.0,,,,,,,,,,,,,,,,,,,,,,,,,,,,,,,,,,,,,,,,,,,,,,,,,,,,,,,,,,,,,,,,,,,,,,,,,,,,,,,,,,,,,,,,,,,,,,,,,,,,,,,,,,,,,,,,,,,,,,,,,,,,,,,,,,,
1725710418.47103,1725710418.471606,63.0,0.0,4257.563965,4249.743652,4275.384766,4321.794922,4220.256348,4233.589844,4169.871582,4249.487305,4264.743652,4208.589844,4570.128418,4523.333496,4390.0,4457.692383,0.0,1.0,15.0,,,,0.0,4.0,4.0,4.0,4.0,4.0,4.0,4.0,4.0,4.0,4.0,4.0,4.0,4.0,4.0,100.0,,,,,,,,,,,,,,,,,,,,,,,,,,,,,,,,,,,,,,,,,,,,,,,,,,,,,,,,,,,,,,,,,,,,,,,,,,,,,,,,,,,,,,,,,,,,,,,,,,,,,,,,,,,,,,,,,,,,,,,,,,,,,,,,,,,
1725710418.474934,1725710418.47561,64.0,0.0,4258.974121,4246.794922,4276.025879,4324.615234,4224.615234,4234.615234,4171.025879,4252.692383,4267.179688,4216.666504,4570.0,4526.282227,4394.615234,4458.846191,0.0,1.0,15.0,,,,0.0,4.0,4.0,4.0,4.0,4.0,4.0,4.0,4.0,4.0,4.0,4.0,4.0,4.0,4.0,100.0,,,,,,,,,,,,,,,,,,,,,,,,,,,,,,,,,,,,,,,,,,,,,,,,,,,,,,,,0.0,0.0,1.0,0.0,1.0,0.0,,,,,,,,,,,,,,,,,,,,,,,,,,,,,,,,,,,,,,,,,,,,,,,,,,,,,,,,,,,,,,,,,,,,,,
1725710418.478838,1725710418.479514,65.0,0.0,4261.666504,4244.102539,4276.922852,4328.974121,4230.0,4237.307617,4173.974121,4257.563965,4272.05127,4228.589844,4574.743652,4530.256348,4399.487305,4461.282227,0.0,1.0,15.0,,,,0.0,4.0,4.0,4.0,4.0,4.0,4.0,4.0,4.0,4.0,4.0,4.0,4.0,4.0,4.0,100.0,,,,,,,,,,,,,,,,,,,,,,,,,,,,,,,,,,,,,,,,,,,,,,,,,,,,,,,,,,,,,,,,,,,,,,,,,,,,,,,,,,,,,,,,,,,,,,,,,,,,,,,,,,,,,,,,,,,,,,,,,,,,,,,,,,,
1725710418.482742,1725710418.483418,66.0,0.0,4264.743652,4243.205078,4277.94873,4334.230957,4233.333496,4240.769043,4178.846191,4261.282227,4277.94873,4238.846191,4583.589844,4533.461426,4402.563965,4463.846191,0.0,1.0,15.0,,,,0.0,4.0,4.0,4.0,4.0,4.0,4.0,4.0,4.0,4.0,4.0,4.0,4.0,4.0,4.0,100.0,,,,,,,,,,,,,,,,,,,,,,,,,,,,,,,,,,,,,,,,,,,,,,,,,,,,,,,,,,,,,,,,,,,,,,,,,,,,,,,,,,,,,,,,,,,,,,,,,,,,,,,,,,,,,,,,,,,,,,,,,,,,,,,,,,,
1725710418.486647,1725710418.487322,67.0,0.0,4266.666504,4244.230957,4278.717773,4339.102539,4233.589844,4243.846191,4184.230957,4261.410156,4281.410156,4241.282227,4591.410156,4533.333496,4401.922852,4464.358887,0.0,1.0,15.0,,,,0.0,4.0,4.0,4.0,4.0,4.0,4.0,4.0,4.0,4.0,4.0,4.0,4.0,4.0,4.0,100.0,,,,,,,,,,,,,,,,,,,,,,,,,,,,,,,,,,,,,,,,,,,,,,,,,,,,,,,,,,,,,,,,,,,,,,,,,,,,,,,,,,,,,,,,,,,,,,,,,,,,,,,,,,,,,,,,,,,,,,,,,,,,,,,,,,,
1725710418.490551,1725710418.491127,68.0,0.0,4266.666504,4246.153809,4279.230957,4342.05127,4232.05127,4245.641113,4188.333496,4257.820313,4279.102539,4233.461426,4593.846191,4529.615234,4398.077148,4462.179688,0.0,1.0,15.0,,,,0.0,4.0,4.0,4.0,4.0,4.0,4.0,4.0,4.0,4.0,4.0,4.0,4.0,4.0,4.0,100.0,,,,,,,,,,,,,,,,,,,,,,,,,,,,,,,,,,,,,,,,,,,,,,,,,,,,,,,,,,,,,,,,,,,,,,,,,,,,,,,,,,,,,,,,,,,,,,,,,,,,,,,,,,,,,,,,,,,,,,,,,,,,,,,,,,,
1725710418.494455,1725710418.495031,69.0,0.0,4265.256348,4248.461426,4279.230957,4342.94873,4230.769043,4246.794922,4190.0,4253.846191,4271.922852,4220.512695,4591.666504,4525.128418,4393.846191,4459.743652,0.0,1.0,15.0,,,,0.0,4.0,4.0,4.0,4.0,4.0,4.0,4.0,4.0,4.0,4.0,4.0,4.0,4.0,4.0,100.0,,,,,,,,,,,,,,,,,,,,,,,,,,,,,,,,,,,,,,,,,,,,,,,,,,,,,,,,,,,,,,,,,,,,,,,,,,,,,,,,,,,,,,,,,,,,,,,,,,,,,,,,,,,,,,,,,,,,,,,,,,,,,,,,,,,
1725710418.498359,1725710418.498935,70.0,0.0,4263.589844,4251.153809,4279.230957,4343.461426,4231.538574,4247.820313,4189.230957,4253.205078,4264.615234,4211.922852,4589.230957,4524.487305,4392.820313,4460.512695,0.0,1.0,15.0,,,,0.0,4.0,4.0,4.0,4.0,4.0,4.0,4.0,4.0,4.0,4.0,4.0,4.0,4.0,4.0,100.0,,,,,,,,,,,,,,,,,,,,,,,,,,,,,,,,,,,,,,,,,,,,,,,,,,,,,,,,,,,,,,,,,,,,,,,,,,,,,,,,,,,,,,,,,,,,,,,,,,,,,,,,,,,,,,,,,,,,,,,,,,,,,,,,,,,
1725710418.502263,1725710418.502839,71.0,0.0,4263.717773,4254.615234,4279.743652,4345.0,4233.589844,4248.974121,4187.179688,4256.666504,4262.307617,4213.461426,4591.538574,4529.871582,4397.05127,4466.153809,0.0,1.0,15.0,,,,0.0,4.0,4.0,4.0,4.0,4.0,4.0,4.0,4.0,4.0,4.0,4.0,4.0,4.0,4.0,100.0,,,,,,,,,,,,,,,,,,,,,,,,,,,,,,,,,,,,,,,,,,,,,,,,,,,,,,,,,,,,,,,,,,,,,,,,,,,,,,,,,,,,,,,,,,,,,,,,,,,,,,,,,,,,,,,,,,,,,,,,,,,,,,,,,,,
1725710418.506167,1725710418.506643,72.0,0.0,4266.538574,4257.94873,4280.641113,4347.820313,4235.128418,4249.743652,4185.128418,4260.769043,4265.128418,4221.794922,4599.230957,4538.077148,4404.615234,4474.230957,0.0,1.0,15.0,,,,0.0,4.0,4.0,4.0,4.0,4.0,4.0,4.0,4.0,4.0,4.0,4.0,4.0,4.0,4.0,100.0,,,,,,,,,,,,,,,,,,,,,,,,,,,,,,,,,,,,,,,,,,,,,,,,,,,,,,,,0.0,0.0,1.0,0.0,1.0,0.0,,,,,,,,,,,,,,,,,,,,,,,,,,,,,,,,,,,,,,,,,,,,,,,,,,,,,,,,,,,,,,,,,,,,,,
1725710418.510071,1725710418.510547,73.0,0.0,4271.282227,4260.0,4281.922852,4350.897461,4235.128418,4249.743652,4183.846191,4260.897461,4268.717773,4227.563965,4608.717773,4543.077148,4410.769043,4479.871582,0.0,1.0,15.0,,,,0.0,4.0,4.0,4.0,4.0,4.0,4.0,4.0,4.0,4.0,4.0,4.0,4.0,4.0,4.0,100.0,,,,,,,,,,,,,,,,,,,,,,,,,,,,,,,,,,,,,,,,,,,,,,,,,,,,,,,,,,,,,,,,,,,,,,,,,,,,,,,,,,,,,,,,,,,,,,,,,,,,,,,,,,,,,,,,,,,,,,,,,,,,,,,,,,,
1725710418.513975,1725710418.514451,74.0,0.0,4276.025879,4260.512695,4283.333496,4351.794922,4234.102539,4249.487305,4183.461426,4254.871582,4268.077148,4223.717773,4615.128418,4541.153809,4410.897461,4479.487305,0.0,1.0,15.0,,,,0.0,4.0,4.0,4.0,4.0,4.0,4.0,4.0,4.0,4.0,4.0,4.0,4.0,4.0,4.0,100.0,,,,,,,,,,,,,,,,,,,,,,,,,,,,,,,,,,,,,,,,,,,,,,,,,,,,,,,,,,,,,,,,,,,,,,,,,,,,,,,,,,,,,,,,,,,,,,,,,,,,,,,,,,,,,,,,,,,,,,,,,,,,,,,,,,,
1725710418.517879,1725710418.518355,75.0,0.0,4279.102539,4260.384766,4285.256348,4349.615234,4233.846191,4248.846191,4183.974121,4245.512695,4262.563965,4211.922852,4616.410156,4533.974121,4404.230957,4473.846191,0.0,1.0,15.0,,,,0.0,4.0,4.0,4.0,4.0,4.0,4.0,4.0,4.0,4.0,4.0,4.0,4.0,4.0,4.0,100.0,,,,,,,,,,,,,,,,,,,,,,,,,,,,,,,,,,,,,,,,,,,,,,,,,,,,,,,,,,,,,,,,,,,,,,,,,,,,,,,,,,,,,,,,,,,,,,,,,,,,,,,,,,,,,,,,,,,,,,,,,,,,,,,,,,,
1725710418.521783,1725710418.52216,76.0,0.0,4279.743652,4261.410156,4287.94873,4345.641113,4235.0,4248.205078,4184.871582,4237.692383,4255.897461,4200.128418,4615.0,4527.05127,4394.102539,4467.436035,0.0,1.0,15.0,,,,0.0,4.0,4.0,4.0,4.0,4.0,4.0,4.0,4.0,4.0,4.0,4.0,4.0,4.0,4.0,100.0,,,,,,,,,,,,,,,,,,,,,,,,,,,,,,,,,,,,,,,,,,,,,,,,,,,,,,,,,,,,,,,,,,,,,,,,,,,,,,,,,,,,,,,,,,,,,,,,,,,,,,,,,,,,,,,,,,,,,,,,,,,,,,,,,,,
1725710418.525688,1725710418.526064,77.0,0.0,4279.230957,4263.333496,4290.512695,4342.436035,4235.897461,4247.307617,4185.384766,4235.641113,4253.077148,4195.897461,4614.487305,4525.769043,4385.897461,4465.641113,0.0,1.0,15.0,,,,0.0,4.0,4.0,4.0,4.0,4.0,4.0,4.0,4.0,4.0,4.0,4.0,4.0,4.0,4.0,100.0,,,,,,,,,,,,,,,,,,,,,,,,,,,,,,,,,,,,,,,,,,,,,,,,,,,,,,,,,,,,,,,,,,,,,,,,,,,,,,,,,,,,,,,,,,,,,,,,,,,,,,,,,,,,,,,,,,,,,,,,,,,,,,,,,,,
1725710418.529592,1725710418.529968,78.0,0.0,4278.717773,4264.615234,4292.05127,4341.794922,4234.871582,4245.897461,4184.487305,4239.230957,4256.025879,4201.538574,4616.410156,4531.282227,4384.615234,4469.743652,0.0,1.0,15.0,,,,0.0,4.0,4.0,4.0,4.0,4.0,4.0,4.0,4.0,4.0,4.0,4.0,4.0,4.0,4.0,100.0,,,,,,,,,,,,,,,,,,,,,,,,,,,,,,,,,,,,,,,,,,,,,,,,,,,,,,,,,,,,,,,,,,,,,,,,,,,,,,,,,,,,,,,,,,,,,,,,,,,,,,,,,,,,,,,,,,,,,,,,,,,,,,,,,,,
1725710418.533496,1725710418.533872,79.0,0.0,4278.717773,4263.333496,4292.05127,4342.692383,4232.179688,4243.974121,4181.410156,4244.871582,4262.307617,4213.205078,4618.589844,4539.358887,4391.025879,4475.897461,0.0,1.0,15.0,,,,0.0,4.0,4.0,4.0,4.0,4.0,4.0,4.0,4.0,4.0,4.0,4.0,4.0,4.0,4.0,100.0,,,,,,,,,,,,,,,,,,,,,,,,,,,,,,,,,,,,,,,,,,,,,,,,,,,,,,,,,,,,,,,,,,,,,,,,,,,,,,,,,,,,,,,,,,,,,,,,,,,,,,,,,,,,,,,,,,,,,,,,,,,,,,,,,,,
1725710418.5374,1725710418.537676,80.0,0.0,4278.846191,4259.102539,4291.410156,4342.820313,4230.128418,4241.794922,4176.794922,4248.846191,4267.563965,4223.717773,4617.820313,4544.102539,4400.384766,4478.846191,0.0,1.0,15.0,,,,0.0,4.0,4.0,4.0,4.0,4.0,4.0,4.0,4.0,4.0,4.0,4.0,4.0,4.0,4.0,100.0,,,,,,,,,,,,,,,,,1.0,0.0,0.0,,,,,,,,,,,,,,,,,,,,,,,,,,,,,,,,,,,,,0.0,0.0,1.0,0.0,1.0,0.0,1.258425,0.710013,0.383921,0.209849,0.069779,1.208432,0.777856,0.328749,0.333897,0.105287,1.210984,0.819403,0.228056,0.106196,0.040975,1.084255,1.171006,0.335575,0.382749,0.140574,0.180062,0.385669,0.218651,0.07253,0.020441,0.390446,0.311974,0.182674,0.091338,0.075663,3.941395,0.923203,0.328739,0.103533,0.135056,1.174838,2.495291,0.578564,0.309887,0.13587,1.648702,1.577869,0.217578,0.193932,0.138315,1.603039,1.268806,0.176448,0.232622,0.118031,3.162328,1.67812,0.562823,0.657271,0.326251,4.686907,2.228251,0.296776,0.40645,0.15289,2.904579,1.397079,0.350789,0.491328,0.162813,2.502837,1.245965,0.763113,0.241707,0.111555
1725710418.541304,1725710418.54158,81.0,0.0,4278.717773,4253.461426,4290.769043,4340.641113,4230.256348,4240.512695,4172.307617,4249.743652,4268.333496,4228.077148,4613.333496,4542.94873,4405.128418,4475.769043,0.0,1.0,15.0,,,,0.0,4.0,4.0,4.0,4.0,4.0,4.0,4.0,4.0,4.0,4.0,4.0,4.0,4.0,4.0,100.0,,,,,,,,,,,,,,,,,,,,,,,,,,,,,,,,,,,,,,,,,,,,,,,,,,,,,,,,,,,,,,,,,,,,,,,,,,,,,,,,,,,,,,,,,,,,,,,,,,,,,,,,,,,,,,,,,,,,,,,,,,,,,,,,,,,
1725710418.545208,1725710418.545484,82.0,0.0,4278.461426,4248.974121,4290.641113,4337.179688,4232.05127,4240.769043,4169.358887,4247.94873,4264.871582,4225.128418,4608.717773,4537.563965,4400.384766,4469.102539,0.0,1.0,15.0,,,,0.0,4.0,4.0,4.0,4.0,4.0,4.0,4.0,4.0,4.0,4.0,4.0,4.0,4.0,4.0,100.0,,,,,,,,,,,,,,,,,,,,,,,,,,,,,,,,,,,,,,,,,,,,,,,,,,,,,,,,,,,,,,,,,,,,,,,,,,,,,,,,,,,,,,,,,,,,,,,,,,,,,,,,,,,,,,,,,,,,,,,,,,,,,,,,,,,
1725710418.549112,1725710418.549488,83.0,0.0,4278.205078,4247.563965,4290.897461,4335.384766,4232.820313,4242.563965,4168.205078,4245.384766,4260.0,4217.94873,4607.820313,4531.922852,4387.563965,4463.589844,0.0,1.0,15.0,,,,0.0,4.0,4.0,4.0,4.0,4.0,4.0,4.0,4.0,4.0,4.0,4.0,4.0,4.0,4.0,100.0,,,,,,,,,,,,,,,,,,,,,,,,,,,,,,,,,,,,,,,,,,,,,,,,,,,,,,,,,,,,,,,,,,,,,,,,,,,,,,,,,,,,,,,,,,,,,,,,,,,,,,,,,,,,,,,,,,,,,,,,,,,,,,,,,,,
1725710418.553016,1725710418.553392,84.0,0.0,4277.692383,4248.717773,4290.641113,4337.563965,4230.641113,4244.615234,4167.94873,4243.589844,4257.05127,4210.256348,4611.794922,4529.358887,4374.358887,4462.820313,0.0,1.0,15.0,,,,0.0,4.0,4.0,4.0,4.0,4.0,4.0,4.0,4.0,4.0,4.0,4.0,4.0,4.0,4.0,100.0,,,,,,,,,,,,,,,,,,,,,,,,,,,,,,,,,,,,,,,,,,,,,,,,,,,,,,,,,,,,,,,,,,,,,,,,,,,,,,,,,,,,,,,,,,,,,,,,,,,,,,,,,,,,,,,,,,,,,,,,,,,,,,,,,,,
1725710418.55692,1725710418.557297,85.0,0.0,4276.282227,4250.641113,4289.230957,4342.563965,4225.769043,4245.897461,4167.820313,4243.717773,4257.307617,4204.615234,4618.461426,4530.641113,4368.461426,4467.05127,0.0,1.0,15.0,,,,0.0,4.0,4.0,4.0,4.0,4.0,4.0,4.0,4.0,4.0,4.0,4.0,4.0,4.0,4.0,100.0,,,,,,,,,,,,,,,,,,,,,,,,,,,,,,,,,,,,,,,,,,,,,,,,,,,,,,,,,,,,,,,,,,,,,,,,,,,,,,,,,,,,,,,,,,,,,,,,,,,,,,,,,,,,,,,,,,,,,,,,,,,,,,,,,,,
1725710418.560825,1725710418.561301,86.0,0.0,4273.589844,4251.410156,4286.538574,4346.538574,4220.512695,4246.538574,4168.589844,4246.538574,4259.871582,4202.05127,4624.871582,4534.871582,4373.333496,4472.820313,0.0,1.0,15.0,,,,0.0,4.0,4.0,4.0,4.0,4.0,4.0,4.0,4.0,4.0,4.0,4.0,4.0,4.0,4.0,100.0,,,,,,,,,,,,,,,,,,,,,,,,,,,,,,,,,,,,,,,,,,,,,,,,,,,,,,,,,,,,,,,,,,,,,,,,,,,,,,,,,,,,,,,,,,,,,,,,,,,,,,,,,,,,,,,,,,,,,,,,,,,,,,,,,,,
1725710418.564729,1725710418.565205,87.0,0.0,4269.871582,4250.256348,4283.333496,4346.025879,4217.307617,4246.794922,4171.538574,4251.410156,4263.077148,4201.922852,4628.461426,4539.487305,4385.384766,4476.282227,0.0,1.0,15.0,,,,0.0,4.0,4.0,4.0,4.0,4.0,4.0,4.0,4.0,4.0,4.0,4.0,4.0,4.0,4.0,100.0,,,,,,,,,,,,,,,,,,,,,,,,,,,,,,,,,,,,,,,,,,,,,,,,,,,,,,,,,,,,,,,,,,,,,,,,,,,,,,,,,,,,,,,,,,,,,,,,,,,,,,,,,,,,,,,,,,,,,,,,,,,,,,,,,,,
1725710418.568633,1725710418.569109,88.0,0.0,4266.282227,4248.333496,4280.769043,4340.897461,4217.179688,4247.436035,4176.922852,4256.282227,4265.384766,4203.846191,4629.102539,4541.922852,4397.179688,4475.769043,0.0,1.0,15.0,,,,0.0,4.0,4.0,4.0,4.0,4.0,4.0,4.0,4.0,4.0,4.0,4.0,4.0,4.0,4.0,100.0,,,,,,,,,,,,,,,,,,,,,,,,,,,,,,,,,,,,,,,,,,,,,,,,,,,,,,,,0.0,0.0,1.0,0.0,1.0,0.0,,,,,,,,,,,,,,,,,,,,,,,,,,,,,,,,,,,,,,,,,,,,,,,,,,,,,,,,,,,,,,,,,,,,,,
1725710418.572537,1725710418.573013,89.0,0.0,4263.974121,4247.05127,4279.743652,4334.871582,4219.230957,4248.077148,4184.102539,4258.717773,4266.794922,4207.436035,4627.563965,4540.512695,4402.563965,4471.794922,0.0,1.0,15.0,,,,0.0,4.0,4.0,4.0,4.0,4.0,4.0,4.0,4.0,4.0,4.0,4.0,4.0,4.0,4.0,100.0,,,,,,,,,,,,,,,,,,,,,,,,,,,,,,,,,,,,,,,,,,,,,,,,,,,,,,,,,,,,,,,,,,,,,,,,,,,,,,,,,,,,,,,,,,,,,,,,,,,,,,,,,,,,,,,,,,,,,,,,,,,,,,,,,,,
1725710418.576441,1725710418.576917,90.0,0.0,4263.846191,4246.922852,4280.384766,4331.922852,4221.025879,4247.94873,4190.769043,4257.05127,4267.307617,4212.307617,4625.384766,4535.769043,4399.871582,4466.666504,0.0,1.0,15.0,,,,0.0,4.0,4.0,4.0,4.0,4.0,4.0,4.0,4.0,4.0,4.0,4.0,4.0,4.0,4.0,100.0,,,,,,,,,,,,,,,,,,,,,,,,,,,,,,,,,,,,,,,,,,,,,,,,,,,,,,,,,,,,,,,,,,,,,,,,,,,,,,,,,,,,,,,,,,,,,,,,,,,,,,,,,,,,,,,,,,,,,,,,,,,,,,,,,,,
1725710418.580345,1725710418.580921,91.0,0.0,4265.512695,4247.563965,4281.922852,4333.461426,4220.897461,4246.794922,4194.102539,4251.666504,4266.922852,4216.794922,4623.461426,4529.358887,4391.666504,4462.307617,0.0,1.0,15.0,,,,0.0,4.0,4.0,4.0,4.0,4.0,4.0,4.0,4.0,4.0,4.0,4.0,4.0,4.0,4.0,100.0,,,,,,,,,,,,,,,,,,,,,,,,,,,,,,,,,,,,,,,,,,,,,,,,,,,,,,,,,,,,,,,,,,,,,,,,,,,,,,,,,,,,,,,,,,,,,,,,,,,,,,,,,,,,,,,,,,,,,,,,,,,,,,,,,,,
1725710418.584249,1725710418.584825,92.0,0.0,4268.077148,4248.205078,4282.94873,4337.94873,4219.358887,4245.512695,4193.205078,4245.384766,4265.128418,4218.717773,4621.282227,4523.974121,4382.307617,4460.128418,0.0,1.0,15.0,,,,0.0,4.0,4.0,4.0,4.0,4.0,4.0,4.0,4.0,4.0,4.0,4.0,4.0,4.0,4.0,100.0,,,,,,,,,,,,,,,,,,,,,,,,,,,,,,,,,,,,,,,,,,,,,,,,,,,,,,,,,,,,,,,,,,,,,,,,,,,,,,,,,,,,,,,,,,,,,,,,,,,,,,,,,,,,,,,,,,,,,,,,,,,,,,,,,,,
1725710418.588153,1725710418.588729,93.0,0.0,4270.384766,4248.589844,4283.333496,4342.179688,4218.077148,4245.256348,4189.487305,4241.666504,4262.563965,4216.794922,4617.692383,4521.922852,4376.282227,4460.256348,0.0,1.0,15.0,,,,0.0,4.0,4.0,4.0,4.0,4.0,4.0,4.0,4.0,4.0,4.0,4.0,4.0,4.0,4.0,100.0,,,,,,,,,,,,,,,,,,,,,,,,,,,,,,,,,,,,,,,,,,,,,,,,,,,,,,,,,,,,,,,,,,,,,,,,,,,,,,,,,,,,,,,,,,,,,,,,,,,,,,,,,,,,,,,,,,,,,,,,,,,,,,,,,,,
1725710418.592057,1725710418.592633,94.0,0.0,4271.666504,4248.717773,4282.94873,4343.589844,4217.94873,4246.410156,4185.897461,4242.692383,4260.641113,4212.563965,4612.692383,4523.333496,4375.512695,4461.666504,0.0,1.0,15.0,,,,0.0,4.0,4.0,4.0,4.0,4.0,4.0,4.0,4.0,4.0,4.0,4.0,4.0,4.0,4.0,100.0,,,,,,,,,,,,,,,,,,,,,,,,,,,,,,,,,,,,,,,,,,,,,,,,,,,,,,,,,,,,,,,,,,,,,,,,,,,,,,,,,,,,,,,,,,,,,,,,,,,,,,,,,,,,,,,,,,,,,,,,,,,,,,,,,,,
1725710418.595961,1725710418.596438,95.0,0.0,4272.436035,4248.974121,4282.179688,4342.179688,4218.846191,4247.94873,4185.128418,4246.538574,4260.512695,4208.333496,4608.205078,4526.025879,4379.615234,4462.94873,0.0,1.0,15.0,,,,0.0,4.0,4.0,4.0,4.0,4.0,4.0,4.0,4.0,4.0,4.0,4.0,4.0,4.0,4.0,100.0,,,,,,,,,,,,,,,,,,,,,,,,,,,,,,,,,,,,,,,,,,,,,,,,,,,,,,,,,,,,,,,,,,,,,,,,,,,,,,,,,,,,,,,,,,,,,,,,,,,,,,,,,,,,,,,,,,,,,,,,,,,,,,,,,,,
1725710418.599865,1725710418.600342,96.0,0.0,4273.589844,4249.615234,4281.410156,4339.743652,4219.487305,4247.94873,4187.563965,4249.102539,4261.538574,4205.897461,4607.563965,4527.307617,4385.897461,4463.333496,0.0,1.0,15.0,,,,0.0,4.0,4.0,4.0,4.0,4.0,4.0,4.0,4.0,4.0,4.0,4.0,4.0,4.0,4.0,100.0,,,,,,,,,,,,,,,,,,,,,,,,,,,,,,,,,,,,,,,,,,,,,,,,,,,,,,,,0.0,0.0,1.0,0.0,1.0,0.0,,,,,,,,,,,,,,,,,,,,,,,,,,,,,,,,,,,,,,,,,,,,,,,,,,,,,,,,,,,,,,,,,,,,,,
1725710418.603769,1725710418.604246,97.0,0.0,4274.871582,4249.871582,4280.641113,4338.846191,4219.615234,4245.897461,4192.307617,4247.307617,4262.692383,4204.487305,4612.05127,4526.282227,4391.025879,4462.692383,0.0,1.0,15.0,,,,0.0,4.0,4.0,4.0,4.0,4.0,4.0,4.0,4.0,4.0,4.0,4.0,4.0,4.0,4.0,100.0,,,,,,,,,,,,,,,,,,,,,,,,,,,,,,,,,,,,,,,,,,,,,,,,,,,,,,,,,,,,,,,,,,,,,,,,,,,,,,,,,,,,,,,,,,,,,,,,,,,,,,,,,,,,,,,,,,,,,,,,,,,,,,,,,,,
1725710418.607674,1725710418.60815,98.0,0.0,4275.256348,4249.358887,4280.256348,4340.256348,4219.871582,4243.077148,4198.205078,4241.410156,4263.077148,4202.563965,4619.102539,4524.615234,4392.94873,4461.538574,0.0,1.0,15.0,,,,0.0,4.0,4.0,4.0,4.0,4.0,4.0,4.0,4.0,4.0,4.0,4.0,4.0,4.0,4.0,100.0,,,,,,,,,,,,,,,,,,,,,,,,,,,,,,,,,,,,,,,,,,,,,,,,,,,,,,,,,,,,,,,,,,,,,,,,,,,,,,,,,,,,,,,,,,,,,,,,,,,,,,,,,,,,,,,,,,,,,,,,,,,,,,,,,,,
1725710418.611578,1725710418.611954,99.0,0.0,4273.717773,4248.333496,4280.256348,4342.820313,4221.282227,4241.538574,4204.358887,4235.128418,4262.436035,4200.256348,4623.589844,4524.102539,4391.282227,4460.512695,0.0,1.0,15.0,,,,0.0,4.0,4.0,4.0,4.0,4.0,4.0,4.0,4.0,4.0,4.0,4.0,4.0,4.0,4.0,100.0,,,,,,,,,,,,,,,,,,,,,,,,,,,,,,,,,,,,,,,,,,,,,,,,,,,,,,,,,,,,,,,,,,,,,,,,,,,,,,,,,,,,,,,,,,,,,,,,,,,,,,,,,,,,,,,,,,,,,,,,,,,,,,,,,,,
1725710418.615482,1725710418.615858,100.0,0.0,4270.641113,4247.307617,4280.769043,4343.974121,4224.102539,4242.563965,4210.256348,4232.179688,4261.666504,4199.358887,4622.05127,4524.743652,4387.563965,4460.0,0.0,1.0,15.0,,,,0.0,4.0,4.0,4.0,4.0,4.0,4.0,4.0,4.0,4.0,4.0,4.0,4.0,4.0,4.0,100.0,,,,,,,,,,,,,,,,,,,,,,,,,,,,,,,,,,,,,,,,,,,,,,,,,,,,,,,,,,,,,,,,,,,,,,,,,,,,,,,,,,,,,,,,,,,,,,,,,,,,,,,,,,,,,,,,,,,,,,,,,,,,,,,,,,,
1725710418.619386,1725710418.619762,101.0,0.0,4268.589844,4246.538574,4281.410156,4342.820313,4227.436035,4245.512695,4216.025879,4232.820313,4261.410156,4201.794922,4614.871582,4525.641113,4383.974121,4460.256348,0.0,1.0,15.0,,,,0.0,4.0,4.0,4.0,4.0,4.0,4.0,4.0,4.0,4.0,4.0,4.0,4.0,4.0,4.0,100.0,,,,,,,,,,,,,,,,,,,,,,,,,,,,,,,,,,,,,,,,,,,,,,,,,,,,,,,,,,,,,,,,,,,,,,,,,,,,,,,,,,,,,,,,,,,,,,,,,,,,,,,,,,,,,,,,,,,,,,,,,,,,,,,,,,,
1725710418.62329,1725710418.623666,102.0,0.0,4268.974121,4246.538574,4282.05127,4340.641113,4230.0,4248.589844,4222.179688,4234.615234,4261.922852,4206.666504,4606.025879,4525.641113,4381.922852,4460.512695,0.0,1.0,15.0,,,,0.0,4.0,4.0,4.0,4.0,4.0,4.0,4.0,4.0,4.0,4.0,4.0,4.0,4.0,4.0,100.0,,,,,,,,,,,,,,,,,,,,,,,,,,,,,,,,,,,,,,,,,,,,,,,,,,,,,,,,,,,,,,,,,,,,,,,,,,,,,,,,,,,,,,,,,,,,,,,,,,,,,,,,,,,,,,,,,,,,,,,,,,,,,,,,,,,
1725710418.627194,1725710418.627471,103.0,0.0,4272.179688,4247.179688,4282.563965,4340.384766,4231.153809,4250.641113,4228.974121,4234.615234,4262.436035,4211.282227,4601.025879,4524.102539,4381.666504,4459.743652,0.0,1.0,15.0,,,,0.0,4.0,4.0,4.0,4.0,4.0,4.0,4.0,4.0,4.0,4.0,4.0,4.0,4.0,4.0,100.0,,,,,,,,,,,,,,,,,,,,,,,,,,,,,,,,,,,,,,,,,,,,,,,,,,,,,,,,,,,,,,,,,,,,,,,,,,,,,,,,,,,,,,,,,,,,,,,,,,,,,,,,,,,,,,,,,,,,,,,,,,,,,,,,,,,
1725710418.631098,1725710418.631375,104.0,0.0,4276.410156,4248.205078,4282.94873,4343.077148,4231.282227,4251.025879,4235.512695,4232.436035,4262.563965,4213.077148,4603.077148,4522.307617,4382.94873,4458.205078,0.0,1.0,15.0,,,,0.0,4.0,4.0,4.0,4.0,4.0,4.0,4.0,4.0,4.0,4.0,4.0,4.0,4.0,4.0,100.0,,,,,,,,,,,,,,,,,,,,,,,,,,,,,,,,,,,,,,,,,,,,,,,,,,,,,,,,0.0,0.0,1.0,0.0,1.0,0.0,,,,,,,,,,,,,,,,,,,,,,,,,,,,,,,,,,,,,,,,,,,,,,,,,,,,,,,,,,,,,,,,,,,,,,
1725710418.635002,1725710418.635279,105.0,0.0,4279.743652,4249.102539,4282.820313,4347.436035,4231.153809,4250.384766,4240.897461,4230.769043,4262.436035,4211.410156,4610.256348,4521.666504,4385.128418,4457.179688,0.0,1.0,15.0,,,,0.0,4.0,4.0,4.0,4.0,4.0,4.0,4.0,4.0,4.0,4.0,4.0,4.0,4.0,4.0,100.0,,,,,,,,,,,,,,,,,,,,,,,,,,,,,,,,,,,,,,,,,,,,,,,,,,,,,,,,,,,,,,,,,,,,,,,,,,,,,,,,,,,,,,,,,,,,,,,,,,,,,,,,,,,,,,,,,,,,,,,,,,,,,,,,,,,
1725710418.638906,1725710418.639183,106.0,0.0,4280.641113,4249.615234,4281.794922,4350.512695,4231.282227,4249.871582,4244.871582,4232.692383,4262.436035,4208.589844,4616.794922,4523.077148,4387.563965,4457.563965,0.0,1.0,15.0,,,,0.0,4.0,4.0,4.0,4.0,4.0,4.0,4.0,4.0,4.0,4.0,4.0,4.0,4.0,4.0,100.0,,,,,,,,,,,,,,,,,,,,,,,,,,,,,,,,,,,,,,,,,,,,,,,,,,,,,,,,,,,,,,,,,,,,,,,,,,,,,,,,,,,,,,,,,,,,,,,,,,,,,,,,,,,,,,,,,,,,,,,,,,,,,,,,,,,
1725710418.64281,1725710418.642987,107.0,0.0,4279.358887,4249.615234,4280.384766,4350.769043,4231.282227,4249.743652,4248.077148,4238.846191,4262.820313,4207.179688,4617.05127,4525.384766,4389.743652,4459.230957,0.0,1.0,15.0,,,,0.0,4.0,4.0,4.0,4.0,4.0,4.0,4.0,4.0,4.0,4.0,4.0,4.0,4.0,4.0,100.0,,,,,,,,,,,,,,,,,,,,,,,,,,,,,,,,,,,,,,,,,,,,,,,,,,,,,,,,,,,,,,,,,,,,,,,,,,,,,,,,,,,,,,,,,,,,,,,,,,,,,,,,,,,,,,,,,,,,,,,,,,,,,,,,,,,
1725710418.646715,1725710418.646891,108.0,0.0,4277.307617,4249.358887,4279.358887,4349.358887,4231.025879,4249.871582,4251.153809,4246.410156,4263.205078,4208.717773,4610.256348,4526.666504,4390.512695,4461.025879,0.0,1.0,15.0,,,,0.0,4.0,4.0,4.0,4.0,4.0,4.0,4.0,4.0,4.0,4.0,4.0,4.0,4.0,4.0,100.0,,,,,,,,,,,,,,,,,,,,,,,,,,,,,,,,,,,,,,,,,,,,,,,,,,,,,,,,,,,,,,,,,,,,,,,,,,,,,,,,,,,,,,,,,,,,,,,,,,,,,,,,,,,,,,,,,,,,,,,,,,,,,,,,,,,
1725710418.650619,1725710418.650795,109.0,0.0,4276.282227,4249.358887,4279.102539,4347.94873,4230.897461,4249.743652,4254.615234,4251.538574,4263.077148,4212.692383,4601.538574,4526.153809,4389.871582,4461.922852,0.0,1.0,15.0,,,,0.0,4.0,4.0,4.0,4.0,4.0,4.0,4.0,4.0,4.0,4.0,4.0,4.0,4.0,4.0,100.0,,,,,,,,,,,,,,,,,,,,,,,,,,,,,,,,,,,,,,,,,,,,,,,,,,,,,,,,,,,,,,,,,,,,,,,,,,,,,,,,,,,,,,,,,,,,,,,,,,,,,,,,,,,,,,,,,,,,,,,,,,,,,,,,,,,
1725710418.654523,1725710418.654799,110.0,0.0,4276.666504,4249.230957,4280.0,4347.692383,4231.538574,4249.102539,4258.589844,4252.436035,4262.692383,4216.538574,4597.820313,4524.743652,4388.077148,4461.922852,0.0,1.0,15.0,,,,0.0,4.0,4.0,4.0,4.0,4.0,4.0,4.0,4.0,4.0,4.0,4.0,4.0,4.0,4.0,100.0,,,,,,,,,,,,,,,,,,,,,,,,,,,,,,,,,,,,,,,,,,,,,,,,,,,,,,,,,,,,,,,,,,,,,,,,,,,,,,,,,,,,,,,,,,,,,,,,,,,,,,,,,,,,,,,,,,,,,,,,,,,,,,,,,,,
1725710418.658427,1725710418.658703,111.0,0.0,4277.179688,4248.461426,4281.025879,4348.461426,4232.179688,4248.461426,4262.820313,4250.256348,4262.179688,4217.820313,4601.794922,4524.102539,4386.153809,4462.05127,0.0,1.0,15.0,,,,0.0,4.0,4.0,4.0,4.0,4.0,4.0,4.0,4.0,4.0,4.0,4.0,4.0,4.0,4.0,100.0,,,,,,,,,,,,,,,,,,,,,,,,,,,,,,,,,,,,,,,,,,,,,,,,,,,,,,,,,,,,,,,,,,,,,,,,,,,,,,,,,,,,,,,,,,,,,,,,,,,,,,,,,,,,,,,,,,,,,,,,,,,,,,,,,,,
1725710418.662331,1725710418.662607,112.0,0.0,4275.769043,4246.794922,4281.538574,4349.102539,4231.922852,4248.205078,4266.922852,4248.461426,4262.307617,4216.282227,4610.512695,4525.256348,4385.897461,4463.589844,0.0,1.0,15.0,,,,0.0,4.0,4.0,4.0,4.0,4.0,4.0,4.0,4.0,4.0,4.0,4.0,4.0,4.0,4.0,100.0,,,,,,,,,,,,,,,,,1.0,0.0,0.0,,,,,,,,,,,,,,,,,,,,,,,,,,,,,,,,,,,,,0.0,0.0,1.0,0.0,1.0,0.0,1.176135,0.619871,0.36454,0.159146,0.065255,1.098474,0.565288,0.346596,0.29801,0.103001,1.153141,0.753151,0.220782,0.083751,0.046008,1.019473,0.903191,0.37678,0.323019,0.14837,0.183365,0.347483,0.19589,0.057719,0.020652,0.512202,0.318689,0.166309,0.095732,0.084986,4.008193,0.734854,0.360803,0.101586,0.128833,1.431242,2.484407,0.551247,0.267399,0.155492,2.201215,1.619233,0.243381,0.167039,0.140653,1.825091,1.32684,0.191841,0.235151,0.11479,3.213535,1.814386,0.549019,0.652522,0.296197,4.918208,2.093883,0.376184,0.334608,0.150955,2.869034,1.195275,0.398489,0.500988,0.159486,2.293721,0.999644,0.810972,0.208764,0.104315
1725710418.666235,1725710418.666611,113.0,0.0,4271.794922,4245.128418,4281.025879,4348.205078,4229.743652,4248.461426,4270.897461,4249.743652,4262.94873,4214.358887,4618.461426,4528.205078,4388.717773,4466.538574,0.0,1.0,15.0,,,,0.0,4.0,4.0,4.0,4.0,4.0,4.0,4.0,4.0,4.0,4.0,4.0,4.0,4.0,4.0,100.0,,,,,,,,,,,,,,,,,,,,,,,,,,,,,,,,,,,,,,,,,,,,,,,,,,,,,,,,,,,,,,,,,,,,,,,,,,,,,,,,,,,,,,,,,,,,,,,,,,,,,,,,,,,,,,,,,,,,,,,,,,,,,,,,,,,
1725710418.670139,1725710418.670516,114.0,0.0,4267.05127,4244.358887,4279.743652,4346.153809,4225.897461,4248.974121,4274.487305,4254.615234,4263.846191,4214.487305,4622.307617,4532.307617,4393.717773,4469.871582,0.0,1.0,15.0,,,,0.0,4.0,4.0,4.0,4.0,4.0,4.0,4.0,4.0,4.0,4.0,4.0,4.0,4.0,4.0,100.0,,,,,,,,,,,,,,,,,,,,,,,,,,,,,,,,,,,,,,,,,,,,,,,,,,,,,,,,,,,,,,,,,,,,,,,,,,,,,,,,,,,,,,,,,,,,,,,,,,,,,,,,,,,,,,,,,,,,,,,,,,,,,,,,,,,
1725710418.674043,1725710418.67442,115.0,0.0,4264.358887,4245.128418,4278.974121,4344.102539,4221.794922,4249.230957,4278.589844,4260.769043,4265.0,4217.179688,4622.307617,4536.666504,4397.692383,4472.820313,0.0,1.0,15.0,,,,0.0,4.0,4.0,4.0,4.0,4.0,4.0,4.0,4.0,4.0,4.0,4.0,4.0,4.0,4.0,100.0,,,,,,,,,,,,,,,,,,,,,,,,,,,,,,,,,,,,,,,,,,,,,,,,,,,,,,,,,,,,,,,,,,,,,,,,,,,,,,,,,,,,,,,,,,,,,,,,,,,,,,,,,,,,,,,,,,,,,,,,,,,,,,,,,,,
1725710418.677947,1725710418.678324,116.0,0.0,4265.0,4246.794922,4279.358887,4343.077148,4218.846191,4249.102539,4284.230957,4265.384766,4266.153809,4219.871582,4621.153809,4540.256348,4398.333496,4474.871582,0.0,1.0,15.0,,,,0.0,4.0,4.0,4.0,4.0,4.0,4.0,4.0,4.0,4.0,4.0,4.0,4.0,4.0,4.0,100.0,,,,,,,,,,,,,,,,,,,,,,,,,,,,,,,,,,,,,,,,,,,,,,,,,,,,,,,,,,,,,,,,,,,,,,,,,,,,,,,,,,,,,,,,,,,,,,,,,,,,,,,,,,,,,,,,,,,,,,,,,,,,,,,,,,,
1725710418.681852,1725710418.682228,117.0,0.0,4267.179688,4248.333496,4280.641113,4342.820313,4217.94873,4249.230957,4292.05127,4266.282227,4266.794922,4219.615234,4620.384766,4541.922852,4395.769043,4476.153809,0.0,1.0,15.0,,,,0.0,4.0,4.0,4.0,4.0,4.0,4.0,4.0,4.0,4.0,4.0,4.0,4.0,4.0,4.0,100.0,,,,,,,,,,,,,,,,,,,,,,,,,,,,,,,,,,,,,,,,,,,,,,,,,,,,,,,,,,,,,,,,,,,,,,,,,,,,,,,,,,,,,,,,,,,,,,,,,,,,,,,,,,,,,,,,,,,,,,,,,,,,,,,,,,,
1725710418.685756,1725710418.686032,118.0,0.0,4268.333496,4248.717773,4281.410156,4341.922852,4218.589844,4249.487305,4301.538574,4262.94873,4266.794922,4215.897461,4619.358887,4540.0,4392.436035,4476.153809,0.0,1.0,15.0,,,,0.0,4.0,4.0,4.0,4.0,4.0,4.0,4.0,4.0,4.0,4.0,4.0,4.0,4.0,4.0,100.0,,,,,,,,,,,,,,,,,,,,,,,,,,,,,,,,,,,,,,,,,,,,,,,,,,,,,,,,,,,,,,,,,,,,,,,,,,,,,,,,,,,,,,,,,,,,,,,,,,,,,,,,,,,,,,,,,,,,,,,,,,,,,,,,,,,
1725710418.68966,1725710418.689936,119.0,0.0,4267.05127,4247.692383,4280.256348,4340.384766,4219.487305,4249.358887,4311.025879,4256.410156,4266.153809,4212.05127,4616.282227,4534.102539,4390.0,4473.717773,0.0,1.0,15.0,,,,0.0,4.0,4.0,4.0,4.0,4.0,4.0,4.0,4.0,4.0,4.0,4.0,4.0,4.0,4.0,100.0,,,,,,,,,,,,,,,,,,,,,,,,,,,,,,,,,,,,,,,,,,,,,,,,,,,,,,,,,,,,,,,,,,,,,,,,,,,,,,,,,,,,,,,,,,,,,,,,,,,,,,,,,,,,,,,,,,,,,,,,,,,,,,,,,,,
1725710418.693564,1725710418.69384,120.0,0.0,4264.358887,4245.897461,4276.922852,4339.102539,4219.487305,4248.846191,4318.846191,4248.589844,4265.128418,4211.538574,4610.128418,4525.641113,4388.461426,4468.846191,0.0,1.0,15.0,,,,0.0,4.0,4.0,4.0,4.0,4.0,4.0,4.0,4.0,4.0,4.0,4.0,4.0,4.0,4.0,100.0,,,,,,,,,,,,,,,,,,,,,,,,,,,,,,,,,,,,,,,,,,,,,,,,,,,,,,,,0.0,0.0,1.0,0.0,1.0,0.0,,,,,,,,,,,,,,,,,,,,,,,,,,,,,,,,,,,,,,,,,,,,,,,,,,,,,,,,,,,,,,,,,,,,,,
1725710418.697468,1725710418.697744,121.0,0.0,4262.179688,4244.487305,4272.563965,4339.358887,4218.333496,4247.94873,4324.615234,4242.436035,4263.974121,4215.256348,4602.436035,4518.717773,4386.153809,4463.589844,0.0,1.0,15.0,,,,0.0,4.0,4.0,4.0,4.0,4.0,4.0,4.0,4.0,4.0,4.0,4.0,4.0,4.0,4.0,100.0,,,,,,,,,,,,,,,,,,,,,,,,,,,,,,,,,,,,,,,,,,,,,,,,,,,,,,,,,,,,,,,,,,,,,,,,,,,,,,,,,,,,,,,,,,,,,,,,,,,,,,,,,,,,,,,,,,,,,,,,,,,,,,,,,,,
1725710418.701372,1725710418.701748,122.0,0.0,4261.794922,4244.615234,4269.743652,4340.769043,4217.179688,4247.436035,4328.846191,4239.743652,4263.589844,4221.282227,4596.538574,4517.563965,4383.205078,4460.769043,0.0,1.0,15.0,,,,0.0,4.0,4.0,4.0,4.0,4.0,4.0,4.0,4.0,4.0,4.0,4.0,4.0,4.0,4.0,100.0,,,,,,,,,,,,,,,,,,,,,,,,,,,,,,,,,,,,,,,,,,,,,,,,,,,,,,,,,,,,,,,,,,,,,,,,,,,,,,,,,,,,,,,,,,,,,,,,,,,,,,,,,,,,,,,,,,,,,,,,,,,,,,,,,,,
1725710418.705276,1725710418.705653,123.0,0.0,4263.333496,4245.897461,4269.871582,4341.794922,4216.922852,4247.820313,4332.436035,4241.666504,4264.230957,4226.282227,4596.153809,4523.205078,4382.692383,4462.563965,0.0,1.0,15.0,,,,0.0,4.0,4.0,4.0,4.0,4.0,4.0,4.0,4.0,4.0,4.0,4.0,4.0,4.0,4.0,100.0,,,,,,,,,,,,,,,,,,,,,,,,,,,,,,,,,,,,,,,,,,,,,,,,,,,,,,,,,,,,,,,,,,,,,,,,,,,,,,,,,,,,,,,,,,,,,,,,,,,,,,,,,,,,,,,,,,,,,,,,,,,,,,,,,,,
1725710418.70918,1725710418.709557,124.0,0.0,4265.384766,4247.05127,4272.436035,4340.256348,4217.820313,4249.102539,4335.256348,4246.153809,4265.769043,4227.820313,4600.897461,4532.307617,4386.922852,4468.333496,0.0,1.0,15.0,,,,0.0,4.0,4.0,4.0,4.0,4.0,4.0,4.0,4.0,4.0,4.0,4.0,4.0,4.0,4.0,100.0,,,,,,,,,,,,,,,,,,,,,,,,,,,,,,,,,,,,,,,,,,,,,,,,,,,,,,,,,,,,,,,,,,,,,,,,,,,,,,,,,,,,,,,,,,,,,,,,,,,,,,,,,,,,,,,,,,,,,,,,,,,,,,,,,,,
1725710418.713084,1725710418.713461,125.0,0.0,4267.05127,4246.410156,4274.871582,4335.897461,4219.102539,4250.384766,4337.179688,4249.615234,4267.179688,4225.256348,4606.153809,4538.717773,4394.358887,4474.487305,0.0,1.0,15.0,,,,0.0,4.0,4.0,4.0,4.0,4.0,4.0,4.0,4.0,4.0,4.0,4.0,4.0,4.0,4.0,100.0,,,,,,,,,,,,,,,,,,,,,,,,,,,,,,,,,,,,,,,,,,,,,,,,,,,,,,,,,,,,,,,,,,,,,,,,,,,,,,,,,,,,,,,,,,,,,,,,,,,,,,,,,,,,,,,,,,,,,,,,,,,,,,,,,,,
1725710418.716988,1725710418.717265,126.0,0.0,4267.307617,4243.717773,4275.128418,4330.769043,4219.615234,4250.769043,4338.205078,4249.487305,4266.794922,4220.128418,4606.282227,4538.333496,4399.230957,4476.282227,0.0,1.0,15.0,,,,0.0,4.0,4.0,4.0,4.0,4.0,4.0,4.0,4.0,4.0,4.0,4.0,4.0,4.0,4.0,100.0,,,,,,,,,,,,,,,,,,,,,,,,,,,,,,,,,,,,,,,,,,,,,,,,,,,,,,,,,,,,,,,,,,,,,,,,,,,,,,,,,,,,,,,,,,,,,,,,,,,,,,,,,,,,,,,,,,,,,,,,,,,,,,,,,,,
1725710418.720893,1725710418.721169,127.0,0.0,4266.282227,4239.230957,4272.307617,4326.922852,4218.589844,4250.0,4338.461426,4246.153809,4264.487305,4215.897461,4600.0,4531.410156,4396.666504,4471.538574,0.0,1.0,15.0,,,,0.0,4.0,4.0,4.0,4.0,4.0,4.0,4.0,4.0,4.0,4.0,4.0,4.0,4.0,4.0,100.0,,,,,,,,,,,,,,,,,,,,,,,,,,,,,,,,,,,,,,,,,,,,,,,,,,,,,,,,,,,,,,,,,,,,,,,,,,,,,,,,,,,,,,,,,,,,,,,,,,,,,,,,,,,,,,,,,,,,,,,,,,,,,,,,,,,
1725710418.724797,1725710418.725073,128.0,0.0,4264.487305,4234.230957,4268.077148,4325.512695,4216.794922,4248.846191,4338.077148,4242.820313,4261.410156,4214.102539,4590.769043,4522.563965,4386.922852,4462.563965,2713.0,1.0,15.0,,,,0.0,4.0,4.0,4.0,4.0,4.0,4.0,4.0,4.0,4.0,4.0,4.0,4.0,4.0,4.0,100.0,,,,,,,,,,,,,,,,,,,,,,,,,,,,,,,,,,,,,,,,,,,,,,,,,,,,,,,,0.0,0.0,1.0,0.0,1.0,0.0,,,,,,,,,,,,,,,,,,,,,,,,,,,,,,,,,,,,,,,,,,,,,,,,,,,,,,,,,,,,,,,,,,,,,,
1725710418.728701,1725710418.728977,129.0,0.0,4263.077148,4230.512695,4264.615234,4326.025879,4215.512695,4247.94873,4338.333496,4242.05127,4259.871582,4214.230957,4585.256348,4517.05127,4375.897461,4454.871582,2590.0,1.0,15.0,,,,0.0,4.0,4.0,4.0,4.0,4.0,4.0,4.0,4.0,4.0,4.0,4.0,4.0,4.0,4.0,100.0,,,,,,,,,,,,,,,,,,,,,,,,,,,,,,,,,,,,,,,,,,,,,,,,,,,,,,,,,,,,,,,,,,,,,,,,,,,,,,,,,,,,,,,,,,,,,,,,,,,,,,,,,,,,,,,,,,,,,,,,,,,,,,,,,,,
1725710418.732605,1725710418.732781,130.0,0.0,4262.692383,4229.487305,4263.333496,4327.179688,4215.769043,4248.077148,4340.512695,4244.102539,4260.512695,4213.589844,4587.05127,4517.179688,4371.025879,4453.461426,2516.0,1.0,15.0,,,,0.0,4.0,4.0,4.0,4.0,4.0,4.0,4.0,4.0,4.0,4.0,4.0,4.0,4.0,4.0,100.0,,,,,,,,,,,,,,,,,,,,,,,,,,,,,,,,,,,,,,,,,,,,,,,,,,,,,,,,,,,,,,,,,,,,,,,,,,,,,,,,,,,,,,,,,,,,,,,,,,,,,,,,,,,,,,,,,,,,,,,,,,,,,,,,,,,
1725710418.736509,1725710418.736686,131.0,0.0,4263.589844,4231.794922,4264.358887,4327.436035,4217.05127,4248.846191,4344.102539,4246.794922,4261.922852,4211.666504,4594.358887,4521.538574,4375.769043,4458.717773,2478.0,1.0,15.0,,,,0.0,4.0,4.0,4.0,4.0,4.0,4.0,4.0,4.0,4.0,4.0,4.0,4.0,4.0,4.0,100.0,,,,,,,,,,,,,,,,,,,,,,,,,,,,,,,,,,,,,,,,,,,,,,,,,,,,,,,,,,,,,,,,,,,,,,,,,,,,,,,,,,,,,,,,,,,,,,,,,,,,,,,,,,,,,,,,,,,,,,,,,,,,,,,,,,,
1725710418.740413,1725710418.74059,132.0,0.0,4265.641113,4236.666504,4266.153809,4326.794922,4218.461426,4249.487305,4347.05127,4248.333496,4262.05127,4209.743652,4601.282227,4526.025879,4387.436035,4467.179688,2453.0,1.0,15.0,,,,0.0,4.0,4.0,4.0,4.0,4.0,4.0,4.0,4.0,4.0,4.0,4.0,4.0,4.0,4.0,100.0,,,,,,,,,,,,,,,,,,,,,,,,,,,,,,,,,,,,,,,,,,,,,,,,,,,,,,,,,,,,,,,,,,,,,,,,,,,,,,,,,,,,,,,,,,,,,,,,,,,,,,,,,,,,,,,,,,,,,,,,,,,,,,,,,,,
1725710418.744317,1725710418.744594,133.0,0.0,4268.717773,4242.436035,4267.563965,4325.641113,4219.102539,4249.487305,4346.666504,4248.589844,4260.128418,4209.743652,4602.94873,4527.692383,4399.102539,4474.102539,2413.0,1.0,15.0,,,,0.0,4.0,4.0,4.0,4.0,4.0,4.0,4.0,4.0,4.0,4.0,4.0,4.0,4.0,4.0,100.0,,,,,,,,,,,,,,,,,,,,,,,,,,,,,,,,,,,,,,,,,,,,,,,,,,,,,,,,,,,,,,,,,,,,,,,,,,,,,,,,,,,,,,,,,,,,,,,,,,,,,,,,,,,,,,,,,,,,,,,,,,,,,,,,,,,
1725710418.748221,1725710418.748498,134.0,0.0,4272.436035,4246.922852,4267.94873,4325.384766,4218.974121,4248.846191,4342.563965,4248.333496,4256.666504,4211.282227,4598.461426,4526.282227,4404.871582,4477.179688,2439.0,1.0,15.0,,,,0.0,4.0,4.0,4.0,4.0,4.0,4.0,4.0,4.0,4.0,4.0,4.0,4.0,4.0,4.0,100.0,,,,,,,,,,,,,,,,,,,,,,,,,,,,,,,,,,,,,,,,,,,,,,,,,,,,,,,,,,,,,,,,,,,,,,,,,,,,,,,,,,,,,,,,,,,,,,,,,,,,,,,,,,,,,,,,,,,,,,,,,,,,,,,,,,,
1725710418.752125,1725710418.752402,135.0,0.0,4275.897461,4249.230957,4267.436035,4326.025879,4218.077148,4247.820313,4336.153809,4247.820313,4252.94873,4212.307617,4590.512695,4523.846191,4403.589844,4477.05127,2496.0,1.0,15.0,,,,0.0,4.0,4.0,4.0,4.0,4.0,4.0,4.0,4.0,4.0,4.0,4.0,4.0,4.0,4.0,100.0,,,,,,,,,,,,,,,,,,,,,,,,,,,,,,,,,,,,,,,,,,,,,,,,,,,,,,,,,,,,,,,,,,,,,,,,,,,,,,,,,,,,,,,,,,,,,,,,,,,,,,,,,,,,,,,,,,,,,,,,,,,,,,,,,,,
1725710418.756029,1725710418.756306,136.0,0.0,4277.820313,4249.615234,4266.282227,4327.05127,4216.794922,4247.05127,4329.743652,4246.794922,4250.128418,4210.512695,4583.077148,4522.436035,4399.102539,4475.769043,2474.0,1.0,15.0,,,,0.0,4.0,4.0,4.0,4.0,4.0,4.0,4.0,4.0,4.0,4.0,4.0,4.0,4.0,4.0,100.0,,,,,,,,,,,,,,,,,,,,,,,,,,,,,,,,,,,,,,,,,,,,,,,,,,,,,,,,0.0,0.0,1.0,0.0,1.0,0.0,,,,,,,,,,,,,,,,,,,,,,,,,,,,,,,,,,,,,,,,,,,,,,,,,,,,,,,,,,,,,,,,,,,,,,
1725710418.759934,1725710418.76031,137.0,0.0,4276.922852,4248.846191,4265.0,4327.436035,4215.769043,4247.05127,4325.384766,4244.615234,4248.333496,4205.897461,4578.717773,4522.05127,4396.282227,4474.743652,2563.0,1.0,15.0,,,,0.0,4.0,4.0,4.0,4.0,4.0,4.0,4.0,4.0,4.0,4.0,4.0,4.0,4.0,4.0,100.0,,,,,,,,,,,,,,,,,,,,,,,,,,,,,,,,,,,,,,,,,,,,,,,,,,,,,,,,,,,,,,,,,,,,,,,,,,,,,,,,,,,,,,,,,,,,,,,,,,,,,,,,,,,,,,,,,,,,,,,,,,,,,,,,,,,
1725710418.763838,1725710418.764214,138.0,0.0,4273.846191,4248.077148,4263.717773,4327.307617,4215.384766,4247.436035,4323.589844,4241.282227,4248.077148,4201.538574,4576.922852,4521.922852,4396.922852,4473.717773,2907.0,1.0,15.0,,,,0.0,4.0,4.0,4.0,4.0,4.0,4.0,4.0,4.0,4.0,4.0,4.0,4.0,4.0,4.0,100.0,,,,,,,,,,,,,,,,,,,,,,,,,,,,,,,,,,,,,,,,,,,,,,,,,,,,,,,,,,,,,,,,,,,,,,,,,,,,,,,,,,,,,,,,,,,,,,,,,,,,,,,,,,,,,,,,,,,,,,,,,,,,,,,,,,,
1725710418.767742,1725710418.768118,139.0,0.0,4270.128418,4248.205078,4262.820313,4326.794922,4215.256348,4247.820313,4324.230957,4238.846191,4250.0,4201.794922,4575.897461,4521.410156,4399.358887,4472.436035,3147.0,1.0,15.0,,,,0.0,4.0,4.0,4.0,4.0,4.0,4.0,4.0,4.0,4.0,4.0,4.0,4.0,4.0,4.0,100.0,,,,,,,,,,,,,,,,,,,,,,,,,,,,,,,,,,,,,,,,,,,,,,,,,,,,,,,,,,,,,,,,,,,,,,,,,,,,,,,,,,,,,,,,,,,,,,,,,,,,,,,,,,,,,,,,,,,,,,,,,,,,,,,,,,,
1725710418.771646,1725710418.772122,140.0,0.0,4267.436035,4249.230957,4262.307617,4326.025879,4215.0,4247.692383,4326.282227,4239.743652,4254.230957,4208.205078,4574.358887,4521.025879,4401.282227,4470.897461,3425.0,1.0,15.0,,,,0.0,4.0,4.0,4.0,4.0,4.0,4.0,4.0,4.0,4.0,4.0,4.0,4.0,4.0,4.0,100.0,,,,,,,,,,,,,,,,,,,,,,,,,,,,,,,,,,,,,,,,,,,,,,,,,,,,,,,,,,,,,,,,,,,,,,,,,,,,,,,,,,,,,,,,,,,,,,,,,,,,,,,,,,,,,,,,,,,,,,,,,,,,,,,,,,,
1725710418.77555,1725710418.776026,141.0,0.0,4266.282227,4250.256348,4262.436035,4324.358887,4214.487305,4247.307617,4328.461426,4244.615234,4260.128418,4216.922852,4572.692383,4521.538574,4401.410156,4469.230957,3944.0,1.0,15.0,,,,0.0,4.0,4.0,4.0,4.0,4.0,4.0,4.0,4.0,4.0,4.0,4.0,4.0,4.0,4.0,100.0,,,,,,,,,,,,,,,,,,,,,,,,,,,,,,,,,,,,,,,,,,,,,,,,,,,,,,,,,,,,,,,,,,,,,,,,,,,,,,,,,,,,,,,,,,,,,,,,,,,,,,,,,,,,,,,,,,,,,,,,,,,,,,,,,,,
1725710418.779454,1725710418.77993,142.0,0.0,4266.282227,4249.743652,4262.820313,4321.666504,4213.846191,4246.666504,4330.0,4250.769043,4265.0,4221.794922,4572.307617,4522.436035,4399.743652,4467.436035,2907.0,1.0,15.0,,,,0.0,4.0,4.0,4.0,4.0,4.0,4.0,4.0,4.0,4.0,4.0,4.0,4.0,4.0,4.0,100.0,,,,,,,,,,,,,,,,,,,,,,,,,,,,,,,,,,,,,,,,,,,,,,,,,,,,,,,,,,,,,,,,,,,,,,,,,,,,,,,,,,,,,,,,,,,,,,,,,,,,,,,,,,,,,,,,,,,,,,,,,,,,,,,,,,,
1725710418.783358,1725710418.783835,143.0,0.0,4266.410156,4246.666504,4262.436035,4318.077148,4213.461426,4246.282227,4331.794922,4253.589844,4266.025879,4219.358887,4573.846191,4521.666504,4396.794922,4464.871582,3147.0,1.0,15.0,,,,0.0,4.0,4.0,4.0,4.0,4.0,4.0,4.0,4.0,4.0,4.0,4.0,4.0,4.0,4.0,100.0,,,,,,,,,,,,,,,,,,,,,,,,,,,,,,,,,,,,,,,,,,,,,,,,,,,,,,,,,,,,,,,,,,,,,,,,,,,,,,,,,,,,,,,,,,,,,,,,,,,,,,,,,,,,,,,,,,,,,,,,,,,,,,,,,,,
1725710418.787262,1725710418.787739,144.0,0.0,4265.897461,4241.922852,4261.153809,4314.230957,4213.589844,4246.153809,4335.128418,4250.384766,4262.563965,4211.410156,4575.128418,4518.077148,4393.205078,4461.666504,3425.0,1.0,15.0,,,,0.0,4.0,4.0,4.0,4.0,4.0,4.0,4.0,4.0,4.0,4.0,4.0,4.0,4.0,4.0,100.0,1.0,75.0,4.0,4.0,4.0,4.0,4.0,4.0,1.0,4.0,4.0,4.0,4.0,4.0,4.0,4.0,1.0,0.0,0.0,,,,,,,,,,,,,,,,,,,,,,,,,,,,,,,,,,,,,0.0,0.0,1.0,0.0,1.0,0.0,1.192884,0.553056,0.374615,0.131341,0.06388,1.067219,0.429731,0.429568,0.288257,0.105602,1.200505,0.668987,0.226422,0.074071,0.056393,1.066301,0.703715,0.419701,0.267926,0.16515,0.217272,0.309007,0.17875,0.04739,0.022448,0.581578,0.33159,0.140377,0.097167,0.089662,3.899633,0.637835,0.37176,0.103421,0.128871,1.683074,2.464062,0.585985,0.237885,0.178086,2.878529,1.590067,0.29857,0.168191,0.145587,2.097806,1.404737,0.254122,0.268588,0.115108,3.352528,2.007823,0.615201,0.677674,0.265502,5.168958,2.010448,0.572621,0.306388,0.154821,2.943047,1.21197,0.599004,0.504754,0.164075,2.268058,0.890779,0.901456,0.200936,0.099518
1725710418.791166,1725710418.791543,145.0,0.0,4264.743652,4237.563965,4259.615234,4310.769043,4214.487305,4246.794922,4340.769043,4242.307617,4256.282227,4203.461426,4572.94873,4512.94873,4389.358887,4458.717773,3944.0,1.0,15.0,,,,0.0,4.0,4.0,4.0,4.0,4.0,4.0,4.0,4.0,4.0,4.0,4.0,4.0,4.0,4.0,100.0,,,,,,,,,,,,,,,,,,,,,,,,,,,,,,,,,,,,,,,,,,,,,,,,,,,,,,,,,,,,,,,,,,,,,,,,,,,,,,,,,,,,,,,,,,,,,,,,,,,,,,,,,,,,,,,,,,,,,,,,,,,,,,,,,,,
1725710418.795071,1725710418.795447,146.0,0.0,4263.461426,4235.0,4259.487305,4308.589844,4215.769043,4247.820313,4348.077148,4234.358887,4250.384766,4200.128418,4565.769043,4508.717773,4386.025879,4457.05127,2907.0,1.0,15.0,,,,0.0,4.0,4.0,4.0,4.0,4.0,4.0,4.0,4.0,4.0,4.0,4.0,4.0,4.0,4.0,100.0,,,,,,,,,,,,,,,,,,,,,,,,,,,,,,,,,,,,,,,,,,,,,,,,,,,,,,,,,,,,,,,,,,,,,,,,,,,,,,,,,,,,,,,,,,,,,,,,,,,,,,,,,,,,,,,,,,,,,,,,,,,,,,,,,,,
1725710418.798975,1725710418.799351,147.0,0.0,4262.563965,4234.615234,4261.153809,4308.205078,4216.922852,4249.102539,4354.743652,4230.256348,4247.436035,4201.922852,4555.256348,4507.05127,4383.333496,4456.794922,3147.0,1.0,15.0,,,,0.0,4.0,4.0,4.0,4.0,4.0,4.0,4.0,4.0,4.0,4.0,4.0,4.0,4.0,4.0,100.0,,,,,,,,,,,,,,,,,,,,,,,,,,,,,,,,,,,,,,,,,,,,,,,,,,,,,,,,,,,,,,,,,,,,,,,,,,,,,,,,,,,,,,,,,,,,,,,,,,,,,,,,,,,,,,,,,,,,,,,,,,,,,,,,,,,
1725710418.802879,1725710418.803255,148.0,0.0,4262.436035,4235.256348,4263.205078,4309.615234,4217.307617,4249.871582,4358.589844,4230.512695,4247.179688,4204.871582,4545.769043,4507.307617,4381.153809,4457.307617,3425.0,1.0,15.0,,,,0.0,4.0,4.0,4.0,4.0,4.0,4.0,4.0,4.0,4.0,4.0,4.0,4.0,4.0,4.0,100.0,,,,,,,,,,,,,,,,,,,,,,,,,,,,,,,,,,,,,,,,,,,,,,,,,,,,,,,,,,,,,,,,,,,,,,,,,,,,,,,,,,,,,,,,,,,,,,,,,,,,,,,,,,,,,,,,,,,,,,,,,,,,,,,,,,,
1725710418.806783,1725710418.807059,149.0,0.0,4262.563965,4236.153809,4263.333496,4311.538574,4216.922852,4249.743652,4359.615234,4231.922852,4247.05127,4205.384766,4540.384766,4506.794922,4379.230957,4456.922852,3944.0,1.0,15.0,,,,0.0,4.0,4.0,4.0,4.0,4.0,4.0,4.0,4.0,4.0,4.0,4.0,4.0,4.0,4.0,100.0,,,,,,,,,,,,,,,,,,,,,,,,,,,,,,,,,,,,,,,,,,,,,,,,,,,,,,,,,,,,,,,,,,,,,,,,,,,,,,,,,,,,,,,,,,,,,,,,,,,,,,,,,,,,,,,,,,,,,,,,,,,,,,,,,,,
1725710418.810687,1725710418.810963,150.0,0.0,4262.436035,4236.922852,4260.0,4312.179688,4216.153809,4248.974121,4359.615234,4231.153809,4244.230957,4202.820313,4538.974121,4503.846191,4377.436035,4454.487305,2907.0,1.0,15.0,,,,0.0,4.0,4.0,4.0,4.0,4.0,4.0,4.0,4.0,4.0,4.0,4.0,4.0,4.0,4.0,100.0,,,,,,,,,,,,,,,,,,,,,,,,,,,,,,,,,,,,,,,,,,,,,,,,,,,,,,,,,,,,,,,,,,,,,,,,,,,,,,,,,,,,,,,,,,,,,,,,,,,,,,,,,,,,,,,,,,,,,,,,,,,,,,,,,,,
1725710418.814591,1725710418.814868,151.0,0.0,4261.538574,4238.205078,4253.846191,4310.384766,4215.384766,4247.820313,4361.153809,4226.666504,4238.205078,4199.102539,4538.846191,4498.461426,4376.153809,4450.256348,3147.0,1.0,15.0,,,,0.0,4.0,4.0,4.0,4.0,4.0,4.0,4.0,4.0,4.0,4.0,4.0,4.0,4.0,4.0,100.0,,,,,,,,,,,,,,,,,,,,,,,,,,,,,,,,,,,,,,,,,,,,,,,,,,,,,,,,,,,,,,,,,,,,,,,,,,,,,,,,,,,,,,,,,,,,,,,,,,,,,,,,,,,,,,,,,,,,,,,,,,,,,,,,,,,
1725710418.818495,1725710418.818772,152.0,0.0,4260.769043,4240.769043,4248.077148,4306.410156,4215.128418,4247.179688,4365.512695,4219.871582,4232.05127,4196.794922,4537.563965,4492.94873,4375.512695,4445.641113,3425.0,1.0,15.0,,,,0.0,4.0,4.0,4.0,4.0,4.0,4.0,4.0,4.0,4.0,4.0,4.0,4.0,4.0,4.0,100.0,,,,,,,,,,,,,,,,,,,,,,,,,,,,,,,,,,,,,,,,,,,,,,,,,,,,,,,,0.0,0.0,1.0,0.0,1.0,0.0,,,,,,,,,,,,,,,,,,,,,,,,,,,,,,,,,,,,,,,,,,,,,,,,,,,,,,,,,,,,,,,,,,,,,,
1725710418.822399,1725710418.822576,153.0,0.0,4260.897461,4244.102539,4246.794922,4301.922852,4215.641113,4247.307617,4372.307617,4213.717773,4229.230957,4197.05127,4535.0,4489.487305,4376.153809,4442.94873,3944.0,1.0,15.0,,,,0.0,4.0,4.0,4.0,4.0,4.0,4.0,4.0,4.0,4.0,4.0,4.0,4.0,4.0,4.0,100.0,,,,,,,,,,,,,,,,,,,,,,,,,,,,,,,,,,,,,,,,,,,,,,,,,,,,,,,,,,,,,,,,,,,,,,,,,,,,,,,,,,,,,,,,,,,,,,,,,,,,,,,,,,,,,,,,,,,,,,,,,,,,,,,,,,,
1725710418.826303,1725710418.82648,154.0,0.0,4261.794922,4247.05127,4251.282227,4298.589844,4216.538574,4248.205078,4379.871582,4211.025879,4231.538574,4198.846191,4532.05127,4489.102539,4377.05127,4443.077148,2907.0,1.0,15.0,,,,0.0,4.0,4.0,4.0,4.0,4.0,4.0,4.0,4.0,4.0,4.0,4.0,4.0,4.0,4.0,100.0,,,,,,,,,,,,,,,,,,,,,,,,,,,,,,,,,,,,,,,,,,,,,,,,,,,,,,,,,,,,,,,,,,,,,,,,,,,,,,,,,,,,,,,,,,,,,,,,,,,,,,,,,,,,,,,,,,,,,,,,,,,,,,,,,,,
1725710418.830207,1725710418.830384,155.0,0.0,4262.179688,4247.436035,4258.974121,4297.179688,4217.307617,4248.974121,4386.153809,4212.94873,4237.307617,4200.384766,4530.0,4490.897461,4377.05127,4444.871582,3147.0,1.0,15.0,,,,0.0,4.0,4.0,4.0,4.0,4.0,4.0,4.0,4.0,4.0,4.0,4.0,4.0,4.0,4.0,100.0,,,,,,,,,,,,,,,,,,,,,,,,,,,,,,,,,,,,,,,,,,,,,,,,,,,,,,,,,,,,,,,,,,,,,,,,,,,,,,,,,,,,,,,,,,,,,,,,,,,,,,,,,,,,,,,,,,,,,,,,,,,,,,,,,,,
1725710418.834111,1725710418.834288,156.0,0.0,4260.897461,4244.358887,4264.487305,4297.436035,4217.436035,4249.102539,4389.358887,4218.333496,4243.589844,4200.512695,4530.128418,4493.333496,4375.256348,4446.410156,3425.0,1.0,15.0,,,,0.0,4.0,4.0,4.0,4.0,4.0,4.0,4.0,4.0,4.0,4.0,4.0,4.0,4.0,4.0,100.0,,,,,,,,,,,,,,,,,,,,,,,,,,,,,,,,,,,,,,,,,,,,,,,,,,,,,,,,,,,,,,,,,,,,,,,,,,,,,,,,,,,,,,,,,,,,,,,,,,,,,,,,,,,,,,,,,,,,,,,,,,,,,,,,,,,
1725710418.838015,1725710418.838092,157.0,0.0,4258.077148,4239.230957,4264.358887,4298.333496,4216.794922,4248.461426,4389.871582,4225.0,4247.563965,4200.128418,4532.307617,4495.769043,4372.692383,4446.410156,3944.0,1.0,15.0,,,,0.0,4.0,4.0,4.0,4.0,4.0,4.0,4.0,4.0,4.0,4.0,4.0,4.0,4.0,4.0,100.0,,,,,,,,,,,,,,,,,,,,,,,,,,,,,,,,,,,,,,,,,,,,,,,,,,,,,,,,,,,,,,,,,,,,,,,,,,,,,,,,,,,,,,,,,,,,,,,,,,,,,,,,,,,,,,,,,,,,,,,,,,,,,,,,,,,
1725710418.84192,1725710418.841996,158.0,0.0,4254.358887,4234.615234,4258.717773,4298.974121,4215.897461,4247.563965,4389.230957,4230.128418,4248.205078,4200.512695,4535.384766,4498.461426,4371.666504,4445.641113,2907.0,1.0,15.0,,,,0.0,4.0,4.0,4.0,4.0,4.0,4.0,4.0,4.0,4.0,4.0,4.0,4.0,4.0,4.0,100.0,,,,,,,,,,,,,,,,,,,,,,,,,,,,,,,,,,,,,,,,,,,,,,,,,,,,,,,,,,,,,,,,,,,,,,,,,,,,,,,,,,,,,,,,,,,,,,,,,,,,,,,,,,,,,,,,,,,,,,,,,,,,,,,,,,,
1725710418.845824,1725710418.845901,159.0,0.0,4250.897461,4232.94873,4251.794922,4298.333496,4215.128418,4247.307617,4389.230957,4232.563965,4246.282227,4201.922852,4537.820313,4501.538574,4373.333496,4444.743652,3147.0,1.0,15.0,,,,0.0,4.0,4.0,4.0,4.0,4.0,4.0,4.0,4.0,4.0,4.0,4.0,4.0,4.0,4.0,100.0,,,,,,,,,,,,,,,,,,,,,,,,,,,,,,,,,,,,,,,,,,,,,,,,,,,,,,,,,,,,,,,,,,,,,,,,,,,,,,,,,,,,,,,,,,,,,,,,,,,,,,,,,,,,,,,,,,,,,,,,,,,,,,,,,,,
1725710418.849728,1725710418.849905,160.0,0.0,4248.589844,4233.461426,4247.692383,4296.153809,4215.0,4247.436035,4390.256348,4232.436035,4243.846191,4202.563965,4538.589844,4504.358887,4376.025879,4444.102539,3425.0,1.0,15.0,,,,0.0,4.0,4.0,4.0,4.0,4.0,4.0,4.0,4.0,4.0,4.0,4.0,4.0,4.0,4.0,100.0,,,,,,,,,,,,,,,,,,,,,,,,,,,,,,,,,,,,,,,,,,,,,,,,,,,,,,,,0.0,0.0,1.0,0.0,1.0,0.0,,,,,,,,,,,,,,,,,,,,,,,,,,,,,,,,,,,,,,,,,,,,,,,,,,,,,,,,,,,,,,,,,,,,,,
1725710418.853632,1725710418.853809,161.0,0.0,4247.94873,4234.487305,4248.717773,4293.589844,4215.512695,4248.077148,4391.282227,4230.769043,4242.05127,4199.615234,4538.205078,4505.512695,4376.538574,4443.461426,3944.0,1.0,15.0,,,,0.0,4.0,4.0,4.0,4.0,4.0,4.0,4.0,4.0,4.0,4.0,4.0,4.0,4.0,4.0,100.0,,,,,,,,,,,,,,,,,,,,,,,,,,,,,,,,,,,,,,,,,,,,,,,,,,,,,,,,,,,,,,,,,,,,,,,,,,,,,,,,,,,,,,,,,,,,,,,,,,,,,,,,,,,,,,,,,,,,,,,,,,,,,,,,,,,
1725710418.857536,1725710418.857713,162.0,0.0,4249.230957,4234.358887,4253.717773,4292.05127,4216.282227,4248.589844,4391.282227,4229.358887,4241.666504,4193.461426,4537.820313,4504.743652,4373.589844,4443.333496,2907.0,1.0,15.0,,,,0.0,4.0,4.0,4.0,4.0,4.0,4.0,4.0,4.0,4.0,4.0,4.0,4.0,4.0,4.0,100.0,,,,,,,,,,,,,,,,,,,,,,,,,,,,,,,,,,,,,,,,,,,,,,,,,,,,,,,,,,,,,,,,,,,,,,,,,,,,,,,,,,,,,,,,,,,,,,,,,,,,,,,,,,,,,,,,,,,,,,,,,,,,,,,,,,,
1725710418.86144,1725710418.861617,163.0,0.0,4251.922852,4233.589844,4259.487305,4292.94873,4216.666504,4248.333496,4389.871582,4229.487305,4242.94873,4187.436035,4538.461426,4503.589844,4369.615234,4444.615234,3147.0,1.0,15.0,,,,0.0,4.0,4.0,4.0,4.0,4.0,4.0,4.0,4.0,4.0,4.0,4.0,4.0,4.0,4.0,100.0,,,,,,,,,,,,,,,,,,,,,,,,,,,,,,,,,,,,,,,,,,,,,,,,,,,,,,,,,,,,,,,,,,,,,,,,,,,,,,,,,,,,,,,,,,,,,,,,,,,,,,,,,,,,,,,,,,,,,,,,,,,,,,,,,,,
1725710418.865344,1725710418.865621,164.0,0.0,4255.641113,4233.077148,4262.692383,4295.641113,4216.410156,4247.436035,4387.179688,4231.410156,4245.641113,4185.897461,4539.743652,4504.230957,4368.589844,4447.692383,3425.0,1.0,15.0,,,,0.0,4.0,4.0,4.0,4.0,4.0,4.0,4.0,4.0,4.0,4.0,4.0,4.0,4.0,4.0,100.0,,,,,,,,,,,,,,,,,,,,,,,,,,,,,,,,,,,,,,,,,,,,,,,,,,,,,,,,,,,,,,,,,,,,,,,,,,,,,,,,,,,,,,,,,,,,,,,,,,,,,,,,,,,,,,,,,,,,,,,,,,,,,,,,,,,
1725710418.869248,1725710418.869525,165.0,0.0,4259.230957,4233.205078,4261.666504,4298.461426,4215.512695,4246.410156,4383.846191,4234.230957,4248.846191,4190.128418,4540.384766,4506.666504,4371.538574,4451.153809,3944.0,1.0,15.0,,,,0.0,4.0,4.0,4.0,4.0,4.0,4.0,4.0,4.0,4.0,4.0,4.0,4.0,4.0,4.0,100.0,,,,,,,,,,,,,,,,,,,,,,,,,,,,,,,,,,,,,,,,,,,,,,,,,,,,,,,,,,,,,,,,,,,,,,,,,,,,,,,,,,,,,,,,,,,,,,,,,,,,,,,,,,,,,,,,,,,,,,,,,,,,,,,,,,,
1725710418.873152,1725710418.873429,166.0,0.0,4262.05127,4233.461426,4258.077148,4298.974121,4214.743652,4245.897461,4381.153809,4235.769043,4251.153809,4197.94873,4539.743652,4509.487305,4376.282227,4452.820313,2907.0,1.0,15.0,,,,0.0,4.0,4.0,4.0,4.0,4.0,4.0,4.0,4.0,4.0,4.0,4.0,4.0,4.0,4.0,100.0,,,,,,,,,,,,,,,,,,,,,,,,,,,,,,,,,,,,,,,,,,,,,,,,,,,,,,,,,,,,,,,,,,,,,,,,,,,,,,,,,,,,,,,,,,,,,,,,,,,,,,,,,,,,,,,,,,,,,,,,,,,,,,,,,,,
1725710418.877056,1725710418.877433,167.0,0.0,4263.461426,4233.333496,4254.487305,4295.897461,4214.615234,4246.025879,4379.230957,4234.743652,4251.666504,4204.743652,4538.333496,4510.128418,4378.846191,4451.410156,3147.0,1.0,15.0,,,,0.0,4.0,4.0,4.0,4.0,4.0,4.0,4.0,4.0,4.0,4.0,4.0,4.0,4.0,4.0,100.0,,,,,,,,,,,,,,,,,,,,,,,,,,,,,,,,,,,,,,,,,,,,,,,,,,,,,,,,,,,,,,,,,,,,,,,,,,,,,,,,,,,,,,,,,,,,,,,,,,,,,,,,,,,,,,,,,,,,,,,,,,,,,,,,,,,
1725710418.880961,1725710418.881337,168.0,0.0,4263.077148,4233.461426,4253.205078,4290.256348,4215.256348,4246.282227,4377.436035,4232.05127,4250.641113,4207.307617,4536.794922,4508.333496,4377.820313,4448.077148,3425.0,1.0,15.0,,,,0.0,4.0,4.0,4.0,4.0,4.0,4.0,4.0,4.0,4.0,4.0,4.0,4.0,4.0,4.0,100.0,,,,,,,,,,,,,,,,,,,,,,,,,,,,,,,,,,,,,,,,,,,,,,,,,,,,,,,,0.0,0.0,1.0,0.0,1.0,0.0,,,,,,,,,,,,,,,,,,,,,,,,,,,,,,,,,,,,,,,,,,,,,,,,,,,,,,,,,,,,,,,,,,,,,,
1725710418.884865,1725710418.885241,169.0,0.0,4261.922852,4234.487305,4254.743652,4285.256348,4216.153809,4246.538574,4374.743652,4229.358887,4248.846191,4205.641113,4535.128418,4505.641113,4375.128418,4445.512695,3944.0,1.0,15.0,,,,0.0,4.0,4.0,4.0,4.0,4.0,4.0,4.0,4.0,4.0,4.0,4.0,4.0,4.0,4.0,100.0,,,,,,,,,,,,,,,,,,,,,,,,,,,,,,,,,,,,,,,,,,,,,,,,,,,,,,,,,,,,,,,,,,,,,,,,,,,,,,,,,,,,,,,,,,,,,,,,,,,,,,,,,,,,,,,,,,,,,,,,,,,,,,,,,,,
1725710418.888769,1725710418.889245,170.0,0.0,4261.153809,4237.179688,4258.077148,4284.102539,4216.922852,4246.538574,4371.025879,4228.461426,4247.563965,4202.179688,4531.794922,4504.358887,4372.820313,4445.512695,2907.0,1.0,15.0,,,,0.0,4.0,4.0,4.0,4.0,4.0,4.0,4.0,4.0,4.0,4.0,4.0,4.0,4.0,4.0,100.0,,,,,,,,,,,,,,,,,,,,,,,,,,,,,,,,,,,,,,,,,,,,,,,,,,,,,,,,,,,,,,,,,,,,,,,,,,,,,,,,,,,,,,,,,,,,,,,,,,,,,,,,,,,,,,,,,,,,,,,,,,,,,,,,,,,
1725710418.892673,1725710418.893149,171.0,0.0,4261.666504,4241.666504,4261.410156,4287.94873,4217.05127,4246.538574,4366.794922,4229.487305,4247.563965,4199.871582,4526.538574,4505.0,4371.794922,4447.436035,3147.0,1.0,15.0,,,,0.0,4.0,4.0,4.0,4.0,4.0,4.0,4.0,4.0,4.0,4.0,4.0,4.0,4.0,4.0,100.0,,,,,,,,,,,,,,,,,,,,,,,,,,,,,,,,,,,,,,,,,,,,,,,,,,,,,,,,,,,,,,,,,,,,,,,,,,,,,,,,,,,,,,,,,,,,,,,,,,,,,,,,,,,,,,,,,,,,,,,,,,,,,,,,,,,
1725710418.896577,1725710418.897054,172.0,0.0,4262.94873,4246.794922,4263.974121,4294.230957,4216.410156,4246.666504,4363.077148,4231.410156,4248.333496,4199.615234,4521.153809,4506.538574,4371.538574,4449.102539,3425.0,1.0,15.0,,,,0.0,4.0,4.0,4.0,4.0,4.0,4.0,4.0,4.0,4.0,4.0,4.0,4.0,4.0,4.0,100.0,,,,,,,,,,,,,,,,,,,,,,,,,,,,,,,,,,,,,,,,,,,,,,,,,,,,,,,,,,,,,,,,,,,,,,,,,,,,,,,,,,,,,,,,,,,,,,,,,,,,,,,,,,,,,,,,,,,,,,,,,,,,,,,,,,,
1725710418.900481,1725710418.900958,173.0,0.0,4263.205078,4250.512695,4264.743652,4298.717773,4215.512695,4246.922852,4361.410156,4233.205078,4248.974121,4200.384766,4518.717773,4507.307617,4371.025879,4449.102539,3944.0,1.0,15.0,,,,0.0,4.0,4.0,4.0,4.0,4.0,4.0,4.0,4.0,4.0,4.0,4.0,4.0,4.0,4.0,100.0,,,,,,,,,,,,,,,,,,,,,,,,,,,,,,,,,,,,,,,,,,,,,,,,,,,,,,,,,,,,,,,,,,,,,,,,,,,,,,,,,,,,,,,,,,,,,,,,,,,,,,,,,,,,,,,,,,,,,,,,,,,,,,,,,,,
1725710418.904385,1725710418.904862,174.0,0.0,4260.641113,4250.769043,4263.589844,4297.94873,4215.128418,4247.307617,4362.179688,4234.358887,4248.846191,4201.282227,4521.025879,4507.179688,4370.128418,4447.307617,2907.0,1.0,15.0,,,,0.0,4.0,4.0,4.0,4.0,4.0,4.0,4.0,4.0,4.0,4.0,4.0,4.0,4.0,4.0,100.0,,,,,,,,,,,,,,,,,,,,,,,,,,,,,,,,,,,,,,,,,,,,,,,,,,,,,,,,,,,,,,,,,,,,,,,,,,,,,,,,,,,,,,,,,,,,,,,,,,,,,,,,,,,,,,,,,,,,,,,,,,,,,,,,,,,
1725710418.908289,1725710418.908766,175.0,0.0,4255.769043,4247.307617,4260.512695,4291.922852,4215.641113,4247.94873,4364.871582,4235.128418,4248.846191,4201.538574,4527.179688,4507.179688,4369.358887,4445.512695,3147.0,1.0,15.0,,,,0.0,4.0,4.0,4.0,4.0,4.0,4.0,4.0,4.0,4.0,4.0,4.0,4.0,4.0,4.0,100.0,,,,,,,,,,,,,,,,,,,,,,,,,,,,,,,,,,,,,,,,,,,,,,,,,,,,,,,,,,,,,,,,,,,,,,,,,,,,,,,,,,,,,,,,,,,,,,,,,,,,,,,,,,,,,,,,,,,,,,,,,,,,,,,,,,,
1725710418.912193,1725710418.91257,176.0,0.0,4250.641113,4241.410156,4256.666504,4283.461426,4216.282227,4248.589844,4368.333496,4235.769043,4249.743652,4201.666504,4533.589844,4508.077148,4370.0,4445.128418,3425.0,1.0,15.0,,,,0.0,4.0,4.0,4.0,4.0,4.0,4.0,4.0,4.0,4.0,4.0,4.0,4.0,4.0,4.0,100.0,,,,,,,,,,,,,,,,,1.0,0.0,0.0,,,,,,,,,,,,,,,,,,,,,,,,,,,,,,,,,,,,,0.0,0.0,1.0,0.0,128.0,0.0,1.28037,0.510734,0.405392,0.127732,0.066827,1.159833,0.382269,0.57711,0.296506,0.111164,1.303845,0.570331,0.251524,0.079888,0.068844,1.200643,0.586267,0.46756,0.22537,0.18408,0.286359,0.294695,0.179384,0.044944,0.02697,0.583491,0.348516,0.118889,0.099385,0.08851,3.511811,0.630033,0.361016,0.113587,0.134118,1.844291,2.383897,0.682619,0.222274,0.200781,3.576858,1.481622,0.383441,0.203269,0.154651,2.386802,1.441015,0.366458,0.348849,0.126957,3.506777,2.142844,0.76249,0.731579,0.245492,5.302464,1.920416,0.859763,0.328043,0.16734,3.082472,1.364235,0.932962,0.51628,0.187065,2.379628,0.877979,1.016728,0.225152,0.100406
1725710418.916098,1725710418.916474,177.0,0.0,4247.436035,4235.256348,4253.077148,4276.794922,4215.641113,4248.974121,4371.282227,4235.897461,4251.538574,4202.179688,4536.025879,4508.974121,4372.179688,4446.025879,3944.0,1.0,15.0,,,,0.0,4.0,4.0,4.0,4.0,4.0,4.0,4.0,4.0,4.0,4.0,4.0,4.0,4.0,4.0,100.0,,,,,,,,,,,,,,,,,,,,,,,,,,,,,,,,,,,,,,,,,,,,,,,,,,,,,,,,,,,,,,,,,,,,,,,,,,,,,,,,,,,,,,,,,,,,,,,,,,,,,,,,,,,,,,,,,,,,,,,,,,,,,,,,,,,
1725710418.920002,1725710418.920378,178.0,0.0,4247.179688,4231.025879,4250.769043,4274.358887,4213.077148,4248.846191,4373.205078,4235.0,4253.205078,4202.692383,4532.436035,4508.077148,4374.358887,4447.05127,2907.0,1.0,15.0,,,,0.0,4.0,4.0,4.0,4.0,4.0,4.0,4.0,4.0,4.0,4.0,4.0,4.0,4.0,4.0,100.0,,,,,,,,,,,,,,,,,,,,,,,,,,,,,,,,,,,,,,,,,,,,,,,,,,,,,,,,,,,,,,,,,,,,,,,,,,,,,,,,,,,,,,,,,,,,,,,,,,,,,,,,,,,,,,,,,,,,,,,,,,,,,,,,,,,
1725710418.923906,1725710418.924282,179.0,0.0,4248.717773,4229.743652,4250.256348,4276.025879,4209.102539,4247.94873,4373.974121,4233.205078,4252.94873,4202.563965,4525.0,4504.743652,4374.743652,4446.666504,3147.0,1.0,15.0,,,,0.0,4.0,4.0,4.0,4.0,4.0,4.0,4.0,4.0,4.0,4.0,4.0,4.0,4.0,4.0,100.0,,,,,,,,,,,,,,,,,,,,,,,,,,,,,,,,,,,,,,,,,,,,,,,,,,,,,,,,,,,,,,,,,,,,,,,,,,,,,,,,,,,,,,,,,,,,,,,,,,,,,,,,,,,,,,,,,,,,,,,,,,,,,,,,,,,
1725710418.92781,1725710418.928087,180.0,0.0,4250.384766,4230.897461,4250.641113,4279.102539,4205.128418,4246.922852,4374.102539,4231.410156,4250.641113,4202.179688,4518.333496,4500.256348,4372.692383,4445.256348,3425.0,1.0,15.0,,,,0.0,4.0,4.0,4.0,4.0,4.0,4.0,4.0,4.0,4.0,4.0,4.0,4.0,4.0,4.0,100.0,,,,,,,,,,,,,,,,,,,,,,,,,,,,,,,,,,,,,,,,,,,,,,,,,,,,,,,,,,,,,,,,,,,,,,,,,,,,,,,,,,,,,,,,,,,,,,,,,,,,,,,,,,,,,,,,,,,,,,,,,,,,,,,,,,,
1725710418.931714,1725710418.931991,181.0,0.0,4250.641113,4232.692383,4251.153809,4279.743652,4202.436035,4246.025879,4373.974121,4230.384766,4247.820313,4201.666504,4516.282227,4496.282227,4369.487305,4444.102539,3944.0,1.0,15.0,,,,0.0,4.0,4.0,4.0,4.0,4.0,4.0,4.0,4.0,4.0,4.0,4.0,4.0,4.0,4.0,100.0,,,,,,,,,,,,,,,,,,,,,,,,,,,,,,,,,,,,,,,,,,,,,,,,,,,,,,,,,,,,,,,,,,,,,,,,,,,,,,,,,,,,,,,,,,,,,,,,,,,,,,,,,,,,,,,,,,,,,,,,,,,,,,,,,,,
1725710418.935618,1725710418.935895,182.0,0.0,4249.230957,4233.333496,4250.641113,4276.538574,4201.410156,4245.512695,4374.102539,4229.743652,4246.282227,4200.512695,4518.974121,4494.230957,4367.307617,4443.974121,2907.0,1.0,15.0,,,,0.0,4.0,4.0,4.0,4.0,4.0,4.0,4.0,4.0,4.0,4.0,4.0,4.0,4.0,4.0,100.0,,,,,,,,,,,,,,,,,,,,,,,,,,,,,,,,,,,,,,,,,,,,,,,,,,,,,,,,,,,,,,,,,,,,,,,,,,,,,,,,,,,,,,,,,,,,,,,,,,,,,,,,,,,,,,,,,,,,,,,,,,,,,,,,,,,
1725710418.939522,1725710418.939799,183.0,0.0,4246.922852,4232.307617,4249.230957,4270.512695,4201.666504,4245.384766,4375.256348,4228.717773,4246.794922,4197.94873,4522.692383,4493.846191,4366.922852,4444.615234,3147.0,1.0,15.0,,,,0.0,4.0,4.0,4.0,4.0,4.0,4.0,4.0,4.0,4.0,4.0,4.0,4.0,4.0,4.0,100.0,,,,,,,,,,,,,,,,,,,,,,,,,,,,,,,,,,,,,,,,,,,,,,,,,,,,,,,,,,,,,,,,,,,,,,,,,,,,,,,,,,,,,,,,,,,,,,,,,,,,,,,,,,,,,,,,,,,,,,,,,,,,,,,,,,,
1725710418.943426,1725710418.943603,184.0,0.0,4245.384766,4230.0,4247.692383,4264.871582,4202.436035,4245.256348,4377.436035,4226.025879,4247.94873,4193.717773,4524.102539,4494.230957,4367.692383,4444.743652,3425.0,1.0,15.0,,,,0.0,4.0,4.0,4.0,4.0,4.0,4.0,4.0,4.0,4.0,4.0,4.0,4.0,4.0,4.0,100.0,,,,,,,,,,,,,,,,,,,,,,,,,,,,,,,,,,,,,,,,,,,,,,,,,,,,,,,,0.0,0.0,1.0,0.0,128.0,0.0,,,,,,,,,,,,,,,,,,,,,,,,,,,,,,,,,,,,,,,,,,,,,,,,,,,,,,,,,,,,,,,,,,,,,,
1725710418.94733,1725710418.947507,185.0,0.0,4245.641113,4227.820313,4247.94873,4263.077148,4203.846191,4245.384766,4379.871582,4222.05127,4247.179688,4189.102539,4522.307617,4494.358887,4368.461426,4443.846191,3944.0,1.0,15.0,,,,0.0,4.0,4.0,4.0,4.0,4.0,4.0,4.0,4.0,4.0,4.0,4.0,4.0,4.0,4.0,100.0,,,,,,,,,,,,,,,,,,,,,,,,,,,,,,,,,,,,,,,,,,,,,,,,,,,,,,,,,,,,,,,,,,,,,,,,,,,,,,,,,,,,,,,,,,,,,,,,,,,,,,,,,,,,,,,,,,,,,,,,,,,,,,,,,,,
1725710418.951234,1725710418.951411,186.0,0.0,4247.94873,4227.820313,4250.897461,4266.025879,4205.641113,4245.897461,4381.922852,4217.820313,4243.717773,4186.410156,4518.974121,4493.846191,4368.589844,4442.563965,2907.0,1.0,15.0,,,,0.0,4.0,4.0,4.0,4.0,4.0,4.0,4.0,4.0,4.0,4.0,4.0,4.0,4.0,4.0,100.0,,,,,,,,,,,,,,,,,,,,,,,,,,,,,,,,,,,,,,,,,,,,,,,,,,,,,,,,,,,,,,,,,,,,,,,,,,,,,,,,,,,,,,,,,,,,,,,,,,,,,,,,,,,,,,,,,,,,,,,,,,,,,,,,,,,
1725710418.955139,1725710418.955415,187.0,0.0,4250.512695,4230.641113,4255.128418,4272.179688,4208.077148,4246.538574,4382.94873,4215.0,4238.589844,4186.282227,4516.922852,4492.692383,4368.205078,4442.05127,3147.0,1.0,15.0,,,,0.0,4.0,4.0,4.0,4.0,4.0,4.0,4.0,4.0,4.0,4.0,4.0,4.0,4.0,4.0,100.0,,,,,,,,,,,,,,,,,,,,,,,,,,,,,,,,,,,,,,,,,,,,,,,,,,,,,,,,,,,,,,,,,,,,,,,,,,,,,,,,,,,,,,,,,,,,,,,,,,,,,,,,,,,,,,,,,,,,,,,,,,,,,,,,,,,
1725710418.959043,1725710418.959319,188.0,0.0,4251.794922,4235.256348,4258.717773,4277.94873,4210.512695,4247.436035,4383.717773,4214.358887,4233.974121,4186.794922,4517.307617,4491.153809,4367.563965,4442.692383,3425.0,1.0,15.0,,,,0.0,4.0,4.0,4.0,4.0,4.0,4.0,4.0,4.0,4.0,4.0,4.0,4.0,4.0,4.0,100.0,,,,,,,,,,,,,,,,,,,,,,,,,,,,,,,,,,,,,,,,,,,,,,,,,,,,,,,,,,,,,,,,,,,,,,,,,,,,,,,,,,,,,,,,,,,,,,,,,,,,,,,,,,,,,,,,,,,,,,,,,,,,,,,,,,,
1725710418.962947,1725710418.963224,189.0,0.0,4251.410156,4239.487305,4260.256348,4281.410156,4212.563965,4248.461426,4385.384766,4215.256348,4231.666504,4186.410156,4519.358887,4490.256348,4367.05127,4444.230957,3944.0,1.0,15.0,,,,0.0,4.0,4.0,4.0,4.0,4.0,4.0,4.0,4.0,4.0,4.0,4.0,4.0,4.0,4.0,100.0,,,,,,,,,,,,,,,,,,,,,,,,,,,,,,,,,,,,,,,,,,,,,,,,,,,,,,,,,,,,,,,,,,,,,,,,,,,,,,,,,,,,,,,,,,,,,,,,,,,,,,,,,,,,,,,,,,,,,,,,,,,,,,,,,,,
1725710418.966851,1725710418.967128,190.0,0.0,4250.384766,4241.153809,4260.256348,4282.307617,4213.974121,4249.102539,4388.205078,4216.666504,4231.410156,4184.871582,4521.410156,4491.282227,4367.179688,4445.641113,2907.0,1.0,15.0,,,,0.0,4.0,4.0,4.0,4.0,4.0,4.0,4.0,4.0,4.0,4.0,4.0,4.0,4.0,4.0,100.0,,,,,,,,,,,,,,,,,,,,,,,,,,,,,,,,,,,,,,,,,,,,,,,,,,,,,,,,,,,,,,,,,,,,,,,,,,,,,,,,,,,,,,,,,,,,,,,,,,,,,,,,,,,,,,,,,,,,,,,,,,,,,,,,,,,
1725710418.970755,1725710418.971132,191.0,0.0,4250.769043,4240.0,4260.0,4281.538574,4214.743652,4249.358887,4391.538574,4217.436035,4232.05127,4183.717773,4522.05127,4494.743652,4368.846191,4446.410156,3147.0,1.0,15.0,,,,0.0,4.0,4.0,4.0,4.0,4.0,4.0,4.0,4.0,4.0,4.0,4.0,4.0,4.0,4.0,100.0,,,,,,,,,,,,,,,,,,,,,,,,,,,,,,,,,,,,,,,,,,,,,,,,,,,,,,,,,,,,,,,,,,,,,,,,,,,,,,,,,,,,,,,,,,,,,,,,,,,,,,,,,,,,,,,,,,,,,,,,,,,,,,,,,,,
1725710418.974659,1725710418.975036,192.0,0.0,4253.461426,4237.179688,4260.512695,4279.615234,4215.512695,4248.846191,4394.487305,4217.05127,4232.563965,4184.743652,4520.897461,4500.128418,4371.922852,4446.666504,3425.0,1.0,15.0,,,,0.0,4.0,4.0,4.0,4.0,4.0,4.0,4.0,4.0,4.0,4.0,4.0,4.0,4.0,4.0,100.0,,,,,,,,,,,,,,,,,,,,,,,,,,,,,,,,,,,,,,,,,,,,,,,,,,,,,,,,0.0,0.0,1.0,0.0,128.0,0.0,,,,,,,,,,,,,,,,,,,,,,,,,,,,,,,,,,,,,,,,,,,,,,,,,,,,,,,,,,,,,,,,,,,,,,
1725710418.978563,1725710418.97894,193.0,0.0,4257.563965,4234.615234,4261.282227,4277.179688,4216.410156,4248.205078,4396.153809,4216.153809,4232.563965,4188.077148,4517.94873,4505.384766,4375.384766,4447.05127,3944.0,1.0,15.0,,,,0.0,4.0,4.0,4.0,4.0,4.0,4.0,4.0,4.0,4.0,4.0,4.0,4.0,4.0,4.0,100.0,,,,,,,,,,,,,,,,,,,,,,,,,,,,,,,,,,,,,,,,,,,,,,,,,,,,,,,,,,,,,,,,,,,,,,,,,,,,,,,,,,,,,,,,,,,,,,,,,,,,,,,,,,,,,,,,,,,,,,,,,,,,,,,,,,,
1725710418.982467,1725710418.982944,194.0,0.0,4260.512695,4233.461426,4261.282227,4274.230957,4217.436035,4247.820313,4396.282227,4216.025879,4231.922852,4191.794922,4513.077148,4508.717773,4376.922852,4447.563965,2907.0,1.0,15.0,,,,0.0,4.0,4.0,4.0,4.0,4.0,4.0,4.0,4.0,4.0,4.0,4.0,4.0,4.0,4.0,100.0,,,,,,,,,,,,,,,,,,,,,,,,,,,,,,,,,,,,,,,,,,,,,,,,,,,,,,,,,,,,,,,,,,,,,,,,,,,,,,,,,,,,,,,,,,,,,,,,,,,,,,,,,,,,,,,,,,,,,,,,,,,,,,,,,,,
1725710418.986371,1725710418.986848,195.0,0.0,4260.256348,4233.974121,4260.128418,4271.410156,4217.820313,4247.94873,4395.384766,4217.436035,4231.794922,4193.333496,4507.563965,4508.974121,4375.384766,4447.820313,3147.0,1.0,15.0,,,,0.0,4.0,4.0,4.0,4.0,4.0,4.0,4.0,4.0,4.0,4.0,4.0,4.0,4.0,4.0,100.0,,,,,,,,,,,,,,,,,,,,,,,,,,,,,,,,,,,,,,,,,,,,,,,,,,,,,,,,,,,,,,,,,,,,,,,,,,,,,,,,,,,,,,,,,,,,,,,,,,,,,,,,,,,,,,,,,,,,,,,,,,,,,,,,,,,
