Timestamp,OriginalTimestamp,EEG.Counter,EEG.Interpolated,EEG.AF3,EEG.F7,EEG.F3,EEG.FC5,EEG.T7,EEG.P7,EEG.O1,EEG.O2,EEG.P8,EEG.T8,EEG.FC6,EEG.F4,EEG.F8,EEG.AF4,EEG.RawCq,EEG.Battery,EEG.BatteryPercent,MarkerIndex,MarkerType,MarkerValueInt,EEG.MarkerHardware,CQ.AF3,CQ.F7,CQ.F3,CQ.FC5,CQ.T7,CQ.P7,CQ.O1,CQ.O2,CQ.P8,CQ.T8,CQ.FC6,CQ.F4,CQ.F8,CQ.AF4,CQ.Overall,EQ.SampleRateQuality,EQ.OVERALL,EQ.AF3,EQ.F7,EQ.F3,EQ.FC5,EQ.T7,EQ.P7,EQ.O1,EQ.O2,EQ.P8,EQ.T8,EQ.FC6,EQ.F4,EQ.F8,EQ.AF4,MC.Action,MC.ActionPower,MC.IsActive,PM.Attention.IsActive,PM.Attention.Scaled,PM.Attention.Raw,PM.Attention.Min,PM.Attention.Max,PM.Engagement.IsActive,PM.Engagement.Scaled,PM.Engagement.Raw,PM.Engagement.Min,PM.Engagement.Max,PM.Excitement.IsActive,PM.Excitement.Scaled,PM.Excitement.Raw,PM.Excitement.Min,PM.Excitement.Max,PM.LongTermExcitement,PM.Stress.IsActive,PM.Stress.Scaled,PM.Stress.Raw,PM.Stress.Min,PM.Stress.Max,PM.Relaxation.IsActive,PM.Relaxation.Scaled,PM.Relaxation.Raw,PM.Relaxation.Min,PM.Relaxation.Max,PM.Interest.IsActive,PM.Interest.Scaled,PM.Interest.Raw,PM.Interest.Min,PM.Interest.Max,PM.Focus.IsActive,PM.Focus.Scaled,PM.Focus.Raw,PM.Focus.Min,PM.Focus.Max,FE.BlinkWink,FE.HorizontalEyesDirection,FE.UpperFaceAction,FE.UpperFaceActionPower,FE.LowerFaceAction,FE.LowerFaceActionPower,POW.AF3.Theta,POW.AF3.Alpha,POW.AF3.BetaL,POW.AF3.BetaH,POW.AF3.Gamma,POW.F7.Theta,POW.F7.Alpha,POW.F7.BetaL,POW.F7.BetaH,POW.F7.Gamma,POW.F3.Theta,POW.F3.Alpha,POW.F3.BetaL,POW.F3.BetaH,POW.F3.Gamma,POW.FC5.Theta,POW.FC5.Alpha,POW.FC5.BetaL,POW.FC5.BetaH,POW.FC5.Gamma,POW.T7.Theta,POW.T7.Alpha,POW.T7.BetaL,POW.T7.BetaH,POW.T7.Gamma,POW.P7.Theta,POW.P7.Alpha,POW.P7.BetaL,POW.P7.BetaH,POW.P7.Gamma,POW.O1.Theta,POW.O1.Alpha,POW.O1.BetaL,POW.O1.BetaH,POW.O1.Gamma,POW.O2.Theta,POW.O2.Alpha,POW.O2.BetaL,POW.O2.BetaH,POW.O2.Gamma,POW.P8.Theta,POW.P8.Alpha,POW.P8.BetaL,POW.P8.BetaH,POW.P8.Gamma,POW.T8.Theta,POW.T8.Alpha,POW.T8.BetaL,POW.T8.BetaH,POW.T8.Gamma,POW.FC6.Theta,POW.FC6.Alpha,POW.FC6.BetaL,POW.FC6.BetaH,POW.FC6.Gamma,POW.F4.Theta,POW.F4.Alpha,POW.F4.BetaL,POW.F4.BetaH,POW.F4.Gamma,POW.F8.Theta,POW.F8.Alpha,POW.F8.BetaL,POW.F8.BetaH,POW.F8.Gamma,POW.AF4.Theta,POW.AF4.Alpha,POW.AF4.BetaL,POW.AF4.BetaH,POW.AF4.Gamma
1725716030.845504,1725716030.846609,65.0,0.0,4564.102539,4297.307617,4233.077148,4366.794922,4247.820313,4231.922852,4052.692383,4263.846191,4266.794922,4252.436035,4476.153809,4541.282227,4370.256348,4434.487305,0.0,1.0,15.0,15.0,1.0,1.0,0.0,4.0,4.0,4.0,4.0,4.0,4.0,4.0,4.0,4.0,4.0,4.0,4.0,4.0,4.0,100.0,,,,,,,,,,,,,,,,,,,,,,,,,,,,,,,,,,,,,,,,,,,,,,,,,,,,,,,,,,,,,,,,,,,,,,,,,,,,,,,,,,,,,,,,,,,,,,,,,,,,,,,,,,,,,,,,,,,,,,,,,,,,,,,,,,,
1725716030.849409,1725716030.850513,66.0,0.0,4567.563965,4298.333496,4233.461426,4366.410156,4247.05127,4229.487305,4051.538574,4264.358887,4265.512695,4256.538574,4476.666504,4540.0,4370.128418,4435.384766,0.0,1.0,15.0,,,,0.0,4.0,4.0,4.0,4.0,4.0,4.0,4.0,4.0,4.0,4.0,4.0,4.0,4.0,4.0,100.0,,,,,,,,,,,,,,,,,,,,,,,,,,,,,,,,,,,,,,,,,,,,,,,,,,,,,,,,,,,,,,,,,,,,,,,,,,,,,,,,,,,,,,,,,,,,,,,,,,,,,,,,,,,,,,,,,,,,,,,,,,,,,,,,,,,
1725716030.853313,1725716030.854417,67.0,0.0,4569.230957,4300.897461,4232.94873,4367.820313,4246.666504,4226.538574,4049.871826,4265.0,4263.717773,4258.717773,4476.922852,4537.820313,4370.128418,4435.0,0.0,1.0,15.0,,,,0.0,4.0,4.0,4.0,4.0,4.0,4.0,4.0,4.0,4.0,4.0,4.0,4.0,4.0,4.0,100.0,,,,,,,,,,,,,,,,,,,,,,,,,,,,,,,,,,,,,,,,,,,,,,,,,,,,,,,,,,,,,,,,,,,,,,,,,,,,,,,,,,,,,,,,,,,,,,,,,,,,,,,,,,,,,,,,,,,,,,,,,,,,,,,,,,,
1725716030.857217,1725716030.858321,68.0,0.0,4570.512695,4304.102539,4231.922852,4370.512695,4247.307617,4225.128418,4048.589844,4265.384766,4263.205078,4259.358887,4478.589844,4537.05127,4370.769043,4434.487305,0.0,1.0,15.0,,,,0.0,4.0,4.0,4.0,4.0,4.0,4.0,4.0,4.0,4.0,4.0,4.0,4.0,4.0,4.0,100.0,,,,,,,,,,,,,,,,,,,,,,,,,,,,,,,,,,,,,,,,,,,,,,,,,,,,,,,,0.0,0.0,64.0,0.491671,1.0,0.0,,,,,,,,,,,,,,,,,,,,,,,,,,,,,,,,,,,,,,,,,,,,,,,,,,,,,,,,,,,,,,,,,,,,,,
1725716030.861121,1725716030.862125,69.0,0.0,4572.692383,4305.769043,4231.282227,4372.436035,4249.102539,4225.512695,4048.589844,4265.769043,4264.615234,4259.871582,4482.436035,4539.230957,4372.307617,4435.256348,0.0,1.0,15.0,,,,0.0,4.0,4.0,4.0,4.0,4.0,4.0,4.0,4.0,4.0,4.0,4.0,4.0,4.0,4.0,100.0,,,,,,,,,,,,,,,,,,,,,,,,,,,,,,,,,,,,,,,,,,,,,,,,,,,,,,,,,,,,,,,,,,,,,,,,,,,,,,,,,,,,,,,,,,,,,,,,,,,,,,,,,,,,,,,,,,,,,,,,,,,,,,,,,,,
1725716030.865025,1725716030.86603,70.0,0.0,4576.538574,4304.487305,4231.922852,4372.563965,4251.794922,4226.666504,4049.615479,4265.897461,4266.666504,4260.897461,4487.820313,4543.461426,4374.102539,4437.692383,0.0,1.0,15.0,,,,0.0,4.0,4.0,4.0,4.0,4.0,4.0,4.0,4.0,4.0,4.0,4.0,4.0,4.0,4.0,100.0,,,,,,,,,,,,,,,,,,,,,,,,,,,,,,,,,,,,,,,,,,,,,,,,,,,,,,,,,,,,,,,,,,,,,,,,,,,,,,,,,,,,,,,,,,,,,,,,,,,,,,,,,,,,,,,,,,,,,,,,,,,,,,,,,,,
1725716030.868929,1725716030.869934,71.0,0.0,4581.410156,4300.769043,4233.461426,4370.897461,4255.128418,4226.666504,4050.641113,4265.897461,4268.461426,4262.692383,4491.922852,4547.436035,4375.512695,4441.025879,0.0,1.0,15.0,,,,0.0,4.0,4.0,4.0,4.0,4.0,4.0,4.0,4.0,4.0,4.0,4.0,4.0,4.0,4.0,100.0,,,,,,,,,,,,,,,,,,,,,,,,,,,,,,,,,,,,,,,,,,,,,,,,,,,,,,,,,,,,,,,,,,,,,,,,,,,,,,,,,,,,,,,,,,,,,,,,,,,,,,,,,,,,,,,,,,,,,,,,,,,,,,,,,,,
1725716030.872833,1725716030.873938,72.0,0.0,4585.769043,4296.666504,4234.871582,4368.846191,4257.820313,4224.615234,4050.769287,4265.512695,4269.358887,4264.230957,4492.179688,4548.717773,4375.769043,4443.077148,0.0,1.0,15.0,,,,0.0,4.0,4.0,4.0,4.0,4.0,4.0,4.0,4.0,4.0,4.0,4.0,4.0,4.0,4.0,100.0,,,,,,,,,,,,,,,,,,,,,,,,,,,,,,,,,,,,,,,,,,,,,,,,,,,,,,,,,,,,,,,,,,,,,,,,,,,,,,,,,,,,,,,,,,,,,,,,,,,,,,,,,,,,,,,,,,,,,,,,,,,,,,,,,,,
1725716030.876737,1725716030.877842,73.0,0.0,4587.94873,4293.717773,4234.871582,4367.436035,4259.358887,4220.897461,4049.743652,4265.384766,4269.743652,4264.487305,4488.205078,4546.666504,4375.0,4442.692383,0.0,1.0,15.0,,,,0.0,4.0,4.0,4.0,4.0,4.0,4.0,4.0,4.0,4.0,4.0,4.0,4.0,4.0,4.0,100.0,,,,,,,,,,,,,,,,,,,,,,,,,,,,,,,,,,,,,,,,,,,,,,,,,,,,,,,,,,,,,,,,,,,,,,,,,,,,,,,,,,,,,,,,,,,,,,,,,,,,,,,,,,,,,,,,,,,,,,,,,,,,,,,,,,,
1725716030.880641,1725716030.881746,74.0,0.0,4587.563965,4292.820313,4233.077148,4366.538574,4259.615234,4217.307617,4047.94873,4266.153809,4269.871582,4263.333496,4482.05127,4542.307617,4372.436035,4439.871582,0.0,1.0,15.0,,,,0.0,4.0,4.0,4.0,4.0,4.0,4.0,4.0,4.0,4.0,4.0,4.0,4.0,4.0,4.0,100.0,,,,,,,,,,,,,,,,,,,,,,,,,,,,,,,,,,,,,,,,,,,,,,,,,,,,,,,,,,,,,,,,,,,,,,,,,,,,,,,,,,,,,,,,,,,,,,,,,,,,,,,,,,,,,,,,,,,,,,,,,,,,,,,,,,,
1725716030.884545,1725716030.88565,75.0,0.0,4585.769043,4293.333496,4230.769043,4365.256348,4259.615234,4215.256348,4046.153809,4267.94873,4270.0,4261.794922,4477.436035,4538.205078,4368.461426,4436.153809,0.0,1.0,15.0,,,,0.0,4.0,4.0,4.0,4.0,4.0,4.0,4.0,4.0,4.0,4.0,4.0,4.0,4.0,4.0,100.0,,,,,,,,,,,,,,,,,,,,,,,,,,,,,,,,,,,,,,,,,,,,,,,,,,,,,,,,,,,,,,,,,,,,,,,,,,,,,,,,,,,,,,,,,,,,,,,,,,,,,,,,,,,,,,,,,,,,,,,,,,,,,,,,,,,
1725716030.88845,1725716030.889654,76.0,0.0,4584.230957,4294.102539,4229.487305,4363.461426,4260.384766,4215.0,4045.384521,4270.641113,4270.897461,4260.769043,4476.666504,4536.922852,4364.358887,4433.461426,0.0,1.0,15.0,,,,0.0,4.0,4.0,4.0,4.0,4.0,4.0,4.0,4.0,4.0,4.0,4.0,4.0,4.0,4.0,100.0,,,,,,,,,,,,,,,,,,,,,,,,,,,,,,,,,,,,,,,,,,,,,,,,,,,,,,,,0.0,0.0,64.0,0.491671,1.0,0.0,,,,,,,,,,,,,,,,,,,,,,,,,,,,,,,,,,,,,,,,,,,,,,,,,,,,,,,,,,,,,,,,,,,,,,
1725716030.892354,1725716030.893558,77.0,0.0,4584.358887,4294.230957,4230.512695,4362.436035,4262.563965,4215.769043,4046.281982,4273.333496,4272.179688,4261.153809,4479.743652,4539.230957,4362.436035,4433.205078,0.0,1.0,15.0,,,,0.0,4.0,4.0,4.0,4.0,4.0,4.0,4.0,4.0,4.0,4.0,4.0,4.0,4.0,4.0,100.0,,,,,,,,,,,,,,,,,,,,,,,,,,,,,,,,,,,,,,,,,,,,,,,,,,,,,,,,,,,,,,,,,,,,,,,,,,,,,,,,,,,,,,,,,,,,,,,,,,,,,,,,,,,,,,,,,,,,,,,,,,,,,,,,,,,
1725716030.896258,1725716030.897462,78.0,0.0,4586.025879,4294.230957,4232.94873,4363.717773,4264.743652,4216.282227,4048.974365,4275.0,4273.461426,4262.436035,4484.615234,4543.974121,4364.230957,4435.256348,0.0,1.0,15.0,,,,0.0,4.0,4.0,4.0,4.0,4.0,4.0,4.0,4.0,4.0,4.0,4.0,4.0,4.0,4.0,100.0,,,,,,,,,,,,,,,,,,,,,,,,,,,,,,,,,,,,,,,,,,,,,,,,,,,,,,,,,,,,,,,,,,,,,,,,,,,,,,,,,,,,,,,,,,,,,,,,,,,,,,,,,,,,,,,,,,,,,,,,,,,,,,,,,,,
1725716030.900162,1725716030.901466,79.0,0.0,4587.820313,4295.0,4235.256348,4367.307617,4265.897461,4215.641113,4052.692383,4275.256348,4274.102539,4263.205078,4488.846191,4548.717773,4369.615234,4438.974121,0.0,1.0,15.0,,,,0.0,4.0,4.0,4.0,4.0,4.0,4.0,4.0,4.0,4.0,4.0,4.0,4.0,4.0,4.0,100.0,,,,,,,,,,,,,,,,,,,,,,,,,,,,,,,,,,,,,,,,,,,,,,,,,,,,,,,,,,,,,,,,,,,,,,,,,,,,,,,,,,,,,,,,,,,,,,,,,,,,,,,,,,,,,,,,,,,,,,,,,,,,,,,,,,,
1725716030.904066,1725716030.90537,80.0,0.0,4588.717773,4296.282227,4236.025879,4371.666504,4265.384766,4214.102539,4056.281982,4274.871582,4273.974121,4262.94873,4491.025879,4552.563965,4375.897461,4442.692383,0.0,1.0,15.0,,,,0.0,4.0,4.0,4.0,4.0,4.0,4.0,4.0,4.0,4.0,4.0,4.0,4.0,4.0,4.0,100.0,,,,,,,,,,,,,,,,,,,,,,,,,,,,,,,,,,,,,,,,,,,,,,,,,,,,,,,,,,,,,,,,,,,,,,,,,,,,,,,,,,,,,,,,,,,,,,,,,,,,,,,,,,,,,,,,,,,,,,,,,,,,,,,,,,,
1725716030.90797,1725716030.909274,81.0,0.0,4588.846191,4297.179688,4235.384766,4374.102539,4264.487305,4212.820313,4059.230713,4275.512695,4274.102539,4261.794922,4491.025879,4555.769043,4380.256348,4445.256348,0.0,1.0,15.0,,,,0.0,4.0,4.0,4.0,4.0,4.0,4.0,4.0,4.0,4.0,4.0,4.0,4.0,4.0,4.0,100.0,,,,,,,,,,,,,,,,,,,,,,,,,,,,,,,,,,,,,,,,,,,,,,,,,,,,,,,,,,,,,,,,,,,,,,,,,,,,,,,,,,,,,,,,,,,,,,,,,,,,,,,,,,,,,,,,,,,,,,,,,,,,,,,,,,,
1725716030.911874,1725716030.913178,82.0,0.0,4589.230957,4296.282227,4234.102539,4373.077148,4263.974121,4213.077148,4061.025635,4277.94873,4274.871582,4261.025879,4490.128418,4558.717773,4380.641113,4445.897461,0.0,1.0,15.0,,,,0.0,4.0,4.0,4.0,4.0,4.0,4.0,4.0,4.0,4.0,4.0,4.0,4.0,4.0,4.0,100.0,,,,,,,,,,,,,,,,,,,,,,,,,,,,,,,,,,,,,,,,,,,,,,,,,,,,,,,,,,,,,,,,,,,,,,,,,,,,,,,,,,,,,,,,,,,,,,,,,,,,,,,,,,,,,,,,,,,,,,,,,,,,,,,,,,,
1725716030.915778,1725716030.917083,83.0,0.0,4589.615234,4293.589844,4233.077148,4369.743652,4264.230957,4214.615234,4061.410156,4280.769043,4275.769043,4260.769043,4489.102539,4560.128418,4377.179688,4444.358887,0.0,1.0,15.0,,,,0.0,4.0,4.0,4.0,4.0,4.0,4.0,4.0,4.0,4.0,4.0,4.0,4.0,4.0,4.0,100.0,,,,,,,,,,,,,,,,,,,,,,,,,,,,,,,,,,,,,,,,,,,,,,,,,,,,,,,,,,,,,,,,,,,,,,,,,,,,,,,,,,,,,,,,,,,,,,,,,,,,,,,,,,,,,,,,,,,,,,,,,,,,,,,,,,,
1725716030.919682,1725716030.920887,84.0,0.0,4589.230957,4290.256348,4232.436035,4366.153809,4264.871582,4215.769043,4060.384521,4281.025879,4275.512695,4260.512695,4488.333496,4557.820313,4371.538574,4441.153809,0.0,1.0,15.0,,,,0.0,4.0,4.0,4.0,4.0,4.0,4.0,4.0,4.0,4.0,4.0,4.0,4.0,4.0,4.0,100.0,,,,,,,,,,,,,,,,,1.0,0.0,0.0,,,,,,,,,,,,,,,,,,,,,,,,,,,,,,,,,,,,,0.0,0.0,64.0,1.0,1.0,0.0,17.576344,3.541105,0.873109,0.297696,0.1266,0.773224,0.853145,0.253637,0.136193,0.063443,1.531142,1.721491,0.358961,0.165804,0.062099,0.524787,0.986498,0.215394,0.088791,0.066205,0.731356,0.750515,0.345885,0.082437,0.073378,0.478358,0.589399,0.197385,0.04893,0.027136,3.637283,0.770339,0.629733,0.097625,0.068228,2.200867,8.660458,0.85103,0.315891,0.109121,1.704242,3.25343,0.593172,0.294304,0.078501,2.136695,2.775864,0.880852,0.330928,0.106384,3.283267,4.91728,1.041444,0.390285,0.104636,3.172627,8.175424,0.98036,0.326305,0.151517,2.5846,2.084002,1.2454,0.428716,0.120293,2.418852,3.511354,0.782171,0.31891,0.094449
1725716030.923586,1725716030.924791,85.0,0.0,4587.820313,4288.077148,4232.179688,4364.358887,4265.128418,4215.0,4058.589844,4277.563965,4273.333496,4259.871582,4487.94873,4551.666504,4365.897461,4438.333496,0.0,1.0,15.0,,,,0.0,4.0,4.0,4.0,4.0,4.0,4.0,4.0,4.0,4.0,4.0,4.0,4.0,4.0,4.0,100.0,,,,,,,,,,,,,,,,,,,,,,,,,,,,,,,,,,,,,,,,,,,,,,,,,,,,,,,,,,,,,,,,,,,,,,,,,,,,,,,,,,,,,,,,,,,,,,,,,,,,,,,,,,,,,,,,,,,,,,,,,,,,,,,,,,,
1725716030.927491,1725716030.928695,86.0,0.0,4587.05127,4288.077148,4232.179688,4365.0,4264.871582,4211.794922,4057.179443,4271.794922,4269.871582,4258.974121,4488.205078,4544.358887,4362.820313,4437.692383,0.0,1.0,15.0,,,,0.0,4.0,4.0,4.0,4.0,4.0,4.0,4.0,4.0,4.0,4.0,4.0,4.0,4.0,4.0,100.0,,,,,,,,,,,,,,,,,,,,,,,,,,,,,,,,,,,,,,,,,,,,,,,,,,,,,,,,,,,,,,,,,,,,,,,,,,,,,,,,,,,,,,,,,,,,,,,,,,,,,,,,,,,,,,,,,,,,,,,,,,,,,,,,,,,
1725716030.931395,1725716030.932699,87.0,0.0,4588.717773,4290.384766,4231.794922,4367.179688,4264.230957,4207.436035,4056.923096,4267.307617,4267.436035,4258.717773,4489.230957,4539.615234,4363.846191,4439.743652,0.0,1.0,15.0,,,,0.0,4.0,4.0,4.0,4.0,4.0,4.0,4.0,4.0,4.0,4.0,4.0,4.0,4.0,4.0,100.0,,,,,,,,,,,,,,,,,,,,,,,,,,,,,,,,,,,,,,,,,,,,,,,,,,,,,,,,,,,,,,,,,,,,,,,,,,,,,,,,,,,,,,,,,,,,,,,,,,,,,,,,,,,,,,,,,,,,,,,,,,,,,,,,,,,
1725716030.935299,1725716030.936603,88.0,0.0,4592.692383,4293.717773,4230.512695,4369.615234,4263.333496,4203.461426,4057.820557,4266.538574,4267.05127,4259.358887,4490.384766,4539.358887,4368.077148,4442.563965,0.0,1.0,15.0,,,,0.0,4.0,4.0,4.0,4.0,4.0,4.0,4.0,4.0,4.0,4.0,4.0,4.0,4.0,4.0,100.0,,,,,,,,,,,,,,,,,,,,,,,,,,,,,,,,,,,,,,,,,,,,,,,,,,,,,,,,,,,,,,,,,,,,,,,,,,,,,,,,,,,,,,,,,,,,,,,,,,,,,,,,,,,,,,,,,,,,,,,,,,,,,,,,,,,
1725716030.939203,1725716030.940507,89.0,0.0,4596.922852,4296.153809,4227.820313,4371.153809,4262.436035,4201.666504,4059.230713,4269.102539,4268.846191,4261.025879,4490.897461,4542.307617,4373.333496,4443.974121,0.0,1.0,15.0,,,,0.0,4.0,4.0,4.0,4.0,4.0,4.0,4.0,4.0,4.0,4.0,4.0,4.0,4.0,4.0,100.0,,,,,,,,,,,,,,,,,,,,,,,,,,,,,,,,,,,,,,,,,,,,,,,,,,,,,,,,,,,,,,,,,,,,,,,,,,,,,,,,,,,,,,,,,,,,,,,,,,,,,,,,,,,,,,,,,,,,,,,,,,,,,,,,,,,
1725716030.943107,1725716030.944411,90.0,0.0,4599.230957,4296.538574,4224.358887,4371.025879,4262.05127,4202.05127,4060.0,4272.820313,4271.538574,4262.94873,4490.0,4545.384766,4377.179688,4442.179688,0.0,1.0,15.0,,,,0.0,4.0,4.0,4.0,4.0,4.0,4.0,4.0,4.0,4.0,4.0,4.0,4.0,4.0,4.0,100.0,,,,,,,,,,,,,,,,,,,,,,,,,,,,,,,,,,,,,,,,,,,,,,,,,,,,,,,,,,,,,,,,,,,,,,,,,,,,,,,,,,,,,,,,,,,,,,,,,,,,,,,,,,,,,,,,,,,,,,,,,,,,,,,,,,,
1725716030.947011,1725716030.948415,91.0,0.0,4599.230957,4294.871582,4220.897461,4369.615234,4262.179688,4203.589844,4060.0,4275.512695,4273.974121,4263.974121,4488.461426,4546.025879,4378.589844,4437.820313,0.0,1.0,15.0,,,,0.0,4.0,4.0,4.0,4.0,4.0,4.0,4.0,4.0,4.0,4.0,4.0,4.0,4.0,4.0,100.0,,,,,,,,,,,,,,,,,,,,,,,,,,,,,,,,,,,,,,,,,,,,,,,,,,,,,,,,,,,,,,,,,,,,,,,,,,,,,,,,,,,,,,,,,,,,,,,,,,,,,,,,,,,,,,,,,,,,,,,,,,,,,,,,,,,
1725716030.950915,1725716030.952319,92.0,0.0,4598.077148,4292.436035,4218.589844,4367.436035,4262.692383,4204.615234,4059.102539,4276.538574,4275.512695,4263.717773,4487.563965,4543.717773,4377.820313,4432.692383,0.0,1.0,15.0,,,,0.0,4.0,4.0,4.0,4.0,4.0,4.0,4.0,4.0,4.0,4.0,4.0,4.0,4.0,4.0,100.0,,,,,,,,,,,,,,,,,,,,,,,,,,,,,,,,,,,,,,,,,,,,,,,,,,,,,,,,0.0,0.0,64.0,1.0,1.0,0.0,,,,,,,,,,,,,,,,,,,,,,,,,,,,,,,,,,,,,,,,,,,,,,,,,,,,,,,,,,,,,,,,,,,,,,
1725716030.954819,1725716030.956224,93.0,0.0,4597.179688,4290.769043,4217.692383,4365.128418,4262.94873,4203.846191,4058.076904,4276.410156,4275.897461,4262.436035,4488.205078,4539.487305,4375.384766,4428.846191,0.0,1.0,15.0,,,,0.0,4.0,4.0,4.0,4.0,4.0,4.0,4.0,4.0,4.0,4.0,4.0,4.0,4.0,4.0,100.0,,,,,,,,,,,,,,,,,,,,,,,,,,,,,,,,,,,,,,,,,,,,,,,,,,,,,,,,,,,,,,,,,,,,,,,,,,,,,,,,,,,,,,,,,,,,,,,,,,,,,,,,,,,,,,,,,,,,,,,,,,,,,,,,,,,
1725716030.958723,1725716030.960128,94.0,0.0,4597.307617,4290.769043,4217.94873,4363.589844,4262.307617,4201.794922,4057.179443,4276.410156,4276.153809,4260.897461,4489.615234,4535.641113,4372.05127,4427.179688,0.0,1.0,15.0,,,,0.0,4.0,4.0,4.0,4.0,4.0,4.0,4.0,4.0,4.0,4.0,4.0,4.0,4.0,4.0,100.0,,,,,,,,,,,,,,,,,,,,,,,,,,,,,,,,,,,,,,,,,,,,,,,,,,,,,,,,,,,,,,,,,,,,,,,,,,,,,,,,,,,,,,,,,,,,,,,,,,,,,,,,,,,,,,,,,,,,,,,,,,,,,,,,,,,
1725716030.962628,1725716030.964032,95.0,0.0,4598.205078,4292.05127,4218.333496,4363.461426,4260.897461,4199.871582,4057.179443,4277.179688,4276.794922,4260.256348,4490.641113,4534.615234,4368.974121,4426.922852,0.0,1.0,15.0,,,,0.0,4.0,4.0,4.0,4.0,4.0,4.0,4.0,4.0,4.0,4.0,4.0,4.0,4.0,4.0,100.0,,,,,,,,,,,,,,,,,,,,,,,,,,,,,,,,,,,,,,,,,,,,,,,,,,,,,,,,,,,,,,,,,,,,,,,,,,,,,,,,,,,,,,,,,,,,,,,,,,,,,,,,,,,,,,,,,,,,,,,,,,,,,,,,,,,
1725716030.966532,1725716030.967836,96.0,0.0,4598.846191,4293.589844,4218.333496,4363.974121,4259.230957,4199.230957,4058.589844,4278.846191,4278.077148,4261.153809,4490.512695,4537.436035,4367.820313,4427.05127,0.0,1.0,15.0,,,,0.0,4.0,4.0,4.0,4.0,4.0,4.0,4.0,4.0,4.0,4.0,4.0,4.0,4.0,4.0,100.0,,,,,,,,,,,,,,,,,,,,,,,,,,,,,,,,,,,,,,,,,,,,,,,,,,,,,,,,,,,,,,,,,,,,,,,,,,,,,,,,,,,,,,,,,,,,,,,,,,,,,,,,,,,,,,,,,,,,,,,,,,,,,,,,,,,
1725716030.970436,1725716030.97174,97.0,0.0,4598.717773,4294.743652,4218.461426,4364.743652,4258.205078,4200.128418,4061.538574,4280.384766,4279.230957,4263.077148,4490.256348,4542.692383,4368.974121,4427.563965,0.0,1.0,15.0,,,,0.0,4.0,4.0,4.0,4.0,4.0,4.0,4.0,4.0,4.0,4.0,4.0,4.0,4.0,4.0,100.0,,,,,,,,,,,,,,,,,,,,,,,,,,,,,,,,,,,,,,,,,,,,,,,,,,,,,,,,,,,,,,,,,,,,,,,,,,,,,,,,,,,,,,,,,,,,,,,,,,,,,,,,,,,,,,,,,,,,,,,,,,,,,,,,,,,
1725716030.97434,1725716030.975644,98.0,0.0,4598.077148,4295.256348,4219.743652,4365.769043,4258.461426,4201.282227,4065.641113,4281.025879,4280.128418,4264.871582,4491.922852,4548.077148,4371.666504,4430.128418,0.0,1.0,15.0,,,,0.0,4.0,4.0,4.0,4.0,4.0,4.0,4.0,4.0,4.0,4.0,4.0,4.0,4.0,4.0,100.0,,,,,,,,,,,,,,,,,,,,,,,,,,,,,,,,,,,,,,,,,,,,,,,,,,,,,,,,,,,,,,,,,,,,,,,,,,,,,,,,,,,,,,,,,,,,,,,,,,,,,,,,,,,,,,,,,,,,,,,,,,,,,,,,,,,
1725716030.978244,1725716030.979648,99.0,0.0,4597.94873,4295.897461,4223.205078,4366.922852,4260.0,4201.666504,4070.384521,4280.641113,4280.769043,4265.769043,4496.153809,4552.05127,4374.615234,4435.256348,0.0,1.0,15.0,,,,0.0,4.0,4.0,4.0,4.0,4.0,4.0,4.0,4.0,4.0,4.0,4.0,4.0,4.0,4.0,100.0,,,,,,,,,,,,,,,,,,,,,,,,,,,,,,,,,,,,,,,,,,,,,,,,,,,,,,,,,,,,,,,,,,,,,,,,,,,,,,,,,,,,,,,,,,,,,,,,,,,,,,,,,,,,,,,,,,,,,,,,,,,,,,,,,,,
1725716030.982148,1725716030.983552,100.0,0.0,4598.974121,4297.307617,4228.333496,4368.333496,4261.666504,4200.769043,4074.743652,4280.128418,4281.666504,4266.282227,4501.794922,4554.487305,4377.05127,4441.410156,0.0,1.0,15.0,,,,0.0,4.0,4.0,4.0,4.0,4.0,4.0,4.0,4.0,4.0,4.0,4.0,4.0,4.0,4.0,100.0,,,,,,,,,,,,,,,,,,,,,,,,,,,,,,,,,,,,,,,,,,,,,,,,,,,,,,,,0.0,0.0,64.0,1.0,1.0,0.0,,,,,,,,,,,,,,,,,,,,,,,,,,,,,,,,,,,,,,,,,,,,,,,,,,,,,,,,,,,,,,,,,,,,,,
1725716030.986052,1725716030.987456,101.0,0.0,4600.897461,4300.0,4233.205078,4370.128418,4262.436035,4199.358887,4077.564209,4280.0,4283.205078,4267.05127,4506.410156,4555.769043,4379.358887,4445.897461,0.0,1.0,15.0,,,,0.0,4.0,4.0,4.0,4.0,4.0,4.0,4.0,4.0,4.0,4.0,4.0,4.0,4.0,4.0,100.0,,,,,,,,,,,,,,,,,,,,,,,,,,,,,,,,,,,,,,,,,,,,,,,,,,,,,,,,,,,,,,,,,,,,,,,,,,,,,,,,,,,,,,,,,,,,,,,,,,,,,,,,,,,,,,,,,,,,,,,,,,,,,,,,,,,
1725716030.989956,1725716030.99136,102.0,0.0,4602.94873,4303.846191,4235.512695,4371.794922,4262.179688,4198.333496,4078.076904,4280.256348,4285.256348,4268.205078,4508.205078,4556.666504,4382.692383,4447.05127,0.0,1.0,15.0,,,,0.0,4.0,4.0,4.0,4.0,4.0,4.0,4.0,4.0,4.0,4.0,4.0,4.0,4.0,4.0,100.0,,,,,,,,,,,,,,,,,,,,,,,,,,,,,,,,,,,,,,,,,,,,,,,,,,,,,,,,,,,,,,,,,,,,,,,,,,,,,,,,,,,,,,,,,,,,,,,,,,,,,,,,,,,,,,,,,,,,,,,,,,,,,,,,,,,
1725716030.99386,1725716030.995364,103.0,0.0,4604.358887,4307.94873,4234.615234,4373.205078,4261.666504,4198.077148,4076.923096,4280.0,4286.794922,4269.615234,4507.307617,4557.94873,4387.179688,4445.897461,0.0,1.0,15.0,,,,0.0,4.0,4.0,4.0,4.0,4.0,4.0,4.0,4.0,4.0,4.0,4.0,4.0,4.0,4.0,100.0,,,,,,,,,,,,,,,,,,,,,,,,,,,,,,,,,,,,,,,,,,,,,,,,,,,,,,,,,,,,,,,,,,,,,,,,,,,,,,,,,,,,,,,,,,,,,,,,,,,,,,,,,,,,,,,,,,,,,,,,,,,,,,,,,,,
1725716030.997764,1725716030.999269,104.0,0.0,4604.743652,4311.025879,4232.307617,4374.615234,4261.922852,4198.589844,4076.153809,4279.102539,4287.179688,4271.410156,4505.641113,4560.384766,4392.436035,4445.384766,0.0,1.0,15.0,,,,0.0,4.0,4.0,4.0,4.0,4.0,4.0,4.0,4.0,4.0,4.0,4.0,4.0,4.0,4.0,100.0,,,,,,,,,,,,,,,,,,,,,,,,,,,,,,,,,,,,,,,,,,,,,,,,,,,,,,,,,,,,,,,,,,,,,,,,,,,,,,,,,,,,,,,,,,,,,,,,,,,,,,,,,,,,,,,,,,,,,,,,,,,,,,,,,,,
1725716031.001669,1725716031.003173,105.0,0.0,4605.0,4312.307617,4231.538574,4376.025879,4263.077148,4199.358887,4077.179443,4278.077148,4286.538574,4273.461426,4505.512695,4564.487305,4396.538574,4448.077148,0.0,1.0,15.0,,,,0.0,4.0,4.0,4.0,4.0,4.0,4.0,4.0,4.0,4.0,4.0,4.0,4.0,4.0,4.0,100.0,,,,,,,,,,,,,,,,,,,,,,,,,,,,,,,,,,,,,,,,,,,,,,,,,,,,,,,,,,,,,,,,,,,,,,,,,,,,,,,,,,,,,,,,,,,,,,,,,,,,,,,,,,,,,,,,,,,,,,,,,,,,,,,,,,,
1725716031.005573,1725716031.007177,106.0,0.0,4605.641113,4311.922852,4233.974121,4378.205078,4264.358887,4200.128418,4080.769287,4277.692383,4285.769043,4275.512695,4507.307617,4569.358887,4398.205078,4453.589844,0.0,1.0,15.0,,,,0.0,4.0,4.0,4.0,4.0,4.0,4.0,4.0,4.0,4.0,4.0,4.0,4.0,4.0,4.0,100.0,,,,,,,,,,,,,,,,,,,,,,,,,,,,,,,,,,,,,,,,,,,,,,,,,,,,,,,,,,,,,,,,,,,,,,,,,,,,,,,,,,,,,,,,,,,,,,,,,,,,,,,,,,,,,,,,,,,,,,,,,,,,,,,,,,,
1725716031.009477,1725716031.011081,107.0,0.0,4606.794922,4311.410156,4238.974121,4380.897461,4264.615234,4200.641113,4085.512939,4277.692383,4285.897461,4276.666504,4509.871582,4572.692383,4397.307617,4459.102539,0.0,1.0,15.0,,,,0.0,4.0,4.0,4.0,4.0,4.0,4.0,4.0,4.0,4.0,4.0,4.0,4.0,4.0,4.0,100.0,,,,,,,,,,,,,,,,,,,,,,,,,,,,,,,,,,,,,,,,,,,,,,,,,,,,,,,,,,,,,,,,,,,,,,,,,,,,,,,,,,,,,,,,,,,,,,,,,,,,,,,,,,,,,,,,,,,,,,,,,,,,,,,,,,,
1725716031.013381,1725716031.014985,108.0,0.0,4607.820313,4311.410156,4244.358887,4383.077148,4263.589844,4201.025879,4089.487061,4278.333496,4286.666504,4276.025879,4511.922852,4573.846191,4394.615234,4461.282227,0.0,1.0,15.0,,,,0.0,4.0,4.0,4.0,4.0,4.0,4.0,4.0,4.0,4.0,4.0,4.0,4.0,4.0,4.0,100.0,,,,,,,,,,,,,,,,,,,,,,,,,,,,,,,,,,,,,,,,,,,,,,,,,,,,,,,,0.0,0.0,64.0,1.0,1.0,0.0,,,,,,,,,,,,,,,,,,,,,,,,,,,,,,,,,,,,,,,,,,,,,,,,,,,,,,,,,,,,,,,,,,,,,,
1725716031.017285,1725716031.018889,109.0,0.0,4608.717773,4312.179688,4248.077148,4383.846191,4262.179688,4201.538574,4091.794922,4279.743652,4287.05127,4273.333496,4512.563965,4573.461426,4392.436035,4460.256348,0.0,1.0,15.0,,,,0.0,4.0,4.0,4.0,4.0,4.0,4.0,4.0,4.0,4.0,4.0,4.0,4.0,4.0,4.0,100.0,,,,,,,,,,,,,,,,,,,,,,,,,,,,,,,,,,,,,,,,,,,,,,,,,,,,,,,,,,,,,,,,,,,,,,,,,,,,,,,,,,,,,,,,,,,,,,,,,,,,,,,,,,,,,,,,,,,,,,,,,,,,,,,,,,,
1725716031.021189,1725716031.022893,110.0,0.0,4609.615234,4313.205078,4249.230957,4382.94873,4261.153809,4202.179688,4092.05127,4281.153809,4286.410156,4269.487305,4511.922852,4572.820313,4392.179688,4458.205078,0.0,1.0,15.0,,,,0.0,4.0,4.0,4.0,4.0,4.0,4.0,4.0,4.0,4.0,4.0,4.0,4.0,4.0,4.0,100.0,,,,,,,,,,,,,,,,,,,,,,,,,,,,,,,,,,,,,,,,,,,,,,,,,,,,,,,,,,,,,,,,,,,,,,,,,,,,,,,,,,,,,,,,,,,,,,,,,,,,,,,,,,,,,,,,,,,,,,,,,,,,,,,,,,,
1725716031.025093,1725716031.026797,111.0,0.0,4610.384766,4313.717773,4248.333496,4381.153809,4260.897461,4202.563965,4091.281982,4281.922852,4284.487305,4266.025879,4511.025879,4571.666504,4393.974121,4457.307617,0.0,1.0,15.0,,,,0.0,4.0,4.0,4.0,4.0,4.0,4.0,4.0,4.0,4.0,4.0,4.0,4.0,4.0,4.0,100.0,,,,,,,,,,,,,,,,,,,,,,,,,,,,,,,,,,,,,,,,,,,,,,,,,,,,,,,,,,,,,,,,,,,,,,,,,,,,,,,,,,,,,,,,,,,,,,,,,,,,,,,,,,,,,,,,,,,,,,,,,,,,,,,,,,,
1725716031.028997,1725716031.030701,112.0,0.0,4610.769043,4313.461426,4246.794922,4379.871582,4261.025879,4202.563965,4090.641113,4281.410156,4282.307617,4264.743652,4510.128418,4569.230957,4396.153809,4457.179688,0.0,1.0,15.0,,,,0.0,4.0,4.0,4.0,4.0,4.0,4.0,4.0,4.0,4.0,4.0,4.0,4.0,4.0,4.0,100.0,,,,,,,,,,,,,,,,,,,,,,,,,,,,,,,,,,,,,,,,,,,,,,,,,,,,,,,,,,,,,,,,,,,,,,,,,,,,,,,,,,,,,,,,,,,,,,,,,,,,,,,,,,,,,,,,,,,,,,,,,,,,,,,,,,,
1725716031.032901,1725716031.034605,113.0,0.0,4610.384766,4312.692383,4246.025879,4379.743652,4261.153809,4201.922852,4090.769287,4280.512695,4281.153809,4266.153809,4509.102539,4565.0,4396.922852,4456.025879,0.0,1.0,15.0,,,,0.0,4.0,4.0,4.0,4.0,4.0,4.0,4.0,4.0,4.0,4.0,4.0,4.0,4.0,4.0,100.0,,,,,,,,,,,,,,,,,,,,,,,,,,,,,,,,,,,,,,,,,,,,,,,,,,,,,,,,,,,,,,,,,,,,,,,,,,,,,,,,,,,,,,,,,,,,,,,,,,,,,,,,,,,,,,,,,,,,,,,,,,,,,,,,,,,
1725716031.036805,1725716031.038609,114.0,0.0,4608.974121,4311.666504,4246.282227,4380.641113,4261.282227,4201.153809,4091.410156,4281.025879,4282.307617,4269.615234,4507.820313,4560.641113,4396.153809,4453.333496,0.0,1.0,15.0,,,,0.0,4.0,4.0,4.0,4.0,4.0,4.0,4.0,4.0,4.0,4.0,4.0,4.0,4.0,4.0,100.0,,,,,,,,,,,,,,,,,,,,,,,,,,,,,,,,,,,,,,,,,,,,,,,,,,,,,,,,,,,,,,,,,,,,,,,,,,,,,,,,,,,,,,,,,,,,,,,,,,,,,,,,,,,,,,,,,,,,,,,,,,,,,,,,,,,
1725716031.040709,1725716031.042513,115.0,0.0,4607.05127,4311.153809,4247.05127,4381.282227,4261.410156,4200.769043,4092.307617,4283.846191,4285.256348,4272.94873,4506.538574,4557.94873,4394.615234,4450.769043,0.0,1.0,15.0,,,,0.0,4.0,4.0,4.0,4.0,4.0,4.0,4.0,4.0,4.0,4.0,4.0,4.0,4.0,4.0,100.0,,,,,,,,,,,,,,,,,,,,,,,,,,,,,,,,,,,,,,,,,,,,,,,,,,,,,,,,,,,,,,,,,,,,,,,,,,,,,,,,,,,,,,,,,,,,,,,,,,,,,,,,,,,,,,,,,,,,,,,,,,,,,,,,,,,
1725716031.044613,1725716031.046418,116.0,0.0,4604.615234,4311.025879,4247.820313,4381.025879,4261.794922,4200.769043,4093.076904,4287.94873,4288.333496,4274.230957,4505.769043,4557.436035,4393.461426,4450.512695,0.0,1.0,15.0,,,,0.0,4.0,4.0,4.0,4.0,4.0,4.0,4.0,4.0,4.0,4.0,4.0,4.0,4.0,4.0,100.0,,,,,,,,,,,,,,,,,1.0,0.0,0.0,,,,,,,,,,,,,,,,,,,,,,,,,,,,,,,,,,,,,0.0,0.0,1.0,0.0,1.0,0.0,12.758037,2.705068,0.717145,0.272422,0.111956,0.735579,0.891829,0.256806,0.133271,0.056797,1.818094,1.770205,0.392635,0.153055,0.059552,0.466897,1.073225,0.259725,0.087679,0.070516,0.674923,0.78212,0.334985,0.086421,0.077567,0.382619,0.569401,0.192526,0.054329,0.031337,2.932751,0.780184,0.577213,0.091692,0.066958,2.250548,8.262433,0.712227,0.288822,0.111135,1.720464,3.01771,0.529727,0.25322,0.078987,1.970362,2.221023,0.809406,0.291285,0.10782,3.094033,4.527268,1.002685,0.332529,0.105136,3.28601,7.63589,0.936419,0.300989,0.151533,2.47897,1.887925,1.061515,0.3934,0.124043,2.494751,3.393845,0.730402,0.280185,0.091157
1725716031.048518,1725716031.050322,117.0,0.0,4602.563965,4311.282227,4248.077148,4380.256348,4262.05127,4200.897461,4093.846191,4290.897461,4289.358887,4272.563965,4505.769043,4558.333496,4392.307617,4452.563965,0.0,1.0,15.0,,,,0.0,4.0,4.0,4.0,4.0,4.0,4.0,4.0,4.0,4.0,4.0,4.0,4.0,4.0,4.0,100.0,,,,,,,,,,,,,,,,,,,,,,,,,,,,,,,,,,,,,,,,,,,,,,,,,,,,,,,,,,,,,,,,,,,,,,,,,,,,,,,,,,,,,,,,,,,,,,,,,,,,,,,,,,,,,,,,,,,,,,,,,,,,,,,,,,,
1725716031.052422,1725716031.054326,118.0,0.0,4601.410156,4311.282227,4247.692383,4379.743652,4262.179688,4201.025879,4094.487061,4290.769043,4287.94873,4269.230957,4506.282227,4558.974121,4390.512695,4455.256348,0.0,1.0,15.0,,,,0.0,4.0,4.0,4.0,4.0,4.0,4.0,4.0,4.0,4.0,4.0,4.0,4.0,4.0,4.0,100.0,,,,,,,,,,,,,,,,,,,,,,,,,,,,,,,,,,,,,,,,,,,,,,,,,,,,,,,,,,,,,,,,,,,,,,,,,,,,,,,,,,,,,,,,,,,,,,,,,,,,,,,,,,,,,,,,,,,,,,,,,,,,,,,,,,,
1725716031.056326,1725716031.05823,119.0,0.0,4601.025879,4310.641113,4246.794922,4380.0,4261.538574,4201.025879,4094.615479,4287.563965,4284.743652,4265.897461,4506.410156,4558.333496,4388.077148,4455.769043,0.0,1.0,15.0,,,,0.0,4.0,4.0,4.0,4.0,4.0,4.0,4.0,4.0,4.0,4.0,4.0,4.0,4.0,4.0,100.0,,,,,,,,,,,,,,,,,,,,,,,,,,,,,,,,,,,,,,,,,,,,,,,,,,,,,,,,,,,,,,,,,,,,,,,,,,,,,,,,,,,,,,,,,,,,,,,,,,,,,,,,,,,,,,,,,,,,,,,,,,,,,,,,,,,
1725716031.06023,1725716031.062134,120.0,0.0,4600.641113,4309.358887,4246.025879,4380.897461,4260.641113,4201.153809,4093.718018,4283.077148,4281.538574,4263.974121,4505.641113,4556.538574,4385.128418,4452.94873,0.0,1.0,15.0,,,,0.0,4.0,4.0,4.0,4.0,4.0,4.0,4.0,4.0,4.0,4.0,4.0,4.0,4.0,4.0,100.0,,,,,,,,,,,,,,,,,,,,,,,,,,,,,,,,,,,,,,,,,,,,,,,,,,,,,,,,,,,,,,,,,,,,,,,,,,,,,,,,,,,,,,,,,,,,,,,,,,,,,,,,,,,,,,,,,,,,,,,,,,,,,,,,,,,
1725716031.064134,1725716031.066038,121.0,0.0,4600.256348,4308.846191,4245.897461,4381.922852,4259.743652,4201.282227,4092.435791,4279.743652,4279.743652,4263.205078,4503.461426,4554.743652,4382.436035,4447.563965,0.0,1.0,15.0,,,,0.0,4.0,4.0,4.0,4.0,4.0,4.0,4.0,4.0,4.0,4.0,4.0,4.0,4.0,4.0,100.0,,,,,,,,,,,,,,,,,,,,,,,,,,,,,,,,,,,,,,,,,,,,,,,,,,,,,,,,,,,,,,,,,,,,,,,,,,,,,,,,,,,,,,,,,,,,,,,,,,,,,,,,,,,,,,,,,,,,,,,,,,,,,,,,,,,
1725716031.068038,1725716031.069942,122.0,0.0,4600.256348,4309.615234,4246.666504,4382.692383,4259.871582,4201.153809,4092.179443,4278.589844,4279.615234,4262.436035,4500.128418,4553.461426,4380.641113,4442.692383,0.0,1.0,15.0,,,,0.0,4.0,4.0,4.0,4.0,4.0,4.0,4.0,4.0,4.0,4.0,4.0,4.0,4.0,4.0,100.0,,,,,,,,,,,,,,,,,,,,,,,,,,,,,,,,,,,,,,,,,,,,,,,,,,,,,,,,,,,,,,,,,,,,,,,,,,,,,,,,,,,,,,,,,,,,,,,,,,,,,,,,,,,,,,,,,,,,,,,,,,,,,,,,,,,
1725716031.071942,1725716031.073746,123.0,0.0,4600.897461,4312.05127,4247.820313,4382.94873,4260.897461,4200.512695,4094.230713,4279.102539,4279.743652,4261.538574,4496.410156,4553.333496,4380.512695,4441.153809,0.0,1.0,15.0,,,,0.0,4.0,4.0,4.0,4.0,4.0,4.0,4.0,4.0,4.0,4.0,4.0,4.0,4.0,4.0,100.0,,,,,,,,,,,,,,,,,,,,,,,,,,,,,,,,,,,,,,,,,,,,,,,,,,,,,,,,,,,,,,,,,,,,,,,,,,,,,,,,,,,,,,,,,,,,,,,,,,,,,,,,,,,,,,,,,,,,,,,,,,,,,,,,,,,
1725716031.075846,1725716031.07765,124.0,0.0,4601.538574,4314.871582,4248.077148,4382.563965,4261.794922,4200.0,4098.077148,4279.871582,4279.358887,4261.153809,4493.077148,4553.589844,4381.153809,4443.077148,0.0,1.0,15.0,,,,0.0,4.0,4.0,4.0,4.0,4.0,4.0,4.0,4.0,4.0,4.0,4.0,4.0,4.0,4.0,100.0,,,,,,,,,,,,,,,,,,,,,,,,,,,,,,,,,,,,,,,,,,,,,,,,,,,,,,,,0.0,0.0,1.0,0.0,1.0,0.0,,,,,,,,,,,,,,,,,,,,,,,,,,,,,,,,,,,,,,,,,,,,,,,,,,,,,,,,,,,,,,,,,,,,,,
1725716031.07975,1725716031.081554,125.0,0.0,4601.025879,4316.666504,4246.410156,4381.538574,4261.922852,4199.871582,4102.05127,4280.0,4278.589844,4261.410156,4490.641113,4552.820313,4381.153809,4445.641113,0.0,1.0,15.0,,,,0.0,4.0,4.0,4.0,4.0,4.0,4.0,4.0,4.0,4.0,4.0,4.0,4.0,4.0,4.0,100.0,,,,,,,,,,,,,,,,,,,,,,,,,,,,,,,,,,,,,,,,,,,,,,,,,,,,,,,,,,,,,,,,,,,,,,,,,,,,,,,,,,,,,,,,,,,,,,,,,,,,,,,,,,,,,,,,,,,,,,,,,,,,,,,,,,,
1725716031.083655,1725716031.085459,126.0,0.0,4598.077148,4316.538574,4243.077148,4380.384766,4260.512695,4200.128418,4104.487305,4279.358887,4278.205078,4261.153809,4489.615234,4549.487305,4378.974121,4445.256348,0.0,1.0,15.0,,,,0.0,4.0,4.0,4.0,4.0,4.0,4.0,4.0,4.0,4.0,4.0,4.0,4.0,4.0,4.0,100.0,,,,,,,,,,,,,,,,,,,,,,,,,,,,,,,,,,,,,,,,,,,,,,,,,,,,,,,,,,,,,,,,,,,,,,,,,,,,,,,,,,,,,,,,,,,,,,,,,,,,,,,,,,,,,,,,,,,,,,,,,,,,,,,,,,,
1725716031.087559,1725716031.089363,127.0,0.0,4593.205078,4313.846191,4239.487305,4379.743652,4257.179688,4200.384766,4105.128418,4278.333496,4278.205078,4259.743652,4489.871582,4543.461426,4375.0,4441.025879,0.0,1.0,15.0,,,,0.0,4.0,4.0,4.0,4.0,4.0,4.0,4.0,4.0,4.0,4.0,4.0,4.0,4.0,4.0,100.0,,,,,,,,,,,,,,,,,,,,,,,,,,,,,,,,,,,,,,,,,,,,,,,,,,,,,,,,,,,,,,,,,,,,,,,,,,,,,,,,,,,,,,,,,,,,,,,,,,,,,,,,,,,,,,,,,,,,,,,,,,,,,,,,,,,
1725716031.091463,1725716031.093267,128.0,0.0,4588.333496,4310.128418,4237.94873,4380.0,4252.692383,4200.384766,4104.230957,4277.820313,4278.205078,4257.307617,4491.025879,4537.436035,4371.282227,4435.256348,2683.0,1.0,15.0,,,,0.0,4.0,4.0,4.0,4.0,4.0,4.0,4.0,4.0,4.0,4.0,4.0,4.0,4.0,4.0,100.0,,,,,,,,,,,,,,,,,,,,,,,,,,,,,,,,,,,,,,,,,,,,,,,,,,,,,,,,,,,,,,,,,,,,,,,,,,,,,,,,,,,,,,,,,,,,,,,,,,,,,,,,,,,,,,,,,,,,,,,,,,,,,,,,,,,
1725716031.095367,1725716031.097171,129.0,0.0,4586.282227,4307.692383,4239.230957,4380.512695,4249.230957,4200.0,4103.205078,4277.820313,4277.94873,4255.0,4491.666504,4534.487305,4370.256348,4432.05127,2568.0,1.0,15.0,,,,0.0,4.0,4.0,4.0,4.0,4.0,4.0,4.0,4.0,4.0,4.0,4.0,4.0,4.0,4.0,100.0,,,,,,,,,,,,,,,,,,,,,,,,,,,,,,,,,,,,,,,,,,,,,,,,,,,,,,,,,,,,,,,,,,,,,,,,,,,,,,,,,,,,,,,,,,,,,,,,,,,,,,,,,,,,,,,,,,,,,,,,,,,,,,,,,,,
1725716031.099271,1725716031.100975,130.0,0.0,4588.333496,4308.077148,4242.820313,4381.025879,4248.717773,4200.0,4103.333496,4277.692383,4277.563965,4253.974121,4491.153809,4536.666504,4372.94873,4433.461426,2479.0,1.0,15.0,,,,0.0,4.0,4.0,4.0,4.0,4.0,4.0,4.0,4.0,4.0,4.0,4.0,4.0,4.0,4.0,100.0,,,,,,,,,,,,,,,,,,,,,,,,,,,,,,,,,,,,,,,,,,,,,,,,,,,,,,,,,,,,,,,,,,,,,,,,,,,,,,,,,,,,,,,,,,,,,,,,,,,,,,,,,,,,,,,,,,,,,,,,,,,,,,,,,,,
1725716031.103175,1725716031.104879,131.0,0.0,4593.589844,4311.282227,4246.794922,4381.282227,4251.282227,4200.641113,4105.384766,4277.179688,4277.436035,4253.974121,4490.0,4542.436035,4377.820313,4438.077148,2459.0,1.0,15.0,,,,0.0,4.0,4.0,4.0,4.0,4.0,4.0,4.0,4.0,4.0,4.0,4.0,4.0,4.0,4.0,100.0,,,,,,,,,,,,,,,,,,,,,,,,,,,,,,,,,,,,,,,,,,,,,,,,,,,,,,,,,,,,,,,,,,,,,,,,,,,,,,,,,,,,,,,,,,,,,,,,,,,,,,,,,,,,,,,,,,,,,,,,,,,,,,,,,,,
1725716031.107079,1725716031.108783,132.0,0.0,4598.846191,4315.0,4249.102539,4381.410156,4254.871582,4201.794922,4108.974121,4276.794922,4277.94873,4254.487305,4489.487305,4549.230957,4382.820313,4443.077148,2438.0,1.0,15.0,,,,0.0,4.0,4.0,4.0,4.0,4.0,4.0,4.0,4.0,4.0,4.0,4.0,4.0,4.0,4.0,100.0,,,,,,,,,,,,,,,,,,,,,,,,,,,,,,,,,,,,,,,,,,,,,,,,,,,,,,,,0.0,0.0,1.0,0.0,1.0,0.0,,,,,,,,,,,,,,,,,,,,,,,,,,,,,,,,,,,,,,,,,,,,,,,,,,,,,,,,,,,,,,,,,,,,,,
1725716031.110983,1725716031.112787,133.0,0.0,4601.025879,4317.05127,4249.743652,4381.666504,4256.922852,4202.692383,4112.820313,4277.179688,4278.846191,4254.743652,4490.384766,4553.974121,4385.641113,4446.282227,2399.0,1.0,15.0,,,,0.0,4.0,4.0,4.0,4.0,4.0,4.0,4.0,4.0,4.0,4.0,4.0,4.0,4.0,4.0,100.0,,,,,,,,,,,,,,,,,,,,,,,,,,,,,,,,,,,,,,,,,,,,,,,,,,,,,,,,,,,,,,,,,,,,,,,,,,,,,,,,,,,,,,,,,,,,,,,,,,,,,,,,,,,,,,,,,,,,,,,,,,,,,,,,,,,
1725716031.114887,1725716031.116691,134.0,0.0,4598.974121,4316.666504,4249.615234,4382.436035,4256.410156,4202.692383,4116.025879,4278.846191,4280.0,4254.871582,4492.563965,4556.025879,4385.897461,4447.307617,2421.0,1.0,15.0,,,,0.0,4.0,4.0,4.0,4.0,4.0,4.0,4.0,4.0,4.0,4.0,4.0,4.0,4.0,4.0,100.0,,,,,,,,,,,,,,,,,,,,,,,,,,,,,,,,,,,,,,,,,,,,,,,,,,,,,,,,,,,,,,,,,,,,,,,,,,,,,,,,,,,,,,,,,,,,,,,,,,,,,,,,,,,,,,,,,,,,,,,,,,,,,,,,,,,
1725716031.118791,1725716031.120596,135.0,0.0,4594.358887,4314.871582,4250.128418,4383.461426,4254.487305,4201.666504,4118.461426,4281.410156,4281.282227,4255.384766,4494.743652,4555.769043,4384.871582,4447.05127,2491.0,1.0,15.0,,,,0.0,4.0,4.0,4.0,4.0,4.0,4.0,4.0,4.0,4.0,4.0,4.0,4.0,4.0,4.0,100.0,,,,,,,,,,,,,,,,,,,,,,,,,,,,,,,,,,,,,,,,,,,,,,,,,,,,,,,,,,,,,,,,,,,,,,,,,,,,,,,,,,,,,,,,,,,,,,,,,,,,,,,,,,,,,,,,,,,,,,,,,,,,,,,,,,,
1725716031.122696,1725716031.1245,136.0,0.0,4590.128418,4313.461426,4251.666504,4384.615234,4252.820313,4200.128418,4120.0,4283.461426,4282.307617,4257.179688,4495.897461,4554.487305,4384.615234,4446.666504,2466.0,1.0,15.0,,,,0.0,4.0,4.0,4.0,4.0,4.0,4.0,4.0,4.0,4.0,4.0,4.0,4.0,4.0,4.0,100.0,,,,,,,,,,,,,,,,,,,,,,,,,,,,,,,,,,,,,,,,,,,,,,,,,,,,,,,,,,,,,,,,,,,,,,,,,,,,,,,,,,,,,,,,,,,,,,,,,,,,,,,,,,,,,,,,,,,,,,,,,,,,,,,,,,,
1725716031.1266,1725716031.128504,137.0,0.0,4588.077148,4312.94873,4253.077148,4385.0,4252.307617,4198.846191,4120.769043,4283.846191,4282.563965,4259.615234,4495.769043,4553.333496,4385.256348,4446.282227,2560.0,1.0,15.0,,,,0.0,4.0,4.0,4.0,4.0,4.0,4.0,4.0,4.0,4.0,4.0,4.0,4.0,4.0,4.0,100.0,,,,,,,,,,,,,,,,,,,,,,,,,,,,,,,,,,,,,,,,,,,,,,,,,,,,,,,,,,,,,,,,,,,,,,,,,,,,,,,,,,,,,,,,,,,,,,,,,,,,,,,,,,,,,,,,,,,,,,,,,,,,,,,,,,,
1725716031.130504,1725716031.132408,138.0,0.0,4587.563965,4312.94873,4253.077148,4383.974121,4252.692383,4198.717773,4120.769043,4282.563965,4282.307617,4261.410156,4494.615234,4552.05127,4385.512695,4445.897461,2884.0,1.0,15.0,,,,0.0,4.0,4.0,4.0,4.0,4.0,4.0,4.0,4.0,4.0,4.0,4.0,4.0,4.0,4.0,100.0,,,,,,,,,,,,,,,,,,,,,,,,,,,,,,,,,,,,,,,,,,,,,,,,,,,,,,,,,,,,,,,,,,,,,,,,,,,,,,,,,,,,,,,,,,,,,,,,,,,,,,,,,,,,,,,,,,,,,,,,,,,,,,,,,,,
1725716031.134408,1725716031.136312,139.0,0.0,4586.153809,4312.563965,4251.153809,4381.410156,4252.692383,4199.487305,4120.256348,4281.282227,4282.179688,4261.538574,4493.333496,4550.256348,4384.230957,4445.0,3114.0,1.0,15.0,,,,0.0,4.0,4.0,4.0,4.0,4.0,4.0,4.0,4.0,4.0,4.0,4.0,4.0,4.0,4.0,100.0,,,,,,,,,,,,,,,,,,,,,,,,,,,,,,,,,,,,,,,,,,,,,,,,,,,,,,,,,,,,,,,,,,,,,,,,,,,,,,,,,,,,,,,,,,,,,,,,,,,,,,,,,,,,,,,,,,,,,,,,,,,,,,,,,,,
1725716031.138312,1725716031.140316,140.0,0.0,4582.563965,4311.282227,4248.717773,4378.461426,4251.666504,4200.384766,4119.871582,4281.538574,4282.563965,4260.0,4492.692383,4547.563965,4381.538574,4444.102539,3396.0,1.0,15.0,,,,0.0,4.0,4.0,4.0,4.0,4.0,4.0,4.0,4.0,4.0,4.0,4.0,4.0,4.0,4.0,100.0,,,,,,,,,,,,,,,,,,,,,,,,,,,,,,,,,,,,,,,,,,,,,,,,,,,,,,,,0.0,0.0,1.0,0.0,1.0,0.0,,,,,,,,,,,,,,,,,,,,,,,,,,,,,,,,,,,,,,,,,,,,,,,,,,,,,,,,,,,,,,,,,,,,,,
1725716031.142216,1725716031.14422,141.0,0.0,4577.563965,4309.487305,4246.922852,4376.666504,4249.743652,4200.512695,4119.871582,4283.589844,4283.846191,4258.205078,4492.563965,4544.871582,4379.102539,4443.333496,3817.0,1.0,15.0,,,,0.0,4.0,4.0,4.0,4.0,4.0,4.0,4.0,4.0,4.0,4.0,4.0,4.0,4.0,4.0,100.0,,,,,,,,,,,,,,,,,,,,,,,,,,,,,,,,,,,,,,,,,,,,,,,,,,,,,,,,,,,,,,,,,,,,,,,,,,,,,,,,,,,,,,,,,,,,,,,,,,,,,,,,,,,,,,,,,,,,,,,,,,,,,,,,,,,
1725716031.14612,1725716031.148124,142.0,0.0,4573.461426,4308.333496,4246.666504,4376.538574,4248.077148,4199.487305,4120.512695,4285.897461,4285.897461,4257.563965,4492.436035,4543.077148,4378.333496,4443.333496,2884.0,1.0,15.0,,,,0.0,4.0,4.0,4.0,4.0,4.0,4.0,4.0,4.0,4.0,4.0,4.0,4.0,4.0,4.0,100.0,,,,,,,,,,,,,,,,,,,,,,,,,,,,,,,,,,,,,,,,,,,,,,,,,,,,,,,,,,,,,,,,,,,,,,,,,,,,,,,,,,,,,,,,,,,,,,,,,,,,,,,,,,,,,,,,,,,,,,,,,,,,,,,,,,,
1725716031.150024,1725716031.152028,143.0,0.0,4571.666504,4308.077148,4247.307617,4377.692383,4247.692383,4197.692383,4121.922852,4287.05127,4288.461426,4258.974121,4492.05127,4542.563965,4379.102539,4443.589844,3114.0,1.0,15.0,,,,0.0,4.0,4.0,4.0,4.0,4.0,4.0,4.0,4.0,4.0,4.0,4.0,4.0,4.0,4.0,100.0,,,,,,,,,,,,,,,,,,,,,,,,,,,,,,,,,,,,,,,,,,,,,,,,,,,,,,,,,,,,,,,,,,,,,,,,,,,,,,,,,,,,,,,,,,,,,,,,,,,,,,,,,,,,,,,,,,,,,,,,,,,,,,,,,,,
1725716031.153928,1725716031.155932,144.0,0.0,4571.410156,4308.717773,4247.820313,4379.615234,4248.974121,4196.282227,4124.358887,4286.538574,4291.282227,4261.410156,4491.410156,4542.94873,4380.0,4442.94873,3396.0,1.0,15.0,,,,0.0,4.0,4.0,4.0,4.0,4.0,4.0,4.0,4.0,4.0,4.0,4.0,4.0,4.0,4.0,100.0,,,,,,,,,,,,,,,,,,,,,,,,,,,,,,,,,,,,,,,,,,,,,,,,,,,,,,,,,,,,,,,,,,,,,,,,,,,,,,,,,,,,,,,,,,,,,,,,,,,,,,,,,,,,,,,,,,,,,,,,,,,,,,,,,,,
1725716031.157833,1725716031.159936,145.0,0.0,4570.384766,4309.230957,4247.692383,4381.282227,4251.410156,4195.897461,4127.563965,4284.743652,4293.974121,4262.94873,4490.769043,4542.820313,4379.615234,4440.769043,3817.0,1.0,15.0,,,,0.0,4.0,4.0,4.0,4.0,4.0,4.0,4.0,4.0,4.0,4.0,4.0,4.0,4.0,4.0,100.0,,,,,,,,,,,,,,,,,,,,,,,,,,,,,,,,,,,,,,,,,,,,,,,,,,,,,,,,,,,,,,,,,,,,,,,,,,,,,,,,,,,,,,,,,,,,,,,,,,,,,,,,,,,,,,,,,,,,,,,,,,,,,,,,,,,
1725716031.161737,1725716031.16384,146.0,0.0,4566.922852,4308.717773,4246.794922,4382.307617,4252.94873,4196.410156,4131.025879,4283.077148,4295.256348,4262.179688,4490.256348,4541.282227,4377.94873,4437.820313,2884.0,1.0,15.0,,,,0.0,4.0,4.0,4.0,4.0,4.0,4.0,4.0,4.0,4.0,4.0,4.0,4.0,4.0,4.0,100.0,,,,,,,,,,,,,,,,,,,,,,,,,,,,,,,,,,,,,,,,,,,,,,,,,,,,,,,,,,,,,,,,,,,,,,,,,,,,,,,,,,,,,,,,,,,,,,,,,,,,,,,,,,,,,,,,,,,,,,,,,,,,,,,,,,,
1725716031.165641,1725716031.167744,147.0,0.0,4561.922852,4307.05127,4245.641113,4382.05127,4252.307617,4197.307617,4133.974121,4282.05127,4294.358887,4259.487305,4489.871582,4539.102539,4375.512695,4435.384766,3114.0,1.0,15.0,,,,0.0,4.0,4.0,4.0,4.0,4.0,4.0,4.0,4.0,4.0,4.0,4.0,4.0,4.0,4.0,100.0,,,,,,,,,,,,,,,,,,,,,,,,,,,,,,,,,,,,,,,,,,,,,,,,,,,,,,,,,,,,,,,,,,,,,,,,,,,,,,,,,,,,,,,,,,,,,,,,,,,,,,,,,,,,,,,,,,,,,,,,,,,,,,,,,,,
1725716031.169545,1725716031.171649,148.0,0.0,4557.436035,4305.256348,4244.871582,4380.769043,4250.128418,4197.94873,4135.897461,4281.025879,4291.282227,4256.282227,4489.102539,4537.179688,4373.077148,4433.974121,3396.0,1.0,15.0,,,,0.0,4.0,4.0,4.0,4.0,4.0,4.0,4.0,4.0,4.0,4.0,4.0,4.0,4.0,4.0,100.0,,,,,,,,,,,,,,,,,1.0,0.0,0.0,,,,,,,,,,,,,,,,,,,,,,,,,,,,,,,,,,,,,0.0,0.0,1.0,0.0,1.0,0.0,7.752446,2.050293,0.633681,0.248444,0.096615,0.760848,0.941398,0.274263,0.151655,0.04955,2.137008,1.791003,0.449922,0.159892,0.057113,0.458165,1.146406,0.317779,0.100774,0.073696,0.578152,0.767657,0.309569,0.092326,0.077013,0.305545,0.518124,0.170664,0.067208,0.037739,2.143082,0.754693,0.491879,0.089629,0.06489,2.02555,7.404084,0.570282,0.246053,0.109832,1.600032,2.71722,0.464515,0.208433,0.077114,1.715638,1.743077,0.757674,0.253947,0.105316,2.687227,4.063098,0.974613,0.279127,0.109461,3.178753,6.845488,0.908858,0.282509,0.148811,2.235098,1.672678,0.871208,0.365832,0.126863,2.415037,3.151275,0.71209,0.253271,0.089479
1725716031.173449,1725716031.175553,149.0,0.0,4555.0,4304.487305,4244.743652,4379.102539,4248.589844,4197.94873,4136.922852,4279.102539,4287.436035,4253.205078,4487.820313,4536.538574,4370.897461,4432.94873,3817.0,1.0,15.0,,,,0.0,4.0,4.0,4.0,4.0,4.0,4.0,4.0,4.0,4.0,4.0,4.0,4.0,4.0,4.0,100.0,,,,,,,,,,,,,,,,,,,,,,,,,,,,,,,,,,,,,,,,,,,,,,,,,,,,,,,,,,,,,,,,,,,,,,,,,,,,,,,,,,,,,,,,,,,,,,,,,,,,,,,,,,,,,,,,,,,,,,,,,,,,,,,,,,,
1725716031.177353,1725716031.179357,150.0,0.0,4554.230957,4305.384766,4245.0,4378.333496,4249.230957,4197.820313,4137.179688,4275.769043,4284.230957,4250.769043,4486.922852,4536.922852,4369.743652,4431.922852,2884.0,1.0,15.0,,,,0.0,4.0,4.0,4.0,4.0,4.0,4.0,4.0,4.0,4.0,4.0,4.0,4.0,4.0,4.0,100.0,,,,,,,,,,,,,,,,,,,,,,,,,,,,,,,,,,,,,,,,,,,,,,,,,,,,,,,,,,,,,,,,,,,,,,,,,,,,,,,,,,,,,,,,,,,,,,,,,,,,,,,,,,,,,,,,,,,,,,,,,,,,,,,,,,,
1725716031.181257,1725716031.183261,151.0,0.0,4552.820313,4307.179688,4245.512695,4378.717773,4251.794922,4197.94873,4137.436035,4272.692383,4282.563965,4249.358887,4487.05127,4537.563965,4370.897461,4431.282227,3114.0,1.0,15.0,,,,0.0,4.0,4.0,4.0,4.0,4.0,4.0,4.0,4.0,4.0,4.0,4.0,4.0,4.0,4.0,100.0,,,,,,,,,,,,,,,,,,,,,,,,,,,,,,,,,,,,,,,,,,,,,,,,,,,,,,,,,,,,,,,,,,,,,,,,,,,,,,,,,,,,,,,,,,,,,,,,,,,,,,,,,,,,,,,,,,,,,,,,,,,,,,,,,,,
1725716031.185161,1725716031.187165,152.0,0.0,4549.102539,4309.230957,4246.794922,4379.615234,4255.512695,4198.717773,4137.94873,4271.794922,4282.179688,4249.743652,4488.205078,4538.205078,4374.230957,4432.05127,3396.0,1.0,15.0,,,,0.0,4.0,4.0,4.0,4.0,4.0,4.0,4.0,4.0,4.0,4.0,4.0,4.0,4.0,4.0,100.0,,,,,,,,,,,,,,,,,,,,,,,,,,,,,,,,,,,,,,,,,,,,,,,,,,,,,,,,,,,,,,,,,,,,,,,,,,,,,,,,,,,,,,,,,,,,,,,,,,,,,,,,,,,,,,,,,,,,,,,,,,,,,,,,,,,
1725716031.189065,1725716031.190969,153.0,0.0,4543.077148,4310.641113,4249.358887,4379.487305,4259.230957,4200.256348,4139.615234,4273.333496,4282.05127,4251.538574,4489.615234,4539.358887,4378.461426,4434.871582,3817.0,1.0,15.0,,,,0.0,4.0,4.0,4.0,4.0,4.0,4.0,4.0,4.0,4.0,4.0,4.0,4.0,4.0,4.0,100.0,,,,,,,,,,,,,,,,,,,,,,,,,,,,,,,,,,,,,,,,,,,,,,,,,,,,,,,,,,,,,,,,,,,,,,,,,,,,,,,,,,,,,,,,,,,,,,,,,,,,,,,,,,,,,,,,,,,,,,,,,,,,,,,,,,,
1725716031.192969,1725716031.194873,154.0,0.0,4537.563965,4311.153809,4253.205078,4378.077148,4261.666504,4201.794922,4142.692383,4275.512695,4281.538574,4253.717773,4490.641113,4541.025879,4381.410156,4438.717773,2884.0,1.0,15.0,,,,0.0,4.0,4.0,4.0,4.0,4.0,4.0,4.0,4.0,4.0,4.0,4.0,4.0,4.0,4.0,100.0,,,,,,,,,,,,,,,,,,,,,,,,,,,,,,,,,,,,,,,,,,,,,,,,,,,,,,,,,,,,,,,,,,,,,,,,,,,,,,,,,,,,,,,,,,,,,,,,,,,,,,,,,,,,,,,,,,,,,,,,,,,,,,,,,,,
1725716031.196874,1725716031.198777,155.0,0.0,4535.256348,4310.641113,4257.436035,4375.897461,4262.05127,4202.436035,4146.410156,4275.641113,4280.384766,4255.641113,4491.025879,4542.179688,4381.922852,4442.436035,3114.0,1.0,15.0,,,,0.0,4.0,4.0,4.0,4.0,4.0,4.0,4.0,4.0,4.0,4.0,4.0,4.0,4.0,4.0,100.0,,,,,,,,,,,,,,,,,,,,,,,,,,,,,,,,,,,,,,,,,,,,,,,,,,,,,,,,,,,,,,,,,,,,,,,,,,,,,,,,,,,,,,,,,,,,,,,,,,,,,,,,,,,,,,,,,,,,,,,,,,,,,,,,,,,
1725716031.200778,1725716031.202682,156.0,0.0,4536.410156,4309.871582,4260.897461,4373.974121,4260.641113,4202.179688,4149.871582,4272.179688,4278.974121,4257.307617,4491.153809,4541.922852,4381.025879,4444.743652,3396.0,1.0,15.0,,,,0.0,4.0,4.0,4.0,4.0,4.0,4.0,4.0,4.0,4.0,4.0,4.0,4.0,4.0,4.0,100.0,,,,,,,,,,,,,,,,,,,,,,,,,,,,,,,,,,,,,,,,,,,,,,,,,,,,,,,,0.0,0.0,1.0,0.0,1.0,0.0,,,,,,,,,,,,,,,,,,,,,,,,,,,,,,,,,,,,,,,,,,,,,,,,,,,,,,,,,,,,,,,,,,,,,,
1725716031.204682,1725716031.206486,157.0,0.0,4539.102539,4310.256348,4262.692383,4373.077148,4258.846191,4201.794922,4152.179688,4266.922852,4278.333496,4259.358887,4491.410156,4540.769043,4380.769043,4445.384766,3817.0,1.0,15.0,,,,0.0,4.0,4.0,4.0,4.0,4.0,4.0,4.0,4.0,4.0,4.0,4.0,4.0,4.0,4.0,100.0,,,,,,,,,,,,,,,,,,,,,,,,,,,,,,,,,,,,,,,,,,,,,,,,,,,,,,,,,,,,,,,,,,,,,,,,,,,,,,,,,,,,,,,,,,,,,,,,,,,,,,,,,,,,,,,,,,,,,,,,,,,,,,,,,,,
1725716031.208586,1725716031.21039,158.0,0.0,4541.025879,4312.563965,4263.205078,4373.333496,4258.077148,4201.794922,4153.589844,4263.589844,4278.717773,4261.538574,4491.922852,4540.256348,4382.94873,4445.384766,2884.0,1.0,15.0,,,,0.0,4.0,4.0,4.0,4.0,4.0,4.0,4.0,4.0,4.0,4.0,4.0,4.0,4.0,4.0,100.0,,,,,,,,,,,,,,,,,,,,,,,,,,,,,,,,,,,,,,,,,,,,,,,,,,,,,,,,,,,,,,,,,,,,,,,,,,,,,,,,,,,,,,,,,,,,,,,,,,,,,,,,,,,,,,,,,,,,,,,,,,,,,,,,,,,
1725716031.21249,1725716031.214294,159.0,0.0,4541.153809,4316.538574,4263.333496,4374.358887,4259.102539,4202.436035,4154.230957,4264.358887,4279.487305,4262.94873,4493.205078,4541.666504,4386.794922,4445.769043,3114.0,1.0,15.0,,,,0.0,4.0,4.0,4.0,4.0,4.0,4.0,4.0,4.0,4.0,4.0,4.0,4.0,4.0,4.0,100.0,,,,,,,,,,,,,,,,,,,,,,,,,,,,,,,,,,,,,,,,,,,,,,,,,,,,,,,,,,,,,,,,,,,,,,,,,,,,,,,,,,,,,,,,,,,,,,,,,,,,,,,,,,,,,,,,,,,,,,,,,,,,,,,,,,,
1725716031.216394,1725716031.218198,160.0,0.0,4540.256348,4320.0,4263.333496,4375.128418,4260.897461,4203.205078,4154.358887,4268.846191,4280.128418,4262.307617,4494.871582,4544.487305,4390.256348,4446.794922,3396.0,1.0,15.0,,,,0.0,4.0,4.0,4.0,4.0,4.0,4.0,4.0,4.0,4.0,4.0,4.0,4.0,4.0,4.0,100.0,,,,,,,,,,,,,,,,,,,,,,,,,,,,,,,,,,,,,,,,,,,,,,,,,,,,,,,,,,,,,,,,,,,,,,,,,,,,,,,,,,,,,,,,,,,,,,,,,,,,,,,,,,,,,,,,,,,,,,,,,,,,,,,,,,,
1725716031.220298,1725716031.222002,161.0,0.0,4539.230957,4321.538574,4263.205078,4375.128418,4262.436035,4203.205078,4154.102539,4274.871582,4280.256348,4259.358887,4496.282227,4547.436035,4390.897461,4447.563965,3817.0,1.0,15.0,,,,0.0,4.0,4.0,4.0,4.0,4.0,4.0,4.0,4.0,4.0,4.0,4.0,4.0,4.0,4.0,100.0,,,,,,,,,,,,,,,,,,,,,,,,,,,,,,,,,,,,,,,,,,,,,,,,,,,,,,,,,,,,,,,,,,,,,,,,,,,,,,,,,,,,,,,,,,,,,,,,,,,,,,,,,,,,,,,,,,,,,,,,,,,,,,,,,,,
1725716031.224202,1725716031.225906,162.0,0.0,4538.205078,4320.897461,4262.692383,4374.358887,4263.205078,4202.563965,4154.487305,4279.871582,4280.0,4255.256348,4496.410156,4548.205078,4388.077148,4447.05127,2884.0,1.0,15.0,,,,0.0,4.0,4.0,4.0,4.0,4.0,4.0,4.0,4.0,4.0,4.0,4.0,4.0,4.0,4.0,100.0,,,,,,,,,,,,,,,,,,,,,,,,,,,,,,,,,,,,,,,,,,,,,,,,,,,,,,,,,,,,,,,,,,,,,,,,,,,,,,,,,,,,,,,,,,,,,,,,,,,,,,,,,,,,,,,,,,,,,,,,,,,,,,,,,,,
1725716031.228106,1725716031.22991,163.0,0.0,4535.769043,4319.230957,4261.538574,4373.589844,4262.820313,4201.538574,4155.769043,4282.436035,4280.128418,4251.922852,4494.743652,4546.025879,4383.717773,4445.512695,3114.0,1.0,15.0,,,,0.0,4.0,4.0,4.0,4.0,4.0,4.0,4.0,4.0,4.0,4.0,4.0,4.0,4.0,4.0,100.0,,,,,,,,,,,,,,,,,,,,,,,,,,,,,,,,,,,,,,,,,,,,,,,,,,,,,,,,,,,,,,,,,,,,,,,,,,,,,,,,,,,,,,,,,,,,,,,,,,,,,,,,,,,,,,,,,,,,,,,,,,,,,,,,,,,
1725716031.23201,1725716031.233815,164.0,0.0,4531.538574,4317.820313,4260.384766,4373.461426,4261.153809,4200.897461,4157.563965,4281.538574,4280.897461,4250.256348,4491.794922,4542.179688,4380.769043,4443.589844,3396.0,1.0,15.0,,,,0.0,4.0,4.0,4.0,4.0,4.0,4.0,4.0,4.0,4.0,4.0,4.0,4.0,4.0,4.0,100.0,,,,,,,,,,,,,,,,,,,,,,,,,,,,,,,,,,,,,,,,,,,,,,,,,,,,,,,,0.0,0.0,1.0,0.0,1.0,0.0,,,,,,,,,,,,,,,,,,,,,,,,,,,,,,,,,,,,,,,,,,,,,,,,,,,,,,,,,,,,,,,,,,,,,,
1725716031.235914,1725716031.237719,165.0,0.0,4526.410156,4317.307617,4259.743652,4374.230957,4258.461426,4200.769043,4158.846191,4277.820313,4282.05127,4250.128418,4489.358887,4538.717773,4380.641113,4442.307617,3817.0,1.0,15.0,,,,0.0,4.0,4.0,4.0,4.0,4.0,4.0,4.0,4.0,4.0,4.0,4.0,4.0,4.0,4.0,100.0,,,,,,,,,,,,,,,,,,,,,,,,,,,,,,,,,,,,,,,,,,,,,,,,,,,,,,,,,,,,,,,,,,,,,,,,,,,,,,,,,,,,,,,,,,,,,,,,,,,,,,,,,,,,,,,,,,,,,,,,,,,,,,,,,,,
1725716031.239818,1725716031.241623,166.0,0.0,4522.94873,4317.307617,4260.0,4375.0,4255.641113,4201.025879,4159.358887,4273.205078,4282.820313,4250.256348,4488.717773,4537.307617,4382.436035,4442.05127,2884.0,1.0,15.0,,,,0.0,4.0,4.0,4.0,4.0,4.0,4.0,4.0,4.0,4.0,4.0,4.0,4.0,4.0,4.0,100.0,,,,,,,,,,,,,,,,,,,,,,,,,,,,,,,,,,,,,,,,,,,,,,,,,,,,,,,,,,,,,,,,,,,,,,,,,,,,,,,,,,,,,,,,,,,,,,,,,,,,,,,,,,,,,,,,,,,,,,,,,,,,,,,,,,,
1725716031.243723,1725716031.245527,167.0,0.0,4522.05127,4316.666504,4260.769043,4374.871582,4253.205078,4200.897461,4159.358887,4269.871582,4282.436035,4250.128418,4490.128418,4537.820313,4383.846191,4442.179688,3114.0,1.0,15.0,,,,0.0,4.0,4.0,4.0,4.0,4.0,4.0,4.0,4.0,4.0,4.0,4.0,4.0,4.0,4.0,100.0,,,,,,,,,,,,,,,,,,,,,,,,,,,,,,,,,,,,,,,,,,,,,,,,,,,,,,,,,,,,,,,,,,,,,,,,,,,,,,,,,,,,,,,,,,,,,,,,,,,,,,,,,,,,,,,,,,,,,,,,,,,,,,,,,,,
1725716031.247627,1725716031.249531,168.0,0.0,4522.179688,4314.743652,4261.666504,4373.333496,4251.538574,4200.512695,4159.358887,4268.974121,4281.410156,4250.384766,4492.179688,4538.717773,4383.461426,4441.922852,3396.0,1.0,15.0,,,,0.0,4.0,4.0,4.0,4.0,4.0,4.0,4.0,4.0,4.0,4.0,4.0,4.0,4.0,4.0,100.0,,,,,,,,,,,,,,,,,,,,,,,,,,,,,,,,,,,,,,,,,,,,,,,,,,,,,,,,,,,,,,,,,,,,,,,,,,,,,,,,,,,,,,,,,,,,,,,,,,,,,,,,,,,,,,,,,,,,,,,,,,,,,,,,,,,
1725716031.251531,1725716031.253435,169.0,0.0,4520.641113,4312.820313,4262.179688,4371.538574,4250.512695,4200.512695,4160.256348,4270.512695,4281.153809,4251.794922,4493.205078,4539.230957,4381.666504,4441.410156,3817.0,1.0,15.0,,,,0.0,4.0,4.0,4.0,4.0,4.0,4.0,4.0,4.0,4.0,4.0,4.0,4.0,4.0,4.0,100.0,,,,,,,,,,,,,,,,,,,,,,,,,,,,,,,,,,,,,,,,,,,,,,,,,,,,,,,,,,,,,,,,,,,,,,,,,,,,,,,,,,,,,,,,,,,,,,,,,,,,,,,,,,,,,,,,,,,,,,,,,,,,,,,,,,,
1725716031.255435,1725716031.257339,170.0,0.0,4516.538574,4312.563965,4262.692383,4370.641113,4250.0,4201.025879,4162.436035,4273.461426,4282.307617,4254.615234,4492.563965,4539.230957,4380.256348,4440.897461,2884.0,1.0,15.0,,,,0.0,4.0,4.0,4.0,4.0,4.0,4.0,4.0,4.0,4.0,4.0,4.0,4.0,4.0,4.0,100.0,,,,,,,,,,,,,,,,,,,,,,,,,,,,,,,,,,,,,,,,,,,,,,,,,,,,,,,,,,,,,,,,,,,,,,,,,,,,,,,,,,,,,,,,,,,,,,,,,,,,,,,,,,,,,,,,,,,,,,,,,,,,,,,,,,,
1725716031.259339,1725716031.261243,171.0,0.0,4511.922852,4314.230957,4263.717773,4371.410156,4250.384766,4202.436035,4165.512695,4276.282227,4284.743652,4257.692383,4491.153809,4539.487305,4380.128418,4441.282227,3114.0,1.0,15.0,,,,0.0,4.0,4.0,4.0,4.0,4.0,4.0,4.0,4.0,4.0,4.0,4.0,4.0,4.0,4.0,100.0,,,,,,,,,,,,,,,,,,,,,,,,,,,,,,,,,,,,,,,,,,,,,,,,,,,,,,,,,,,,,,,,,,,,,,,,,,,,,,,,,,,,,,,,,,,,,,,,,,,,,,,,,,,,,,,,,,,,,,,,,,,,,,,,,,,
1725716031.263243,1725716031.265247,172.0,0.0,4508.717773,4316.538574,4265.128418,4373.846191,4251.794922,4204.358887,4168.333496,4277.563965,4287.179688,4259.871582,4490.0,4540.384766,4381.410156,4442.563965,3396.0,1.0,15.0,,,,0.0,4.0,4.0,4.0,4.0,4.0,4.0,4.0,4.0,4.0,4.0,4.0,4.0,4.0,4.0,100.0,,,,,,,,,,,,,,,,,,,,,,,,,,,,,,,,,,,,,,,,,,,,,,,,,,,,,,,,0.0,0.0,1.0,0.0,1.0,0.0,,,,,,,,,,,,,,,,,,,,,,,,,,,,,,,,,,,,,,,,,,,,,,,,,,,,,,,,,,,,,,,,,,,,,,
1725716031.267147,1725716031.269151,173.0,0.0,4507.179688,4317.692383,4266.153809,4376.922852,4253.589844,4205.769043,4169.871582,4276.153809,4288.333496,4260.384766,4490.0,4541.538574,4383.077148,4443.846191,3817.0,1.0,15.0,,,,0.0,4.0,4.0,4.0,4.0,4.0,4.0,4.0,4.0,4.0,4.0,4.0,4.0,4.0,4.0,100.0,,,,,,,,,,,,,,,,,,,,,,,,,,,,,,,,,,,,,,,,,,,,,,,,,,,,,,,,,,,,,,,,,,,,,,,,,,,,,,,,,,,,,,,,,,,,,,,,,,,,,,,,,,,,,,,,,,,,,,,,,,,,,,,,,,,
1725716031.271051,1725716031.273055,174.0,0.0,4505.256348,4316.794922,4265.897461,4378.589844,4254.743652,4205.512695,4170.0,4272.820313,4287.436035,4259.615234,4490.512695,4541.794922,4383.717773,4443.846191,2884.0,1.0,15.0,,,,0.0,4.0,4.0,4.0,4.0,4.0,4.0,4.0,4.0,4.0,4.0,4.0,4.0,4.0,4.0,100.0,,,,,,,,,,,,,,,,,,,,,,,,,,,,,,,,,,,,,,,,,,,,,,,,,,,,,,,,,,,,,,,,,,,,,,,,,,,,,,,,,,,,,,,,,,,,,,,,,,,,,,,,,,,,,,,,,,,,,,,,,,,,,,,,,,,
1725716031.274955,1725716031.276959,175.0,0.0,4500.769043,4314.743652,4264.615234,4377.436035,4254.871582,4203.974121,4170.0,4269.871582,4285.128418,4258.589844,4490.897461,4540.384766,4383.077148,4441.794922,3114.0,1.0,15.0,,,,0.0,4.0,4.0,4.0,4.0,4.0,4.0,4.0,4.0,4.0,4.0,4.0,4.0,4.0,4.0,100.0,,,,,,,,,,,,,,,,,,,,,,,,,,,,,,,,,,,,,,,,,,,,,,,,,,,,,,,,,,,,,,,,,,,,,,,,,,,,,,,,,,,,,,,,,,,,,,,,,,,,,,,,,,,,,,,,,,,,,,,,,,,,,,,,,,,
1725716031.27886,1725716031.280864,176.0,0.0,4494.871582,4313.589844,4263.333496,4373.846191,4254.743652,4202.563965,4171.538574,4269.358887,4282.692383,4257.820313,4490.769043,4538.205078,4381.666504,4438.205078,3396.0,1.0,15.0,,,,0.0,4.0,4.0,4.0,4.0,4.0,4.0,4.0,4.0,4.0,4.0,4.0,4.0,4.0,4.0,100.0,,,,,,,,,,,,,,,,,,,,,,,,,,,,,,,,,,,,,,,,,,,,,,,,,,,,,,,,,,,,,,,,,,,,,,,,,,,,,,,,,,,,,,,,,,,,,,,,,,,,,,,,,,,,,,,,,,,,,,,,,,,,,,,,,,,
1725716031.282764,1725716031.284668,177.0,0.0,4490.769043,4314.871582,4263.333496,4370.641113,4255.897461,4203.077148,4175.128418,4271.538574,4281.282227,4257.307617,4490.641113,4537.307617,4380.769043,4435.384766,3817.0,1.0,15.0,,,,0.0,4.0,4.0,4.0,4.0,4.0,4.0,4.0,4.0,4.0,4.0,4.0,4.0,4.0,4.0,100.0,,,,,,,,,,,,,,,,,,,,,,,,,,,,,,,,,,,,,,,,,,,,,,,,,,,,,,,,,,,,,,,,,,,,,,,,,,,,,,,,,,,,,,,,,,,,,,,,,,,,,,,,,,,,,,,,,,,,,,,,,,,,,,,,,,,
1725716031.286668,1725716031.288572,178.0,0.0,4491.794922,4318.205078,4264.615234,4370.512695,4258.077148,4206.153809,4180.0,4275.384766,4281.538574,4256.025879,4491.025879,4538.461426,4380.769043,4435.641113,2884.0,1.0,15.0,,,,0.0,4.0,4.0,4.0,4.0,4.0,4.0,4.0,4.0,4.0,4.0,4.0,4.0,4.0,4.0,100.0,,,,,,,,,,,,,,,,,,,,,,,,,,,,,,,,,,,,,,,,,,,,,,,,,,,,,,,,,,,,,,,,,,,,,,,,,,,,,,,,,,,,,,,,,,,,,,,,,,,,,,,,,,,,,,,,,,,,,,,,,,,,,,,,,,,
1725716031.290572,1725716031.292476,179.0,0.0,4497.692383,4321.282227,4266.282227,4374.230957,4260.0,4210.769043,4183.846191,4278.717773,4282.563965,4253.974121,4491.922852,4540.897461,4381.538574,4438.846191,3114.0,1.0,15.0,,,,0.0,4.0,4.0,4.0,4.0,4.0,4.0,4.0,4.0,4.0,4.0,4.0,4.0,4.0,4.0,100.0,,,,,,,,,,,,,,,,,,,,,,,,,,,,,,,,,,,,,,,,,,,,,,,,,,,,,,,,,,,,,,,,,,,,,,,,,,,,,,,,,,,,,,,,,,,,,,,,,,,,,,,,,,,,,,,,,,,,,,,,,,,,,,,,,,,
1725716031.294476,1725716031.29628,180.0,0.0,4504.615234,4322.179688,4267.436035,4379.615234,4260.256348,4215.0,4185.512695,4280.256348,4283.461426,4251.666504,4492.563965,4542.692383,4381.922852,4442.692383,3396.0,1.0,15.0,,,,0.0,4.0,4.0,4.0,4.0,4.0,4.0,4.0,4.0,4.0,4.0,4.0,4.0,4.0,4.0,100.0,1.0,41.666668,1.0,4.0,4.0,4.0,4.0,3.0,1.0,4.0,4.0,4.0,4.0,4.0,4.0,4.0,1.0,0.0,0.0,,,,,,,,,,,,,,,,,,,,,,,,,,,,,,,,,,,,,0.0,0.0,64.0,0.058743,1.0,0.0,4.453174,1.712109,0.659347,0.235448,0.084616,0.887727,1.014297,0.314368,0.19259,0.044267,2.459258,1.746807,0.534457,0.188562,0.054017,0.529456,1.188089,0.390127,0.128055,0.075328,0.50906,0.711367,0.28387,0.100262,0.072284,0.279009,0.447445,0.140117,0.086019,0.045323,1.514951,0.698955,0.397971,0.090582,0.062414,1.60101,6.163541,0.511528,0.199319,0.104888,1.387671,2.356069,0.437106,0.173684,0.073804,1.453791,1.392861,0.768479,0.232953,0.099348,2.192884,3.554806,1.018477,0.250556,0.116531,2.877963,5.860922,0.970063,0.284748,0.147243,1.954646,1.514802,0.762724,0.364863,0.129609,2.227041,2.819274,0.787183,0.248148,0.092164
1725716031.29838,1725716031.300184,181.0,0.0,4507.563965,4320.384766,4267.307617,4382.563965,4258.077148,4217.436035,4185.641113,4280.256348,4283.461426,4250.128418,4492.436035,4543.205078,4381.410156,4444.358887,3817.0,1.0,15.0,,,,0.0,4.0,4.0,4.0,4.0,4.0,4.0,4.0,4.0,4.0,4.0,4.0,4.0,4.0,4.0,100.0,,,,,,,,,,,,,,,,,,,,,,,,,,,,,,,,,,,,,,,,,,,,,,,,,,,,,,,,,,,,,,,,,,,,,,,,,,,,,,,,,,,,,,,,,,,,,,,,,,,,,,,,,,,,,,,,,,,,,,,,,,,,,,,,,,,
1725716031.302284,1725716031.304088,182.0,0.0,4503.846191,4316.794922,4266.410156,4381.282227,4254.487305,4217.692383,4185.641113,4279.487305,4282.820313,4249.743652,4491.666504,4542.307617,4380.0,4442.307617,2884.0,1.0,15.0,,,,0.0,4.0,4.0,4.0,4.0,4.0,4.0,4.0,4.0,4.0,4.0,4.0,4.0,4.0,4.0,100.0,,,,,,,,,,,,,,,,,,,,,,,,,,,,,,,,,,,,,,,,,,,,,,,,,,,,,,,,,,,,,,,,,,,,,,,,,,,,,,,,,,,,,,,,,,,,,,,,,,,,,,,,,,,,,,,,,,,,,,,,,,,,,,,,,,,
1725716031.306188,1725716031.308092,183.0,0.0,4495.512695,4312.94873,4265.384766,4376.922852,4251.025879,4216.666504,4186.025879,4278.077148,4282.05127,4250.128418,4490.384766,4540.641113,4377.563965,4437.436035,3114.0,1.0,15.0,,,,0.0,4.0,4.0,4.0,4.0,4.0,4.0,4.0,4.0,4.0,4.0,4.0,4.0,4.0,4.0,100.0,,,,,,,,,,,,,,,,,,,,,,,,,,,,,,,,,,,,,,,,,,,,,,,,,,,,,,,,,,,,,,,,,,,,,,,,,,,,,,,,,,,,,,,,,,,,,,,,,,,,,,,,,,,,,,,,,,,,,,,,,,,,,,,,,,,
1725716031.310092,1725716031.311997,184.0,0.0,4487.436035,4310.0,4264.743652,4372.820313,4249.102539,4215.641113,4186.153809,4276.666504,4281.410156,4250.641113,4488.717773,4539.102539,4374.358887,4431.794922,3396.0,1.0,15.0,,,,0.0,4.0,4.0,4.0,4.0,4.0,4.0,4.0,4.0,4.0,4.0,4.0,4.0,4.0,4.0,100.0,,,,,,,,,,,,,,,,,,,,,,,,,,,,,,,,,,,,,,,,,,,,,,,,,,,,,,,,,,,,,,,,,,,,,,,,,,,,,,,,,,,,,,,,,,,,,,,,,,,,,,,,,,,,,,,,,,,,,,,,,,,,,,,,,,,
1725716031.313996,1725716031.315901,185.0,0.0,4484.102539,4308.589844,4264.615234,4371.666504,4249.358887,4215.256348,4185.512695,4276.153809,4281.153809,4250.512695,4486.025879,4537.94873,4370.769043,4428.205078,3817.0,1.0,15.0,,,,0.0,4.0,4.0,4.0,4.0,4.0,4.0,4.0,4.0,4.0,4.0,4.0,4.0,4.0,4.0,100.0,,,,,,,,,,,,,,,,,,,,,,,,,,,,,,,,,,,,,,,,,,,,,,,,,,,,,,,,,,,,,,,,,,,,,,,,,,,,,,,,,,,,,,,,,,,,,,,,,,,,,,,,,,,,,,,,,,,,,,,,,,,,,,,,,,,
1725716031.317901,1725716031.319805,186.0,0.0,4485.641113,4308.717773,4264.487305,4373.205078,4250.512695,4215.512695,4184.615234,4277.307617,4281.153809,4249.871582,4481.922852,4537.692383,4367.307617,4427.820313,2884.0,1.0,15.0,,,,0.0,4.0,4.0,4.0,4.0,4.0,4.0,4.0,4.0,4.0,4.0,4.0,4.0,4.0,4.0,100.0,,,,,,,,,,,,,,,,,,,,,,,,,,,,,,,,,,,,,,,,,,,,,,,,,,,,,,,,,,,,,,,,,,,,,,,,,,,,,,,,,,,,,,,,,,,,,,,,,,,,,,,,,,,,,,,,,,,,,,,,,,,,,,,,,,,
1725716031.321805,1725716031.323809,187.0,0.0,4488.461426,4309.871582,4264.230957,4375.128418,4251.025879,4216.282227,4184.487305,4279.102539,4281.282227,4249.102539,4477.563965,4537.820313,4364.615234,4430.128418,3114.0,1.0,15.0,,,,0.0,4.0,4.0,4.0,4.0,4.0,4.0,4.0,4.0,4.0,4.0,4.0,4.0,4.0,4.0,100.0,,,,,,,,,,,,,,,,,,,,,,,,,,,,,,,,,,,,,,,,,,,,,,,,,,,,,,,,,,,,,,,,,,,,,,,,,,,,,,,,,,,,,,,,,,,,,,,,,,,,,,,,,,,,,,,,,,,,,,,,,,,,,,,,,,,
1725716031.325709,1725716031.327713,188.0,0.0,4488.717773,4311.282227,4263.974121,4375.641113,4250.384766,4216.794922,4186.538574,4279.743652,4281.282227,4249.358887,4474.871582,4537.820313,4364.102539,4433.589844,3396.0,1.0,15.0,,,,0.0,4.0,4.0,4.0,4.0,4.0,4.0,4.0,4.0,4.0,4.0,4.0,4.0,4.0,4.0,100.0,,,,,,,,,,,,,,,,,,,,,,,,,,,,,,,,,,,,,,,,,,,,,,,,,,,,,,,,0.0,0.0,64.0,0.058743,1.0,0.0,,,,,,,,,,,,,,,,,,,,,,,,,,,,,,,,,,,,,,,,,,,,,,,,,,,,,,,,,,,,,,,,,,,,,,
1725716031.329613,1725716031.331617,189.0,0.0,4485.384766,4312.179688,4264.615234,4375.0,4249.102539,4216.922852,4190.384766,4277.563965,4281.025879,4251.025879,4475.769043,4537.692383,4366.153809,4436.794922,3817.0,1.0,15.0,,,,0.0,4.0,4.0,4.0,4.0,4.0,4.0,4.0,4.0,4.0,4.0,4.0,4.0,4.0,4.0,100.0,,,,,,,,,,,,,,,,,,,,,,,,,,,,,,,,,,,,,,,,,,,,,,,,,,,,,,,,,,,,,,,,,,,,,,,,,,,,,,,,,,,,,,,,,,,,,,,,,,,,,,,,,,,,,,,,,,,,,,,,,,,,,,,,,,,
1725716031.333517,1725716031.335621,190.0,0.0,4480.512695,4312.179688,4266.922852,4374.615234,4248.589844,4216.282227,4195.128418,4272.820313,4280.897461,4253.846191,4480.128418,4537.94873,4370.384766,4439.358887,2884.0,1.0,15.0,,,,0.0,4.0,4.0,4.0,4.0,4.0,4.0,4.0,4.0,4.0,4.0,4.0,4.0,4.0,4.0,100.0,,,,,,,,,,,,,,,,,,,,,,,,,,,,,,,,,,,,,,,,,,,,,,,,,,,,,,,,,,,,,,,,,,,,,,,,,,,,,,,,,,,,,,,,,,,,,,,,,,,,,,,,,,,,,,,,,,,,,,,,,,,,,,,,,,,
1725716031.337421,1725716031.339525,191.0,0.0,4476.922852,4311.666504,4270.512695,4375.897461,4248.846191,4215.256348,4199.102539,4267.94873,4281.410156,4257.307617,4485.769043,4539.487305,4375.384766,4441.282227,3114.0,1.0,15.0,,,,0.0,4.0,4.0,4.0,4.0,4.0,4.0,4.0,4.0,4.0,4.0,4.0,4.0,4.0,4.0,100.0,,,,,,,,,,,,,,,,,,,,,,,,,,,,,,,,,,,,,,,,,,,,,,,,,,,,,,,,,,,,,,,,,,,,,,,,,,,,,,,,,,,,,,,,,,,,,,,,,,,,,,,,,,,,,,,,,,,,,,,,,,,,,,,,,,,
1725716031.341325,1725716031.343429,192.0,0.0,4475.641113,4311.410156,4274.487305,4378.974121,4249.487305,4214.230957,4201.282227,4265.641113,4282.436035,4260.256348,4490.256348,4542.94873,4379.743652,4442.94873,3396.0,1.0,15.0,,,,0.0,4.0,4.0,4.0,4.0,4.0,4.0,4.0,4.0,4.0,4.0,4.0,4.0,4.0,4.0,100.0,,,,,,,,,,,,,,,,,,,,,,,,,,,,,,,,,,,,,,,,,,,,,,,,,,,,,,,,,,,,,,,,,,,,,,,,,,,,,,,,,,,,,,,,,,,,,,,,,,,,,,,,,,,,,,,,,,,,,,,,,,,,,,,,,,,
1725716031.345229,1725716031.347333,193.0,0.0,4476.153809,4312.563965,4277.820313,4382.307617,4249.743652,4213.333496,4202.05127,4267.05127,4283.717773,4262.307617,4492.05127,4547.692383,4382.307617,4444.102539,3817.0,1.0,15.0,,,,0.0,4.0,4.0,4.0,4.0,4.0,4.0,4.0,4.0,4.0,4.0,4.0,4.0,4.0,4.0,100.0,,,,,,,,,,,,,,,,,,,,,,,,,,,,,,,,,,,,,,,,,,,,,,,,,,,,,,,,,,,,,,,,,,,,,,,,,,,,,,,,,,,,,,,,,,,,,,,,,,,,,,,,,,,,,,,,,,,,,,,,,,,,,,,,,,,
1725716031.349133,1725716031.351237,194.0,0.0,4477.563965,4315.128418,4279.743652,4383.461426,4249.871582,4212.692383,4202.307617,4271.666504,4284.230957,4262.94873,4491.666504,4552.307617,4383.205078,4445.256348,2884.0,1.0,15.0,,,,0.0,4.0,4.0,4.0,4.0,4.0,4.0,4.0,4.0,4.0,4.0,4.0,4.0,4.0,4.0,100.0,,,,,,,,,,,,,,,,,,,,,,,,,,,,,,,,,,,,,,,,,,,,,,,,,,,,,,,,,,,,,,,,,,,,,,,,,,,,,,,,,,,,,,,,,,,,,,,,,,,,,,,,,,,,,,,,,,,,,,,,,,,,,,,,,,,
1725716031.353037,1725716031.355241,195.0,0.0,4479.102539,4318.205078,4280.256348,4382.179688,4250.384766,4212.563965,4202.436035,4276.922852,4284.102539,4262.563965,4490.641113,4555.512695,4383.205078,4446.282227,3114.0,1.0,15.0,,,,0.0,4.0,4.0,4.0,4.0,4.0,4.0,4.0,4.0,4.0,4.0,4.0,4.0,4.0,4.0,100.0,,,,,,,,,,,,,,,,,,,,,,,,,,,,,,,,,,,,,,,,,,,,,,,,,,,,,,,,,,,,,,,,,,,,,,,,,,,,,,,,,,,,,,,,,,,,,,,,,,,,,,,,,,,,,,,,,,,,,,,,,,,,,,,,,,,
1725716031.356942,1725716031.359145,196.0,0.0,4479.871582,4320.384766,4280.128418,4380.512695,4251.282227,4212.692383,4202.820313,4280.384766,4284.358887,4261.666504,4490.256348,4556.666504,4383.333496,4446.922852,3396.0,1.0,15.0,,,,0.0,4.0,4.0,4.0,4.0,4.0,4.0,4.0,4.0,4.0,4.0,4.0,4.0,4.0,4.0,100.0,,,,,,,,,,,,,,,,,,,,,,,,,,,,,,,,,,,,,,,,,,,,,,,,,,,,,,,,0.0,0.0,64.0,0.058743,1.0,0.0,,,,,,,,,,,,,,,,,,,,,,,,,,,,,,,,,,,,,,,,,,,,,,,,,,,,,,,,,,,,,,,,,,,,,,
1725716031.360846,1725716031.36305,197.0,0.0,4478.974121,4320.897461,4279.743652,4380.256348,4252.05127,4212.820313,4203.333496,4280.769043,4285.897461,4261.153809,4490.769043,4556.025879,4383.461426,4446.794922,3817.0,1.0,15.0,,,,0.0,4.0,4.0,4.0,4.0,4.0,4.0,4.0,4.0,4.0,4.0,4.0,4.0,4.0,4.0,100.0,,,,,,,,,,,,,,,,,,,,,,,,,,,,,,,,,,,,,,,,,,,,,,,,,,,,,,,,,,,,,,,,,,,,,,,,,,,,,,,,,,,,,,,,,,,,,,,,,,,,,,,,,,,,,,,,,,,,,,,,,,,,,,,,,,,
1725716031.36475,1725716031.366954,198.0,0.0,4476.410156,4319.230957,4279.615234,4381.410156,4251.538574,4212.94873,4203.589844,4279.102539,4288.077148,4261.538574,4491.410156,4554.230957,4382.820313,4445.641113,2884.0,1.0,15.0,,,,0.0,4.0,4.0,4.0,4.0,4.0,4.0,4.0,4.0,4.0,4.0,4.0,4.0,4.0,4.0,100.0,,,,,,,,,,,,,,,,,,,,,,,,,,,,,,,,,,,,,,,,,,,,,,,,,,,,,,,,,,,,,,,,,,,,,,,,,,,,,,,,,,,,,,,,,,,,,,,,,,,,,,,,,,,,,,,,,,,,,,,,,,,,,,,,,,,
1725716031.368654,1725716031.370758,199.0,0.0,4472.692383,4316.025879,4279.743652,4382.05127,4250.128418,4213.077148,4203.333496,4277.307617,4289.615234,4262.563965,4491.794922,4553.077148,4381.410156,4444.102539,3114.0,1.0,15.0,,,,0.0,4.0,4.0,4.0,4.0,4.0,4.0,4.0,4.0,4.0,4.0,4.0,4.0,4.0,4.0,100.0,,,,,,,,,,,,,,,,,,,,,,,,,,,,,,,,,,,,,,,,,,,,,,,,,,,,,,,,,,,,,,,,,,,,,,,,,,,,,,,,,,,,,,,,,,,,,,,,,,,,,,,,,,,,,,,,,,,,,,,,,,,,,,,,,,,
1725716031.372558,1725716031.374662,200.0,0.0,4468.589844,4312.307617,4279.871582,4380.897461,4248.846191,4213.717773,4202.820313,4276.794922,4289.487305,4263.205078,4491.666504,4553.333496,4380.256348,4443.077148,3396.0,1.0,15.0,,,,0.0,4.0,4.0,4.0,4.0,4.0,4.0,4.0,4.0,4.0,4.0,4.0,4.0,4.0,4.0,100.0,,,,,,,,,,,,,,,,,,,,,,,,,,,,,,,,,,,,,,,,,,,,,,,,,,,,,,,,,,,,,,,,,,,,,,,,,,,,,,,,,,,,,,,,,,,,,,,,,,,,,,,,,,,,,,,,,,,,,,,,,,,,,,,,,,,
1725716031.376462,1725716031.378566,201.0,0.0,4464.230957,4309.487305,4279.871582,4378.205078,4248.589844,4214.743652,4202.436035,4277.563965,4287.436035,4262.436035,4491.282227,4555.0,4380.769043,4443.333496,3817.0,1.0,15.0,,,,0.0,4.0,4.0,4.0,4.0,4.0,4.0,4.0,4.0,4.0,4.0,4.0,4.0,4.0,4.0,100.0,,,,,,,,,,,,,,,,,,,,,,,,,,,,,,,,,,,,,,,,,,,,,,,,,,,,,,,,,,,,,,,,,,,,,,,,,,,,,,,,,,,,,,,,,,,,,,,,,,,,,,,,,,,,,,,,,,,,,,,,,,,,,,,,,,,
1725716031.380366,1725716031.38247,202.0,0.0,4459.230957,4308.974121,4279.871582,4376.025879,4249.358887,4215.641113,4202.692383,4279.102539,4284.230957,4260.128418,4491.153809,4555.897461,4382.820313,4444.358887,2884.0,1.0,15.0,,,,0.0,4.0,4.0,4.0,4.0,4.0,4.0,4.0,4.0,4.0,4.0,4.0,4.0,4.0,4.0,100.0,,,,,,,,,,,,,,,,,,,,,,,,,,,,,,,,,,,,,,,,,,,,,,,,,,,,,,,,,,,,,,,,,,,,,,,,,,,,,,,,,,,,,,,,,,,,,,,,,,,,,,,,,,,,,,,,,,,,,,,,,,,,,,,,,,,
1725716031.38427,1725716031.386374,203.0,0.0,4453.589844,4310.512695,4279.743652,4376.153809,4249.743652,4216.025879,4203.461426,4280.128418,4281.025879,4256.922852,4491.025879,4553.717773,4384.743652,4445.0,3114.0,1.0,15.0,,,,0.0,4.0,4.0,4.0,4.0,4.0,4.0,4.0,4.0,4.0,4.0,4.0,4.0,4.0,4.0,100.0,,,,,,,,,,,,,,,,,,,,,,,,,,,,,,,,,,,,,,,,,,,,,,,,,,,,,,,,,,,,,,,,,,,,,,,,,,,,,,,,,,,,,,,,,,,,,,,,,,,,,,,,,,,,,,,,,,,,,,,,,,,,,,,,,,,
1725716031.388174,1725716031.390178,204.0,0.0,4448.077148,4313.333496,4279.615234,4378.333496,4247.436035,4216.282227,4203.974121,4279.615234,4279.230957,4253.846191,4491.025879,4548.205078,4385.384766,4444.871582,3396.0,1.0,15.0,,,,0.0,4.0,4.0,4.0,4.0,4.0,4.0,4.0,4.0,4.0,4.0,4.0,4.0,4.0,4.0,100.0,,,,,,,,,,,,,,,,,,,,,,,,,,,,,,,,,,,,,,,,,,,,,,,,,,,,,,,,0.0,0.0,64.0,0.058743,1.0,0.0,,,,,,,,,,,,,,,,,,,,,,,,,,,,,,,,,,,,,,,,,,,,,,,,,,,,,,,,,,,,,,,,,,,,,,
1725716031.392079,1725716031.394083,205.0,0.0,4444.358887,4316.153809,4279.102539,4380.641113,4240.641113,4216.410156,4203.333496,4277.692383,4279.358887,4251.153809,4491.025879,4542.05127,4384.743652,4444.230957,3817.0,1.0,15.0,,,,0.0,4.0,4.0,4.0,4.0,4.0,4.0,4.0,4.0,4.0,4.0,4.0,4.0,4.0,4.0,100.0,,,,,,,,,,,,,,,,,,,,,,,,,,,,,,,,,,,,,,,,,,,,,,,,,,,,,,,,,,,,,,,,,,,,,,,,,,,,,,,,,,,,,,,,,,,,,,,,,,,,,,,,,,,,,,,,,,,,,,,,,,,,,,,,,,,
1725716031.395983,1725716031.397987,206.0,0.0,4443.205078,4318.333496,4278.077148,4381.666504,4228.205078,4216.794922,4200.641113,4274.871582,4281.282227,4249.358887,4491.025879,4538.461426,4383.974121,4443.717773,2884.0,1.0,15.0,,,,0.0,4.0,4.0,4.0,4.0,4.0,4.0,4.0,4.0,4.0,4.0,4.0,4.0,4.0,4.0,100.0,,,,,,,,,,,,,,,,,,,,,,,,,,,,,,,,,,,,,,,,,,,,,,,,,,,,,,,,,,,,,,,,,,,,,,,,,,,,,,,,,,,,,,,,,,,,,,,,,,,,,,,,,,,,,,,,,,,,,,,,,,,,,,,,,,,
1725716031.399887,1725716031.401791,207.0,0.0,4443.333496,4319.615234,4276.666504,4381.538574,4211.538574,4217.179688,4195.769043,4272.436035,4283.717773,4249.487305,4491.025879,4538.974121,4384.102539,4443.717773,3114.0,1.0,15.0,,,,0.0,4.0,4.0,4.0,4.0,4.0,4.0,4.0,4.0,4.0,4.0,4.0,4.0,4.0,4.0,100.0,,,,,,,,,,,,,,,,,,,,,,,,,,,,,,,,,,,,,,,,,,,,,,,,,,,,,,,,,,,,,,,,,,,,,,,,,,,,,,,,,,,,,,,,,,,,,,,,,,,,,,,,,,,,,,,,,,,,,,,,,,,,,,,,,,,
1725716031.403791,1725716031.405695,208.0,0.0,4443.077148,4320.0,4275.384766,4381.666504,4194.358887,4217.05127,4189.615234,4271.666504,4285.512695,4251.666504,4491.025879,4542.05127,4385.256348,4444.102539,3396.0,1.0,15.0,,,,0.0,4.0,4.0,4.0,4.0,4.0,4.0,4.0,4.0,4.0,4.0,4.0,4.0,4.0,4.0,100.0,,,,,,,,,,,,,,,,,,,,,,,,,,,,,,,,,,,,,,,,,,,,,,,,,,,,,,,,,,,,,,,,,,,,,,,,,,,,,,,,,,,,,,,,,,,,,,,,,,,,,,,,,,,,,,,,,,,,,,,,,,,,,,,,,,,
1725716031.407695,1725716031.409599,209.0,0.0,4440.641113,4319.615234,4274.743652,4383.333496,4180.384766,4216.666504,4183.974121,4272.94873,4286.666504,4255.384766,4491.025879,4545.384766,4387.563965,4444.487305,3817.0,1.0,15.0,,,,0.0,4.0,4.0,4.0,4.0,4.0,4.0,4.0,4.0,4.0,4.0,4.0,4.0,4.0,4.0,100.0,,,,,,,,,,,,,,,,,,,,,,,,,,,,,,,,,,,,,,,,,,,,,,,,,,,,,,,,,,,,,,,,,,,,,,,,,,,,,,,,,,,,,,,,,,,,,,,,,,,,,,,,,,,,,,,,,,,,,,,,,,,,,,,,,,,
1725716031.411599,1725716031.413603,210.0,0.0,4435.384766,4318.974121,4274.743652,4386.153809,4171.922852,4216.282227,4180.512695,4275.897461,4287.820313,4258.974121,4491.025879,4546.922852,4389.871582,4444.615234,2884.0,1.0,15.0,,,,0.0,4.0,4.0,4.0,4.0,4.0,4.0,4.0,4.0,4.0,4.0,4.0,4.0,4.0,4.0,100.0,,,,,,,,,,,,,,,,,,,,,,,,,,,,,,,,,,,,,,,,,,,,,,,,,,,,,,,,,,,,,,,,,,,,,,,,,,,,,,,,,,,,,,,,,,,,,,,,,,,,,,,,,,,,,,,,,,,,,,,,,,,,,,,,,,,
1725716031.415503,1725716031.417507,211.0,0.0,4428.461426,4317.94873,4275.128418,4388.589844,4167.820313,4216.025879,4179.871582,4278.589844,4288.717773,4260.384766,4490.897461,4546.410156,4391.025879,4444.230957,3114.0,1.0,15.0,,,,0.0,4.0,4.0,4.0,4.0,4.0,4.0,4.0,4.0,4.0,4.0,4.0,4.0,4.0,4.0,100.0,,,,,,,,,,,,,,,,,,,,,,,,,,,,,,,,,,,,,,,,,,,,,,,,,,,,,,,,,,,,,,,,,,,,,,,,,,,,,,,,,,,,,,,,,,,,,,,,,,,,,,,,,,,,,,,,,,,,,,,,,,,,,,,,,,,
1725716031.419407,1725716031.421411,212.0,0.0,4421.922852,4317.179688,4275.769043,4389.615234,4165.384766,4215.897461,4181.153809,4279.487305,4288.589844,4259.102539,4490.769043,4544.743652,4390.256348,4443.717773,3396.0,1.0,15.0,,,,0.0,4.0,4.0,4.0,4.0,4.0,4.0,4.0,4.0,4.0,4.0,4.0,4.0,4.0,4.0,100.0,,,,,,,,,,,,,,,,,1.0,0.0,0.0,,,,,,,,,,,,,,,,,,,,,,,,,,,,,,,,,,,,,0.0,0.0,64.0,0.122559,1.0,0.0,2.777875,1.664407,0.768494,0.235804,0.077679,1.130206,1.106174,0.374444,0.245722,0.042293,2.725453,1.652853,0.63101,0.229268,0.050411,0.648567,1.187123,0.469648,0.163089,0.074872,0.499564,0.624785,0.266229,0.107917,0.065137,0.304296,0.373099,0.112631,0.105545,0.052376,1.084051,0.632128,0.320205,0.093302,0.060025,1.112847,4.75964,0.570164,0.158971,0.097324,1.180741,1.963208,0.457942,0.154788,0.070161,1.274934,1.170366,0.841881,0.230828,0.091427,1.795262,3.062142,1.146098,0.251556,0.124105,2.533252,4.858508,1.136944,0.308807,0.149211,1.77913,1.467881,0.767333,0.394792,0.13406,2.046883,2.497297,0.964594,0.261378,0.100292
1725716031.423311,1725716031.425315,213.0,0.0,4417.179688,4316.922852,4276.410156,4389.743652,4162.05127,4215.897461,4182.307617,4278.205078,4287.436035,4255.512695,4490.897461,4543.333496,4387.692383,4443.333496,3817.0,1.0,15.0,,,,0.0,4.0,4.0,4.0,4.0,4.0,4.0,4.0,4.0,4.0,4.0,4.0,4.0,4.0,4.0,100.0,,,,,,,,,,,,,,,,,,,,,,,,,,,,,,,,,,,,,,,,,,,,,,,,,,,,,,,,,,,,,,,,,,,,,,,,,,,,,,,,,,,,,,,,,,,,,,,,,,,,,,,,,,,,,,,,,,,,,,,,,,,,,,,,,,,
1725716031.427215,1725716031.429319,214.0,0.0,4415.0,4317.692383,4277.307617,4390.769043,4157.563965,4215.897461,4182.563965,4276.538574,4286.025879,4251.666504,4491.025879,4542.563965,4384.871582,4443.461426,2884.0,1.0,15.0,,,,0.0,4.0,4.0,4.0,4.0,4.0,4.0,4.0,4.0,4.0,4.0,4.0,4.0,4.0,4.0,100.0,,,,,,,,,,,,,,,,,,,,,,,,,,,,,,,,,,,,,,,,,,,,,,,,,,,,,,,,,,,,,,,,,,,,,,,,,,,,,,,,,,,,,,,,,,,,,,,,,,,,,,,,,,,,,,,,,,,,,,,,,,,,,,,,,,,
1725716031.43112,1725716031.433224,215.0,0.0,4414.102539,4318.974121,4278.461426,4392.94873,4153.461426,4216.025879,4182.179688,4276.282227,4285.0,4249.102539,4491.282227,4542.563965,4383.333496,4443.717773,3114.0,1.0,15.0,,,,0.0,4.0,4.0,4.0,4.0,4.0,4.0,4.0,4.0,4.0,4.0,4.0,4.0,4.0,4.0,100.0,,,,,,,,,,,,,,,,,,,,,,,,,,,,,,,,,,,,,,,,,,,,,,,,,,,,,,,,,,,,,,,,,,,,,,,,,,,,,,,,,,,,,,,,,,,,,,,,,,,,,,,,,,,,,,,,,,,,,,,,,,,,,,,,,,,
1725716031.435024,1725716031.437128,216.0,0.0,4413.077148,4320.0,4279.743652,4395.512695,4151.410156,4216.410156,4181.922852,4277.05127,4284.743652,4248.461426,4491.282227,4542.563965,4383.846191,4443.717773,3396.0,1.0,15.0,,,,0.0,4.0,4.0,4.0,4.0,4.0,4.0,4.0,4.0,4.0,4.0,4.0,4.0,4.0,4.0,100.0,,,,,,,,,,,,,,,,,,,,,,,,,,,,,,,,,,,,,,,,,,,,,,,,,,,,,,,,,,,,,,,,,,,,,,,,,,,,,,,,,,,,,,,,,,,,,,,,,,,,,,,,,,,,,,,,,,,,,,,,,,,,,,,,,,,
1725716031.438928,1725716031.441032,217.0,0.0,4411.025879,4320.256348,4280.512695,4396.282227,4152.05127,4216.922852,4182.179688,4276.922852,4285.256348,4249.230957,4490.769043,4542.05127,4385.897461,4443.589844,3817.0,1.0,15.0,,,,0.0,4.0,4.0,4.0,4.0,4.0,4.0,4.0,4.0,4.0,4.0,4.0,4.0,4.0,4.0,100.0,,,,,,,,,,,,,,,,,,,,,,,,,,,,,,,,,,,,,,,,,,,,,,,,,,,,,,,,,,,,,,,,,,,,,,,,,,,,,,,,,,,,,,,,,,,,,,,,,,,,,,,,,,,,,,,,,,,,,,,,,,,,,,,,,,,
1725716031.442832,1725716031.445036,218.0,0.0,4407.94873,4319.615234,4280.256348,4394.487305,4153.974121,4217.563965,4183.077148,4274.487305,4286.410156,4250.256348,4489.743652,4541.025879,4388.461426,4443.717773,2884.0,1.0,15.0,,,,0.0,4.0,4.0,4.0,4.0,4.0,4.0,4.0,4.0,4.0,4.0,4.0,4.0,4.0,4.0,100.0,,,,,,,,,,,,,,,,,,,,,,,,,,,,,,,,,,,,,,,,,,,,,,,,,,,,,,,,,,,,,,,,,,,,,,,,,,,,,,,,,,,,,,,,,,,,,,,,,,,,,,,,,,,,,,,,,,,,,,,,,,,,,,,,,,,
1725716031.446736,1725716031.44894,219.0,0.0,4404.615234,4318.589844,4279.615234,4391.282227,4155.128418,4217.820313,4183.974121,4270.384766,4288.077148,4250.897461,4489.230957,4540.512695,4390.641113,4444.230957,3114.0,1.0,15.0,,,,0.0,4.0,4.0,4.0,4.0,4.0,4.0,4.0,4.0,4.0,4.0,4.0,4.0,4.0,4.0,100.0,,,,,,,,,,,,,,,,,,,,,,,,,,,,,,,,,,,,,,,,,,,,,,,,,,,,,,,,,,,,,,,,,,,,,,,,,,,,,,,,,,,,,,,,,,,,,,,,,,,,,,,,,,,,,,,,,,,,,,,,,,,,,,,,,,,
1725716031.45064,1725716031.452844,220.0,0.0,4401.666504,4318.077148,4279.358887,4389.230957,4154.615234,4218.205078,4184.615234,4267.05127,4289.358887,4251.025879,4490.128418,4541.153809,4391.794922,4445.128418,3396.0,1.0,15.0,,,,0.0,4.0,4.0,4.0,4.0,4.0,4.0,4.0,4.0,4.0,4.0,4.0,4.0,4.0,4.0,100.0,,,,,,,,,,,,,,,,,,,,,,,,,,,,,,,,,,,,,,,,,,,,,,,,,,,,,,,,0.0,0.0,64.0,0.122559,1.0,0.0,,,,,,,,,,,,,,,,,,,,,,,,,,,,,,,,,,,,,,,,,,,,,,,,,,,,,,,,,,,,,,,,,,,,,,
1725716031.454544,1725716031.456848,221.0,0.0,4398.974121,4318.333496,4280.512695,4390.256348,4153.461426,4218.974121,4184.743652,4266.666504,4289.230957,4250.769043,4492.179688,4542.692383,4391.410156,4445.897461,3817.0,1.0,15.0,,,,0.0,4.0,4.0,4.0,4.0,4.0,4.0,4.0,4.0,4.0,4.0,4.0,4.0,4.0,4.0,100.0,,,,,,,,,,,,,,,,,,,,,,,,,,,,,,,,,,,,,,,,,,,,,,,,,,,,,,,,,,,,,,,,,,,,,,,,,,,,,,,,,,,,,,,,,,,,,,,,,,,,,,,,,,,,,,,,,,,,,,,,,,,,,,,,,,,
1725716031.458448,1725716031.460752,222.0,0.0,4396.666504,4319.358887,4282.94873,4393.717773,4153.333496,4220.256348,4184.358887,4268.846191,4287.307617,4250.384766,4493.589844,4544.230957,4389.871582,4446.282227,2884.0,1.0,15.0,,,,0.0,4.0,4.0,4.0,4.0,4.0,4.0,4.0,4.0,4.0,4.0,4.0,4.0,4.0,4.0,100.0,,,,,,,,,,,,,,,,,,,,,,,,,,,,,,,,,,,,,,,,,,,,,,,,,,,,,,,,,,,,,,,,,,,,,,,,,,,,,,,,,,,,,,,,,,,,,,,,,,,,,,,,,,,,,,,,,,,,,,,,,,,,,,,,,,,
1725716031.462352,1725716031.464656,223.0,0.0,4395.128418,4320.384766,4286.025879,4397.307617,4154.871582,4220.769043,4183.589844,4271.282227,4284.487305,4249.743652,4492.692383,4544.871582,4387.692383,4445.897461,3114.0,1.0,15.0,,,,0.0,4.0,4.0,4.0,4.0,4.0,4.0,4.0,4.0,4.0,4.0,4.0,4.0,4.0,4.0,100.0,,,,,,,,,,,,,,,,,,,,,,,,,,,,,,,,,,,,,,,,,,,,,,,,,,,,,,,,,,,,,,,,,,,,,,,,,,,,,,,,,,,,,,,,,,,,,,,,,,,,,,,,,,,,,,,,,,,,,,,,,,,,,,,,,,,
1725716031.466256,1725716031.46856,224.0,0.0,4394.358887,4321.025879,4288.461426,4398.205078,4156.666504,4220.128418,4183.205078,4271.538574,4282.179688,4249.102539,4489.230957,4544.615234,4385.897461,4445.128418,3396.0,1.0,15.0,,,,0.0,4.0,4.0,4.0,4.0,4.0,4.0,4.0,4.0,4.0,4.0,4.0,4.0,4.0,4.0,100.0,,,,,,,,,,,,,,,,,,,,,,,,,,,,,,,,,,,,,,,,,,,,,,,,,,,,,,,,,,,,,,,,,,,,,,,,,,,,,,,,,,,,,,,,,,,,,,,,,,,,,,,,,,,,,,,,,,,,,,,,,,,,,,,,,,,
1725716031.47016,1725716031.472464,225.0,0.0,4393.589844,4320.897461,4289.615234,4396.153809,4156.922852,4218.717773,4184.230957,4269.230957,4280.897461,4248.717773,4484.743652,4544.358887,4384.615234,4444.743652,3817.0,1.0,15.0,,,,0.0,4.0,4.0,4.0,4.0,4.0,4.0,4.0,4.0,4.0,4.0,4.0,4.0,4.0,4.0,100.0,,,,,,,,,,,,,,,,,,,,,,,,,,,,,,,,,,,,,,,,,,,,,,,,,,,,,,,,,,,,,,,,,,,,,,,,,,,,,,,,,,,,,,,,,,,,,,,,,,,,,,,,,,,,,,,,,,,,,,,,,,,,,,,,,,,
1725716031.474064,1725716031.476269,226.0,0.0,4391.666504,4319.871582,4289.230957,4392.94873,4155.641113,4218.205078,4187.179688,4265.256348,4280.128418,4248.077148,4481.025879,4543.846191,4383.589844,4445.0,2884.0,1.0,15.0,,,,0.0,4.0,4.0,4.0,4.0,4.0,4.0,4.0,4.0,4.0,4.0,4.0,4.0,4.0,4.0,100.0,,,,,,,,,,,,,,,,,,,,,,,,,,,,,,,,,,,,,,,,,,,,,,,,,,,,,,,,,,,,,,,,,,,,,,,,,,,,,,,,,,,,,,,,,,,,,,,,,,,,,,,,,,,,,,,,,,,,,,,,,,,,,,,,,,,
1725716031.477969,1725716031.480173,227.0,0.0,4387.820313,4318.077148,4287.692383,4390.512695,4154.358887,4219.743652,4191.282227,4261.666504,4278.974121,4245.897461,4478.974121,4542.820313,4382.820313,4445.128418,3114.0,1.0,15.0,,,,0.0,4.0,4.0,4.0,4.0,4.0,4.0,4.0,4.0,4.0,4.0,4.0,4.0,4.0,4.0,100.0,,,,,,,,,,,,,,,,,,,,,,,,,,,,,,,,,,,,,,,,,,,,,,,,,,,,,,,,,,,,,,,,,,,,,,,,,,,,,,,,,,,,,,,,,,,,,,,,,,,,,,,,,,,,,,,,,,,,,,,,,,,,,,,,,,,
1725716031.481873,1725716031.484077,228.0,0.0,4382.436035,4315.769043,4285.769043,4389.487305,4155.512695,4223.333496,4195.0,4259.615234,4277.307617,4242.179688,4478.717773,4541.153809,4382.307617,4443.974121,3396.0,1.0,15.0,,,,0.0,4.0,4.0,4.0,4.0,4.0,4.0,4.0,4.0,4.0,4.0,4.0,4.0,4.0,4.0,100.0,,,,,,,,,,,,,,,,,,,,,,,,,,,,,,,,,,,,,,,,,,,,,,,,,,,,,,,,0.0,0.0,64.0,0.122559,1.0,0.0,,,,,,,,,,,,,,,,,,,,,,,,,,,,,,,,,,,,,,,,,,,,,,,,,,,,,,,,,,,,,,,,,,,,,,
1725716031.485777,1725716031.487981,229.0,0.0,4376.666504,4313.461426,4283.974121,4388.974121,4159.358887,4227.692383,4197.179688,4259.871582,4276.153809,4238.077148,4479.230957,4540.0,4381.794922,4441.025879,3817.0,1.0,15.0,,,,0.0,4.0,4.0,4.0,4.0,4.0,4.0,4.0,4.0,4.0,4.0,4.0,4.0,4.0,4.0,100.0,,,,,,,,,,,,,,,,,,,,,,,,,,,,,,,,,,,,,,,,,,,,,,,,,,,,,,,,,,,,,,,,,,,,,,,,,,,,,,,,,,,,,,,,,,,,,,,,,,,,,,,,,,,,,,,,,,,,,,,,,,,,,,,,,,,
1725716031.489681,1725716031.491785,230.0,0.0,4371.153809,4311.794922,4282.307617,4387.692383,4164.615234,4231.025879,4197.307617,4261.922852,4276.666504,4236.153809,4479.102539,4539.743652,4380.256348,4436.794922,2884.0,1.0,15.0,,,,0.0,4.0,4.0,4.0,4.0,4.0,4.0,4.0,4.0,4.0,4.0,4.0,4.0,4.0,4.0,100.0,,,,,,,,,,,,,,,,,,,,,,,,,,,,,,,,,,,,,,,,,,,,,,,,,,,,,,,,,,,,,,,,,,,,,,,,,,,,,,,,,,,,,,,,,,,,,,,,,,,,,,,,,,,,,,,,,,,,,,,,,,,,,,,,,,,
1725716031.493585,1725716031.495689,231.0,0.0,4365.897461,4310.897461,4280.641113,4385.0,4168.589844,4232.179688,4196.538574,4264.230957,4278.717773,4237.436035,4477.692383,4539.615234,4376.794922,4432.94873,3114.0,1.0,15.0,,,,0.0,4.0,4.0,4.0,4.0,4.0,4.0,4.0,4.0,4.0,4.0,4.0,4.0,4.0,4.0,100.0,,,,,,,,,,,,,,,,,,,,,,,,,,,,,,,,,,,,,,,,,,,,,,,,,,,,,,,,,,,,,,,,,,,,,,,,,,,,,,,,,,,,,,,,,,,,,,,,,,,,,,,,,,,,,,,,,,,,,,,,,,,,,,,,,,,
1725716031.497489,1725716031.499593,232.0,0.0,4360.641113,4310.256348,4279.102539,4382.05127,4169.871582,4231.538574,4196.410156,4265.641113,4281.025879,4241.282227,4474.743652,4538.461426,4371.666504,4430.384766,3396.0,1.0,15.0,,,,0.0,4.0,4.0,4.0,4.0,4.0,4.0,4.0,4.0,4.0,4.0,4.0,4.0,4.0,4.0,100.0,,,,,,,,,,,,,,,,,,,,,,,,,,,,,,,,,,,,,,,,,,,,,,,,,,,,,,,,,,,,,,,,,,,,,,,,,,,,,,,,,,,,,,,,,,,,,,,,,,,,,,,,,,,,,,,,,,,,,,,,,,,,,,,,,,,
1725716031.501393,1725716031.503497,233.0,0.0,4355.769043,4309.871582,4277.94873,4380.0,4168.717773,4230.384766,4197.563965,4265.641113,4281.153809,4244.615234,4470.897461,4535.256348,4366.410156,4428.717773,3817.0,1.0,15.0,,,,0.0,4.0,4.0,4.0,4.0,4.0,4.0,4.0,4.0,4.0,4.0,4.0,4.0,4.0,4.0,100.0,,,,,,,,,,,,,,,,,,,,,,,,,,,,,,,,,,,,,,,,,,,,,,,,,,,,,,,,,,,,,,,,,,,,,,,,,,,,,,,,,,,,,,,,,,,,,,,,,,,,,,,,,,,,,,,,,,,,,,,,,,,,,,,,,,,
1725716031.505297,1725716031.507302,234.0,0.0,4350.641113,4309.615234,4277.179688,4379.615234,4167.179688,4229.871582,4199.615234,4264.487305,4278.077148,4244.743652,4467.05127,4530.512695,4361.794922,4426.794922,2884.0,1.0,15.0,,,,0.0,4.0,4.0,4.0,4.0,4.0,4.0,4.0,4.0,4.0,4.0,4.0,4.0,4.0,4.0,100.0,,,,,,,,,,,,,,,,,,,,,,,,,,,,,,,,,,,,,,,,,,,,,,,,,,,,,,,,,,,,,,,,,,,,,,,,,,,,,,,,,,,,,,,,,,,,,,,,,,,,,,,,,,,,,,,,,,,,,,,,,,,,,,,,,,,
1725716031.509201,1725716031.511206,235.0,0.0,4345.0,4309.487305,4276.794922,4380.641113,4166.794922,4230.128418,4201.410156,4262.692383,4272.563965,4240.769043,4463.974121,4525.897461,4358.077148,4423.717773,3114.0,1.0,15.0,,,,0.0,4.0,4.0,4.0,4.0,4.0,4.0,4.0,4.0,4.0,4.0,4.0,4.0,4.0,4.0,100.0,,,,,,,,,,,,,,,,,,,,,,,,,,,,,,,,,,,,,,,,,,,,,,,,,,,,,,,,,,,,,,,,,,,,,,,,,,,,,,,,,,,,,,,,,,,,,,,,,,,,,,,,,,,,,,,,,,,,,,,,,,,,,,,,,,,
1725716031.513106,1725716031.51511,236.0,0.0,4339.487305,4309.487305,4276.410156,4382.307617,4167.692383,4230.769043,4202.05127,4260.897461,4266.794922,4234.743652,4462.179688,4523.077148,4355.256348,4420.0,3396.0,1.0,15.0,,,,0.0,4.0,4.0,4.0,4.0,4.0,4.0,4.0,4.0,4.0,4.0,4.0,4.0,4.0,4.0,100.0,,,,,,,,,,,,,,,,,,,,,,,,,,,,,,,,,,,,,,,,,,,,,,,,,,,,,,,,0.0,0.0,64.0,0.122559,1.0,0.0,,,,,,,,,,,,,,,,,,,,,,,,,,,,,,,,,,,,,,,,,,,,,,,,,,,,,,,,,,,,,,,,,,,,,,
1725716031.51701,1725716031.519114,237.0,0.0,4334.871582,4309.358887,4276.025879,4383.974121,4168.974121,4231.153809,4201.922852,4260.0,4263.974121,4230.256348,4461.282227,4522.94873,4353.717773,4417.436035,3817.0,1.0,15.0,,,,0.0,4.0,4.0,4.0,4.0,4.0,4.0,4.0,4.0,4.0,4.0,4.0,4.0,4.0,4.0,100.0,,,,,,,,,,,,,,,,,,,,,,,,,,,,,,,,,,,,,,,,,,,,,,,,,,,,,,,,,,,,,,,,,,,,,,,,,,,,,,,,,,,,,,,,,,,,,,,,,,,,,,,,,,,,,,,,,,,,,,,,,,,,,,,,,,,
1725716031.520914,1725716031.523018,238.0,0.0,4331.922852,4308.974121,4276.025879,4384.743652,4169.615234,4231.410156,4201.538574,4260.769043,4265.256348,4230.0,4460.769043,4525.0,4354.358887,4417.563965,2884.0,1.0,15.0,,,,0.0,4.0,4.0,4.0,4.0,4.0,4.0,4.0,4.0,4.0,4.0,4.0,4.0,4.0,4.0,100.0,,,,,,,,,,,,,,,,,,,,,,,,,,,,,,,,,,,,,,,,,,,,,,,,,,,,,,,,,,,,,,,,,,,,,,,,,,,,,,,,,,,,,,,,,,,,,,,,,,,,,,,,,,,,,,,,,,,,,,,,,,,,,,,,,,,
1725716031.524818,1725716031.526922,239.0,0.0,4329.743652,4308.589844,4276.794922,4384.102539,4169.102539,4231.410156,4201.153809,4262.563965,4269.615234,4233.717773,4460.512695,4527.179688,4357.436035,4420.384766,3114.0,1.0,15.0,,,,0.0,4.0,4.0,4.0,4.0,4.0,4.0,4.0,4.0,4.0,4.0,4.0,4.0,4.0,4.0,100.0,,,,,,,,,,,,,,,,,,,,,,,,,,,,,,,,,,,,,,,,,,,,,,,,,,,,,,,,,,,,,,,,,,,,,,,,,,,,,,,,,,,,,,,,,,,,,,,,,,,,,,,,,,,,,,,,,,,,,,,,,,,,,,,,,,,
1725716031.528722,1725716031.530826,240.0,0.0,4327.179688,4308.205078,4277.820313,4382.307617,4168.205078,4231.282227,4200.641113,4263.974121,4274.230957,4239.358887,4461.025879,4527.307617,4361.794922,4424.102539,3396.0,1.0,15.0,,,,0.0,4.0,4.0,4.0,4.0,4.0,4.0,4.0,4.0,4.0,4.0,4.0,4.0,4.0,4.0,100.0,,,,,,,,,,,,,,,,,,,,,,,,,,,,,,,,,,,,,,,,,,,,,,,,,,,,,,,,,,,,,,,,,,,,,,,,,,,,,,,,,,,,,,,,,,,,,,,,,,,,,,,,,,,,,,,,,,,,,,,,,,,,,,,,,,,
1725716031.532626,1725716031.53483,241.0,0.0,4322.94873,4308.461426,4278.717773,4381.025879,4167.94873,4231.538574,4200.128418,4263.974121,4277.179688,4244.358887,4462.307617,4525.256348,4365.641113,4426.794922,3817.0,1.0,15.0,,,,0.0,4.0,4.0,4.0,4.0,4.0,4.0,4.0,4.0,4.0,4.0,4.0,4.0,4.0,4.0,100.0,,,,,,,,,,,,,,,,,,,,,,,,,,,,,,,,,,,,,,,,,,,,,,,,,,,,,,,,,,,,,,,,,,,,,,,,,,,,,,,,,,,,,,,,,,,,,,,,,,,,,,,,,,,,,,,,,,,,,,,,,,,,,,,,,,,
1725716031.53653,1725716031.538734,242.0,0.0,4317.563965,4309.615234,4279.230957,4381.025879,4169.102539,4232.05127,4200.0,4263.077148,4278.205078,4247.436035,4465.0,4523.333496,4367.94873,4427.563965,2884.0,1.0,15.0,,,,0.0,4.0,4.0,4.0,4.0,4.0,4.0,4.0,4.0,4.0,4.0,4.0,4.0,4.0,4.0,100.0,,,,,,,,,,,,,,,,,,,,,,,,,,,,,,,,,,,,,,,,,,,,,,,,,,,,,,,,,,,,,,,,,,,,,,,,,,,,,,,,,,,,,,,,,,,,,,,,,,,,,,,,,,,,,,,,,,,,,,,,,,,,,,,,,,,
1725716031.540434,1725716031.542638,243.0,0.0,4312.05127,4311.410156,4279.871582,4382.692383,4170.897461,4232.563965,4200.128418,4262.820313,4278.589844,4248.846191,4468.717773,4524.230957,4368.205078,4427.05127,3114.0,1.0,15.0,,,,0.0,4.0,4.0,4.0,4.0,4.0,4.0,4.0,4.0,4.0,4.0,4.0,4.0,4.0,4.0,100.0,,,,,,,,,,,,,,,,,,,,,,,,,,,,,,,,,,,,,,,,,,,,,,,,,,,,,,,,,,,,,,,,,,,,,,,,,,,,,,,,,,,,,,,,,,,,,,,,,,,,,,,,,,,,,,,,,,,,,,,,,,,,,,,,,,,
1725716031.544338,1725716031.546542,244.0,0.0,4307.05127,4312.436035,4281.410156,4385.512695,4171.922852,4232.436035,4200.0,4264.743652,4279.615234,4249.487305,4472.563965,4528.846191,4367.05127,4427.05127,3396.0,1.0,15.0,,,,0.0,4.0,4.0,4.0,4.0,4.0,4.0,4.0,4.0,4.0,4.0,4.0,4.0,4.0,4.0,100.0,,,,,,,,,,,,,,,,,1.0,0.0,0.0,,,,,,,,,,,,,,,,,,,,,,,,,,,,,,,,,,,,,0.0,0.0,64.0,0.34194,1.0,0.0,2.132431,1.773705,0.891861,0.243357,0.07561,1.411985,1.179949,0.436559,0.292436,0.043462,2.838674,1.53067,0.709483,0.264529,0.046994,0.780793,1.131027,0.536374,0.194665,0.072205,0.559736,0.532171,0.25644,0.111799,0.058013,0.354464,0.308489,0.091334,0.118837,0.057091,0.809086,0.567768,0.267265,0.096691,0.057986,0.696529,3.444905,0.705306,0.129227,0.089581,1.03702,1.581988,0.502018,0.147802,0.066724,1.192906,1.041188,0.937355,0.239556,0.083485,1.58722,2.62788,1.301155,0.269245,0.128957,2.240406,4.019915,1.344677,0.342314,0.153926,1.767604,1.518807,0.84533,0.439993,0.140455,1.932921,2.261074,1.182015,0.278045,0.112048
1725716031.548242,1725716031.550347,245.0,0.0,4302.179688,4311.922852,4284.358887,4388.717773,4171.538574,4232.563965,4199.358887,4268.461426,4281.922852,4250.0,4475.256348,4535.128418,4365.769043,4428.077148,3817.0,1.0,15.0,,,,0.0,4.0,4.0,4.0,4.0,4.0,4.0,4.0,4.0,4.0,4.0,4.0,4.0,4.0,4.0,100.0,,,,,,,,,,,,,,,,,,,,,,,,,,,,,,,,,,,,,,,,,,,,,,,,,,,,,,,,,,,,,,,,,,,,,,,,,,,,,,,,,,,,,,,,,,,,,,,,,,,,,,,,,,,,,,,,,,,,,,,,,,,,,,,,,,,
1725716031.552147,1725716031.554251,246.0,0.0,4297.179688,4310.384766,4288.461426,4391.538574,4170.897461,4233.589844,4198.846191,4272.307617,4285.256348,4250.512695,4476.025879,4539.615234,4365.769043,4429.487305,2884.0,1.0,15.0,,,,0.0,4.0,4.0,4.0,4.0,4.0,4.0,4.0,4.0,4.0,4.0,4.0,4.0,4.0,4.0,100.0,,,,,,,,,,,,,,,,,,,,,,,,,,,,,,,,,,,,,,,,,,,,,,,,,,,,,,,,,,,,,,,,,,,,,,,,,,,,,,,,,,,,,,,,,,,,,,,,,,,,,,,,,,,,,,,,,,,,,,,,,,,,,,,,,,,
1725716031.556051,1725716031.558155,247.0,0.0,4291.922852,4309.743652,4292.820313,4393.333496,4171.282227,4235.897461,4199.743652,4274.743652,4288.589844,4250.512695,4475.512695,4540.384766,4368.205078,4430.0,3114.0,1.0,15.0,,,,0.0,4.0,4.0,4.0,4.0,4.0,4.0,4.0,4.0,4.0,4.0,4.0,4.0,4.0,4.0,100.0,,,,,,,,,,,,,,,,,,,,,,,,,,,,,,,,,,,,,,,,,,,,,,,,,,,,,,,,,,,,,,,,,,,,,,,,,,,,,,,,,,,,,,,,,,,,,,,,,,,,,,,,,,,,,,,,,,,,,,,,,,,,,,,,,,,
1725716031.559955,1725716031.562159,248.0,0.0,4287.179688,4311.410156,4295.641113,4394.230957,4173.846191,4238.846191,4203.077148,4274.743652,4290.897461,4249.871582,4475.512695,4538.461426,4373.077148,4429.487305,3396.0,1.0,15.0,,,,0.0,4.0,4.0,4.0,4.0,4.0,4.0,4.0,4.0,4.0,4.0,4.0,4.0,4.0,4.0,100.0,,,,,,,,,,,,,,,,,,,,,,,,,,,,,,,,,,,,,,,,,,,,,,,,,,,,,,,,,,,,,,,,,,,,,,,,,,,,,,,,,,,,,,,,,,,,,,,,,,,,,,,,,,,,,,,,,,,,,,,,,,,,,,,,,,,
1725716031.563859,1725716031.566063,249.0,0.0,4282.94873,4314.743652,4295.641113,4394.615234,4178.333496,4240.897461,4208.333496,4272.94873,4291.666504,4249.102539,4476.666504,4536.666504,4378.717773,4428.846191,3817.0,1.0,15.0,,,,0.0,4.0,4.0,4.0,4.0,4.0,4.0,4.0,4.0,4.0,4.0,4.0,4.0,4.0,4.0,100.0,,,,,,,,,,,,,,,,,,,,,,,,,,,,,,,,,,,,,,,,,,,,,,,,,,,,,,,,,,,,,,,,,,,,,,,,,,,,,,,,,,,,,,,,,,,,,,,,,,,,,,,,,,,,,,,,,,,,,,,,,,,,,,,,,,,
1725716031.567763,1725716031.569967,250.0,0.0,4278.974121,4317.563965,4293.717773,4395.128418,4183.589844,4240.897461,4212.94873,4270.512695,4290.641113,4249.230957,4478.717773,4536.922852,4381.922852,4428.717773,2884.0,1.0,15.0,,,,0.0,4.0,4.0,4.0,4.0,4.0,4.0,4.0,4.0,4.0,4.0,4.0,4.0,4.0,4.0,100.0,,,,,,,,,,,,,,,,,,,,,,,,,,,,,,,,,,,,,,,,,,,,,,,,,,,,,,,,,,,,,,,,,,,,,,,,,,,,,,,,,,,,,,,,,,,,,,,,,,,,,,,,,,,,,,,,,,,,,,,,,,,,,,,,,,,
1725716031.571667,1725716031.573871,251.0,0.0,4274.871582,4318.077148,4292.436035,4395.769043,4187.307617,4238.974121,4215.0,4268.589844,4287.820313,4251.025879,4480.384766,4538.846191,4381.025879,4429.102539,3114.0,1.0,15.0,,,,0.0,4.0,4.0,4.0,4.0,4.0,4.0,4.0,4.0,4.0,4.0,4.0,4.0,4.0,4.0,100.0,,,,,,,,,,,,,,,,,,,,,,,,,,,,,,,,,,,,,,,,,,,,,,,,,,,,,,,,,,,,,,,,,,,,,,,,,,,,,,,,,,,,,,,,,,,,,,,,,,,,,,,,,,,,,,,,,,,,,,,,,,,,,,,,,,,
1725716031.575571,1725716031.577775,252.0,0.0,4269.871582,4316.153809,4293.461426,4396.538574,4188.205078,4237.05127,4214.743652,4267.692383,4284.615234,4254.487305,4480.641113,4540.769043,4376.538574,4429.615234,3396.0,1.0,15.0,,,,0.0,4.0,4.0,4.0,4.0,4.0,4.0,4.0,4.0,4.0,4.0,4.0,4.0,4.0,4.0,100.0,,,,,,,,,,,,,,,,,,,,,,,,,,,,,,,,,,,,,,,,,,,,,,,,,,,,,,,,0.0,0.0,64.0,0.34194,1.0,0.0,,,,,,,,,,,,,,,,,,,,,,,,,,,,,,,,,,,,,,,,,,,,,,,,,,,,,,,,,,,,,,,,,,,,,,
1725716031.579475,1725716031.581579,253.0,0.0,4263.589844,4313.333496,4296.794922,4397.307617,4186.410156,4236.922852,4214.102539,4267.179688,4282.179688,4258.205078,4479.487305,4541.025879,4371.666504,4430.0,3817.0,1.0,15.0,,,,0.0,4.0,4.0,4.0,4.0,4.0,4.0,4.0,4.0,4.0,4.0,4.0,4.0,4.0,4.0,100.0,,,,,,,,,,,,,,,,,,,,,,,,,,,,,,,,,,,,,,,,,,,,,,,,,,,,,,,,,,,,,,,,,,,,,,,,,,,,,,,,,,,,,,,,,,,,,,,,,,,,,,,,,,,,,,,,,,,,,,,,,,,,,,,,,,,
1725716031.583379,1725716031.585484,254.0,0.0,4256.666504,4311.922852,4300.512695,4398.205078,4184.230957,4239.615234,4216.153809,4266.025879,4281.922852,4259.871582,4478.205078,4539.487305,4369.743652,4430.128418,2884.0,1.0,15.0,,,,0.0,4.0,4.0,4.0,4.0,4.0,4.0,4.0,4.0,4.0,4.0,4.0,4.0,4.0,4.0,100.0,,,,,,,,,,,,,,,,,,,,,,,,,,,,,,,,,,,,,,,,,,,,,,,,,,,,,,,,,,,,,,,,,,,,,,,,,,,,,,,,,,,,,,,,,,,,,,,,,,,,,,,,,,,,,,,,,,,,,,,,,,,,,,,,,,,
1725716031.587283,1725716031.589388,255.0,0.0,4251.025879,4312.820313,4302.563965,4398.974121,4183.974121,4243.974121,4221.538574,4264.487305,4283.333496,4258.333496,4477.820313,4537.820313,4372.436035,4430.512695,15.0,1.0,15.0,,,,0.0,4.0,4.0,4.0,4.0,4.0,4.0,4.0,4.0,4.0,4.0,4.0,4.0,4.0,4.0,100.0,,,,,,,,,,,,,,,,,,,,,,,,,,,,,,,,,,,,,,,,,,,,,,,,,,,,,,,,,,,,,,,,,,,,,,,,,,,,,,,,,,,,,,,,,,,,,,,,,,,,,,,,,,,,,,,,,,,,,,,,,,,,,,,,,,,
1725716031.591188,1725716031.593292,0.0,0.0,4248.717773,4316.153809,4302.179688,4399.487305,4186.922852,4248.077148,4228.333496,4263.205078,4284.615234,4254.615234,4479.358887,4537.692383,4378.589844,4431.153809,2683.0,1.0,15.0,,,,0.0,4.0,4.0,4.0,4.0,4.0,4.0,4.0,4.0,4.0,4.0,4.0,4.0,4.0,4.0,100.0,,,,,,,,,,,,,,,,,,,,,,,,,,,,,,,,,,,,,,,,,,,,,,,,,,,,,,,,,,,,,,,,,,,,,,,,,,,,,,,,,,,,,,,,,,,,,,,,,,,,,,,,,,,,,,,,,,,,,,,,,,,,,,,,,,,
1725716031.595092,1725716031.597096,1.0,0.0,4249.743652,4320.384766,4300.384766,4400.0,4192.05127,4250.128418,4233.461426,4263.077148,4284.358887,4251.410156,4482.307617,4538.717773,4384.230957,4432.05127,2575.0,1.0,15.0,,,,0.0,4.0,4.0,4.0,4.0,4.0,4.0,4.0,4.0,4.0,4.0,4.0,4.0,4.0,4.0,100.0,,,,,,,,,,,,,,,,,,,,,,,,,,,,,,,,,,,,,,,,,,,,,,,,,,,,,,,,,,,,,,,,,,,,,,,,,,,,,,,,,,,,,,,,,,,,,,,,,,,,,,,,,,,,,,,,,,,,,,,,,,,,,,,,,,,
1725716031.598996,1725716031.601,2.0,0.0,4251.410156,4323.717773,4299.102539,4400.641113,4197.179688,4249.743652,4235.256348,4263.461426,4282.307617,4250.384766,4485.0,4539.102539,4386.025879,4432.563965,2510.0,1.0,15.0,,,,0.0,4.0,4.0,4.0,4.0,4.0,4.0,4.0,4.0,4.0,4.0,4.0,4.0,4.0,4.0,100.0,,,,,,,,,,,,,,,,,,,,,,,,,,,,,,,,,,,,,,,,,,,,,,,,,,,,,,,,,,,,,,,,,,,,,,,,,,,,,,,,,,,,,,,,,,,,,,,,,,,,,,,,,,,,,,,,,,,,,,,,,,,,,,,,,,,
1725716031.6029,1725716031.604904,3.0,0.0,4250.769043,4324.743652,4300.0,4401.666504,4200.512695,4248.077148,4234.487305,4262.94873,4279.743652,4251.025879,4485.512695,4537.307617,4382.563965,4432.05127,2461.0,1.0,15.0,,,,0.0,4.0,4.0,4.0,4.0,4.0,4.0,4.0,4.0,4.0,4.0,4.0,4.0,4.0,4.0,100.0,,,,,,,,,,,,,,,,,,,,,,,,,,,,,,,,,,,,,,,,,,,,,,,,,,,,,,,,,,,,,,,,,,,,,,,,,,,,,,,,,,,,,,,,,,,,,,,,,,,,,,,,,,,,,,,,,,,,,,,,,,,,,,,,,,,
1725716031.606804,1725716031.608808,4.0,0.0,4246.666504,4323.461426,4303.205078,4402.692383,4201.666504,4246.922852,4233.974121,4260.512695,4277.692383,4251.282227,4483.205078,4533.205078,4376.153809,4430.512695,2443.0,1.0,15.0,,,,0.0,4.0,4.0,4.0,4.0,4.0,4.0,4.0,4.0,4.0,4.0,4.0,4.0,4.0,4.0,100.0,,,,,,,,,,,,,,,,,,,,,,,,,,,,,,,,,,,,,,,,,,,,,,,,,,,,,,,,0.0,0.0,64.0,0.34194,1.0,0.0,,,,,,,,,,,,,,,,,,,,,,,,,,,,,,,,,,,,,,,,,,,,,,,,,,,,,,,,,,,,,,,,,,,,,,
1725716031.610708,1725716031.612613,5.0,0.0,4240.128418,4321.666504,4307.820313,4403.461426,4201.282227,4247.05127,4236.025879,4256.410156,4276.282227,4249.871582,4479.230957,4528.333496,4369.871582,4428.717773,2396.0,1.0,15.0,,,,0.0,4.0,4.0,4.0,4.0,4.0,4.0,4.0,4.0,4.0,4.0,4.0,4.0,4.0,4.0,100.0,,,,,,,,,,,,,,,,,,,,,,,,,,,,,,,,,,,,,,,,,,,,,,,,,,,,,,,,,,,,,,,,,,,,,,,,,,,,,,,,,,,,,,,,,,,,,,,,,,,,,,,,,,,,,,,,,,,,,,,,,,,,,,,,,,,
1725716031.614612,1725716031.616517,6.0,0.0,4233.205078,4321.025879,4311.153809,4403.205078,4200.384766,4248.205078,4240.512695,4252.179688,4274.871582,4247.692383,4475.769043,4524.615234,4366.282227,4427.692383,2419.0,1.0,15.0,,,,0.0,4.0,4.0,4.0,4.0,4.0,4.0,4.0,4.0,4.0,4.0,4.0,4.0,4.0,4.0,100.0,,,,,,,,,,,,,,,,,,,,,,,,,,,,,,,,,,,,,,,,,,,,,,,,,,,,,,,,,,,,,,,,,,,,,,,,,,,,,,,,,,,,,,,,,,,,,,,,,,,,,,,,,,,,,,,,,,,,,,,,,,,,,,,,,,,
1725716031.618516,1725716031.620421,7.0,0.0,4227.307617,4321.410156,4311.538574,4402.05127,4200.128418,4249.230957,4245.641113,4249.102539,4273.333496,4246.025879,4474.615234,4523.077148,4365.512695,4427.692383,2491.0,1.0,15.0,,,,0.0,4.0,4.0,4.0,4.0,4.0,4.0,4.0,4.0,4.0,4.0,4.0,4.0,4.0,4.0,100.0,,,,,,,,,,,,,,,,,,,,,,,,,,,,,,,,,,,,,,,,,,,,,,,,,,,,,,,,,,,,,,,,,,,,,,,,,,,,,,,,,,,,,,,,,,,,,,,,,,,,,,,,,,,,,,,,,,,,,,,,,,,,,,,,,,,
1725716031.62242,1725716031.624425,8.0,0.0,4222.820313,4320.769043,4308.974121,4400.769043,4200.769043,4249.358887,4249.230957,4247.94873,4271.922852,4245.512695,4474.871582,4523.589844,4365.769043,4427.820313,2466.0,1.0,15.0,,,,0.0,4.0,4.0,4.0,4.0,4.0,4.0,4.0,4.0,4.0,4.0,4.0,4.0,4.0,4.0,100.0,,,,,,,,,,,,,,,,,,,,,,,,,,,,,,,,,,,,,,,,,,,,,,,,,,,,,,,,,,,,,,,,,,,,,,,,,,,,,,,,,,,,,,,,,,,,,,,,,,,,,,,,,,,,,,,,,,,,,,,,,,,,,,,,,,,
1725716031.626325,1725716031.628329,9.0,0.0,4218.461426,4317.692383,4305.0,4400.0,4202.179688,4248.846191,4250.256348,4248.461426,4270.384766,4245.128418,4473.974121,4524.487305,4365.769043,4426.666504,2560.0,1.0,15.0,,,,0.0,4.0,4.0,4.0,4.0,4.0,4.0,4.0,4.0,4.0,4.0,4.0,4.0,4.0,4.0,100.0,,,,,,,,,,,,,,,,,,,,,,,,,,,,,,,,,,,,,,,,,,,,,,,,,,,,,,,,,,,,,,,,,,,,,,,,,,,,,,,,,,,,,,,,,,,,,,,,,,,,,,,,,,,,,,,,,,,,,,,,,,,,,,,,,,,
1725716031.630229,1725716031.632233,10.0,0.0,4212.820313,4312.05127,4301.538574,4399.102539,4203.077148,4248.205078,4248.846191,4250.0,4267.94873,4242.179688,4469.487305,4523.717773,4364.743652,4423.461426,2884.0,1.0,15.0,,,,0.0,4.0,4.0,4.0,4.0,4.0,4.0,4.0,4.0,4.0,4.0,4.0,4.0,4.0,4.0,100.0,,,,,,,,,,,,,,,,,,,,,,,,,,,,,,,,,,,,,,,,,,,,,,,,,,,,,,,,,,,,,,,,,,,,,,,,,,,,,,,,,,,,,,,,,,,,,,,,,,,,,,,,,,,,,,,,,,,,,,,,,,,,,,,,,,,
1725716031.634133,1725716031.636237,11.0,0.0,4204.487305,4305.384766,4299.102539,4397.179688,4202.179688,4247.820313,4245.897461,4251.025879,4263.589844,4235.769043,4461.282227,4519.743652,4361.794922,4418.205078,3114.0,1.0,15.0,,,,0.0,4.0,4.0,4.0,4.0,4.0,4.0,4.0,4.0,4.0,4.0,4.0,4.0,4.0,4.0,100.0,,,,,,,,,,,,,,,,,,,,,,,,,,,,,,,,,,,,,,,,,,,,,,,,,,,,,,,,,,,,,,,,,,,,,,,,,,,,,,,,,,,,,,,,,,,,,,,,,,,,,,,,,,,,,,,,,,,,,,,,,,,,,,,,,,,
1725716031.638037,1725716031.640141,12.0,0.0,4193.974121,4299.230957,4296.922852,4392.820313,4198.974121,4247.692383,4242.179688,4250.512695,4257.692383,4226.538574,4451.025879,4512.436035,4355.128418,4411.025879,3400.0,1.0,15.0,,,,0.0,4.0,4.0,4.0,4.0,4.0,4.0,4.0,4.0,4.0,4.0,4.0,4.0,4.0,4.0,100.0,,,,,,,,,,,,,,,,,,,,,,,,,,,,,,,,,,,,,,,,,,,,,,,,,,,,,,,,0.0,0.0,64.0,0.34194,1.0,0.0,,,,,,,,,,,,,,,,,,,,,,,,,,,,,,,,,,,,,,,,,,,,,,,,,,,,,,,,,,,,,,,,,,,,,,
1725716031.641941,1725716031.644045,13.0,0.0,4182.692383,4293.974121,4293.717773,4385.897461,4194.358887,4247.94873,4237.692383,4248.589844,4251.922852,4217.692383,4440.384766,4502.94873,4344.102539,4401.922852,3817.0,1.0,15.0,,,,0.0,4.0,4.0,4.0,4.0,4.0,4.0,4.0,4.0,4.0,4.0,4.0,4.0,4.0,4.0,100.0,,,,,,,,,,,,,,,,,,,,,,,,,,,,,,,,,,,,,,,,,,,,,,,,,,,,,,,,,,,,,,,,,,,,,,,,,,,,,,,,,,,,,,,,,,,,,,,,,,,,,,,,,,,,,,,,,,,,,,,,,,,,,,,,,,,
1725716031.645845,1725716031.647949,14.0,0.0,4172.94873,4288.974121,4288.589844,4377.692383,4189.102539,4248.461426,4233.205078,4246.282227,4248.205078,4211.794922,4430.897461,4493.461426,4329.743652,4391.538574,2884.0,1.0,15.0,,,,0.0,4.0,4.0,4.0,4.0,4.0,4.0,4.0,4.0,4.0,4.0,4.0,4.0,4.0,4.0,100.0,,,,,,,,,,,,,,,,,,,,,,,,,,,,,,,,,,,,,,,,,,,,,,,,,,,,,,,,,,,,,,,,,,,,,,,,,,,,,,,,,,,,,,,,,,,,,,,,,,,,,,,,,,,,,,,,,,,,,,,,,,,,,,,,,,,
1725716031.649749,1725716031.651853,15.0,0.0,4166.025879,4283.589844,4282.307617,4370.256348,4184.743652,4248.589844,4230.384766,4244.743652,4247.820313,4210.0,4424.358887,4486.025879,4316.410156,4381.794922,3114.0,1.0,15.0,,,,0.0,4.0,4.0,4.0,4.0,4.0,4.0,4.0,4.0,4.0,4.0,4.0,4.0,4.0,4.0,100.0,,,,,,,,,,,,,,,,,,,,,,,,,,,,,,,,,,,,,,,,,,,,,,,,,,,,,,,,,,,,,,,,,,,,,,,,,,,,,,,,,,,,,,,,,,,,,,,,,,,,,,,,,,,,,,,,,,,,,,,,,,,,,,,,,,,
1725716031.653653,1725716031.655658,16.0,0.0,4162.436035,4277.94873,4276.666504,4366.538574,4182.179688,4248.461426,4230.512695,4245.512695,4251.153809,4211.666504,4422.307617,4482.692383,4309.358887,4376.153809,3400.0,1.0,15.0,,,,0.0,4.0,4.0,4.0,4.0,4.0,4.0,4.0,4.0,4.0,4.0,4.0,4.0,4.0,4.0,100.0,,,,,,,,,,,,,,,,,,,,,,,,,,,,,,,,,,,,,,,,,,,,,,,,,,,,,,,,,,,,,,,,,,,,,,,,,,,,,,,,,,,,,,,,,,,,,,,,,,,,,,,,,,,,,,,,,,,,,,,,,,,,,,,,,,,
1725716031.657557,1725716031.659562,17.0,0.0,4161.922852,4273.461426,4274.487305,4367.05127,4182.436035,4248.589844,4233.846191,4249.487305,4257.820313,4215.384766,4426.282227,4485.256348,4311.538574,4376.922852,3817.0,1.0,15.0,,,,0.0,4.0,4.0,4.0,4.0,4.0,4.0,4.0,4.0,4.0,4.0,4.0,4.0,4.0,4.0,100.0,,,,,,,,,,,,,,,,,,,,,,,,,,,,,,,,,,,,,,,,,,,,,,,,,,,,,,,,,,,,,,,,,,,,,,,,,,,,,,,,,,,,,,,,,,,,,,,,,,,,,,,,,,,,,,,,,,,,,,,,,,,,,,,,,,,
1725716031.661461,1725716031.663466,18.0,0.0,4163.589844,4272.179688,4277.820313,4370.897461,4185.641113,4250.128418,4238.846191,4256.794922,4266.538574,4220.256348,4436.153809,4494.102539,4322.307617,4384.487305,2884.0,1.0,15.0,,,,0.0,4.0,4.0,4.0,4.0,4.0,4.0,4.0,4.0,4.0,4.0,4.0,4.0,4.0,4.0,100.0,,,,,,,,,,,,,,,,,,,,,,,,,,,,,,,,,,,,,,,,,,,,,,,,,,,,,,,,,,,,,,,,,,,,,,,,,,,,,,,,,,,,,,,,,,,,,,,,,,,,,,,,,,,,,,,,,,,,,,,,,,,,,,,,,,,
1725716031.665365,1725716031.66747,19.0,0.0,4166.153809,4275.769043,4285.897461,4375.641113,4190.769043,4253.461426,4243.589844,4266.025879,4275.256348,4226.538574,4448.846191,4506.922852,4337.05127,4396.025879,3114.0,1.0,15.0,,,,0.0,4.0,4.0,4.0,4.0,4.0,4.0,4.0,4.0,4.0,4.0,4.0,4.0,4.0,4.0,100.0,,,,,,,,,,,,,,,,,,,,,,,,,,,,,,,,,,,,,,,,,,,,,,,,,,,,,,,,,,,,,,,,,,,,,,,,,,,,,,,,,,,,,,,,,,,,,,,,,,,,,,,,,,,,,,,,,,,,,,,,,,,,,,,,,,,
1725716031.669269,1725716031.671374,20.0,0.0,4168.461426,4283.461426,4294.871582,4378.717773,4196.410156,4257.820313,4246.922852,4273.717773,4282.563965,4234.487305,4459.743652,4518.717773,4350.512695,4407.436035,3400.0,1.0,15.0,,,,0.0,4.0,4.0,4.0,4.0,4.0,4.0,4.0,4.0,4.0,4.0,4.0,4.0,4.0,4.0,100.0,,,,,,,,,,,,,,,,,1.0,0.0,0.0,,,,,,,,,,,,,,,,,,,,,,,,,,,,,,,,,,,,,0.0,0.0,64.0,0.735429,1.0,0.0,1.798368,1.881776,0.952983,0.24948,0.07783,1.625591,1.188366,0.474539,0.314959,0.046544,2.759365,1.386566,0.738582,0.278477,0.044147,0.841979,1.009202,0.564411,0.211486,0.0681,0.798455,0.486254,0.258373,0.111164,0.053429,0.410728,0.259879,0.076582,0.120458,0.058222,0.626216,0.518503,0.232115,0.099541,0.056086,0.423749,2.382523,0.837711,0.108626,0.084958,0.958633,1.242632,0.527214,0.143375,0.063336,1.141263,0.945304,0.995518,0.245944,0.076838,1.525836,2.240296,1.391411,0.282644,0.128166,2.01173,3.396328,1.485676,0.366955,0.157926,1.864877,1.592806,0.917219,0.47466,0.146179,1.871958,2.102813,1.341856,0.282185,0.123233
1725716031.673174,1725716031.675278,21.0,0.0,4169.487305,4292.436035,4300.512695,4379.487305,4200.897461,4261.666504,4249.358887,4276.922852,4287.05127,4242.436035,4465.641113,4524.743652,4358.846191,4414.871582,3817.0,1.0,15.0,,,,0.0,4.0,4.0,4.0,4.0,4.0,4.0,4.0,4.0,4.0,4.0,4.0,4.0,4.0,4.0,100.0,,,,,,,,,,,,,,,,,,,,,,,,,,,,,,,,,,,,,,,,,,,,,,,,,,,,,,,,,,,,,,,,,,,,,,,,,,,,,,,,,,,,,,,,,,,,,,,,,,,,,,,,,,,,,,,,,,,,,,,,,,,,,,,,,,,
1725716031.677078,1725716031.679182,22.0,0.0,4169.615234,4299.358887,4300.897461,4378.589844,4203.333496,4263.589844,4252.179688,4274.615234,4287.820313,4247.692383,4466.025879,4523.589844,4361.025879,4416.922852,2884.0,1.0,15.0,,,,0.0,4.0,4.0,4.0,4.0,4.0,4.0,4.0,4.0,4.0,4.0,4.0,4.0,4.0,4.0,100.0,,,,,,,,,,,,,,,,,,,,,,,,,,,,,,,,,,,,,,,,,,,,,,,,,,,,,,,,,,,,,,,,,,,,,,,,,,,,,,,,,,,,,,,,,,,,,,,,,,,,,,,,,,,,,,,,,,,,,,,,,,,,,,,,,,,
1725716031.680982,1725716031.683086,23.0,0.0,4169.871582,4302.563965,4297.563965,4377.692383,4203.717773,4263.461426,4255.897461,4269.487305,4285.128418,4248.205078,4463.077148,4517.436035,4358.974121,4414.743652,3114.0,1.0,15.0,,,,0.0,4.0,4.0,4.0,4.0,4.0,4.0,4.0,4.0,4.0,4.0,4.0,4.0,4.0,4.0,100.0,,,,,,,,,,,,,,,,,,,,,,,,,,,,,,,,,,,,,,,,,,,,,,,,,,,,,,,,,,,,,,,,,,,,,,,,,,,,,,,,,,,,,,,,,,,,,,,,,,,,,,,,,,,,,,,,,,,,,,,,,,,,,,,,,,,
1725716031.684886,1725716031.68689,24.0,0.0,4170.384766,4303.205078,4293.717773,4377.94873,4203.077148,4262.307617,4260.384766,4265.256348,4281.025879,4244.358887,4460.256348,4510.769043,4355.641113,4411.153809,3400.0,1.0,15.0,,,,0.0,4.0,4.0,4.0,4.0,4.0,4.0,4.0,4.0,4.0,4.0,4.0,4.0,4.0,4.0,100.0,,,,,,,,,,,,,,,,,,,,,,,,,,,,,,,,,,,,,,,,,,,,,,,,,,,,,,,,,,,,,,,,,,,,,,,,,,,,,,,,,,,,,,,,,,,,,,,,,,,,,,,,,,,,,,,,,,,,,,,,,,,,,,,,,,,
1725716031.68879,1725716031.690795,25.0,0.0,4170.384766,4303.077148,4291.922852,4379.487305,4202.94873,4261.538574,4264.230957,4264.487305,4278.077148,4239.102539,4459.487305,4507.179688,4353.077148,4408.589844,3817.0,1.0,15.0,,,,0.0,4.0,4.0,4.0,4.0,4.0,4.0,4.0,4.0,4.0,4.0,4.0,4.0,4.0,4.0,100.0,,,,,,,,,,,,,,,,,,,,,,,,,,,,,,,,,,,,,,,,,,,,,,,,,,,,,,,,,,,,,,,,,,,,,,,,,,,,,,,,,,,,,,,,,,,,,,,,,,,,,,,,,,,,,,,,,,,,,,,,,,,,,,,,,,,
1725716031.692694,1725716031.694699,26.0,0.0,4168.589844,4302.820313,4292.179688,4381.153809,4204.487305,4261.538574,4266.282227,4265.769043,4277.563965,4235.641113,4460.384766,4507.05127,4351.794922,4407.05127,2884.0,1.0,15.0,,,,0.0,4.0,4.0,4.0,4.0,4.0,4.0,4.0,4.0,4.0,4.0,4.0,4.0,4.0,4.0,100.0,,,,,,,,,,,,,,,,,,,,,,,,,,,,,,,,,,,,,,,,,,,,,,,,,,,,,,,,,,,,,,,,,,,,,,,,,,,,,,,,,,,,,,,,,,,,,,,,,,,,,,,,,,,,,,,,,,,,,,,,,,,,,,,,,,,
1725716031.696598,1725716031.698603,27.0,0.0,4164.487305,4302.436035,4292.94873,4382.179688,4207.692383,4261.666504,4266.282227,4265.769043,4278.846191,4235.384766,4461.282227,4508.974121,4351.282227,4405.769043,3114.0,1.0,15.0,,,,0.0,4.0,4.0,4.0,4.0,4.0,4.0,4.0,4.0,4.0,4.0,4.0,4.0,4.0,4.0,100.0,,,,,,,,,,,,,,,,,,,,,,,,,,,,,,,,,,,,,,,,,,,,,,,,,,,,,,,,,,,,,,,,,,,,,,,,,,,,,,,,,,,,,,,,,,,,,,,,,,,,,,,,,,,,,,,,,,,,,,,,,,,,,,,,,,,
1725716031.700502,1725716031.702407,28.0,0.0,4159.230957,4301.666504,4291.666504,4382.563965,4211.410156,4261.410156,4264.743652,4262.179688,4279.487305,4237.05127,4461.153809,4510.128418,4351.025879,4404.102539,3400.0,1.0,15.0,,,,0.0,4.0,4.0,4.0,4.0,4.0,4.0,4.0,4.0,4.0,4.0,4.0,4.0,4.0,4.0,100.0,,,,,,,,,,,,,,,,,,,,,,,,,,,,,,,,,,,,,,,,,,,,,,,,,,,,,,,,0.0,0.0,64.0,0.735429,1.0,0.0,,,,,,,,,,,,,,,,,,,,,,,,,,,,,,,,,,,,,,,,,,,,,,,,,,,,,,,,,,,,,,,,,,,,,,
1725716031.704406,1725716031.706311,29.0,0.0,4154.615234,4300.641113,4288.077148,4382.692383,4213.974121,4260.641113,4263.205078,4255.769043,4277.179688,4238.205078,4460.256348,4509.230957,4350.897461,4402.692383,3817.0,1.0,15.0,,,,0.0,4.0,4.0,4.0,4.0,4.0,4.0,4.0,4.0,4.0,4.0,4.0,4.0,4.0,4.0,100.0,,,,,,,,,,,,,,,,,,,,,,,,,,,,,,,,,,,,,,,,,,,,,,,,,,,,,,,,,,,,,,,,,,,,,,,,,,,,,,,,,,,,,,,,,,,,,,,,,,,,,,,,,,,,,,,,,,,,,,,,,,,,,,,,,,,
1725716031.70831,1725716031.710215,30.0,0.0,4152.05127,4299.230957,4283.461426,4382.563965,4214.743652,4260.128418,4262.820313,4250.0,4272.307617,4237.307617,4459.487305,4506.666504,4350.897461,4402.05127,2884.0,1.0,15.0,,,,0.0,4.0,4.0,4.0,4.0,4.0,4.0,4.0,4.0,4.0,4.0,4.0,4.0,4.0,4.0,100.0,,,,,,,,,,,,,,,,,,,,,,,,,,,,,,,,,,,,,,,,,,,,,,,,,,,,,,,,,,,,,,,,,,,,,,,,,,,,,,,,,,,,,,,,,,,,,,,,,,,,,,,,,,,,,,,,,,,,,,,,,,,,,,,,,,,
1725716031.712215,1725716031.714119,31.0,0.0,4151.666504,4297.563965,4280.769043,4382.307617,4214.230957,4260.641113,4263.846191,4247.94873,4267.436035,4235.0,4459.358887,4504.487305,4350.897461,4402.436035,3114.0,1.0,15.0,,,,0.0,4.0,4.0,4.0,4.0,4.0,4.0,4.0,4.0,4.0,4.0,4.0,4.0,4.0,4.0,100.0,,,,,,,,,,,,,,,,,,,,,,,,,,,,,,,,,,,,,,,,,,,,,,,,,,,,,,,,,,,,,,,,,,,,,,,,,,,,,,,,,,,,,,,,,,,,,,,,,,,,,,,,,,,,,,,,,,,,,,,,,,,,,,,,,,,
1725716031.716119,1725716031.717923,32.0,0.0,4152.307617,4296.410156,4281.922852,4382.05127,4213.846191,4262.179688,4265.256348,4250.256348,4265.512695,4232.94873,4459.487305,4503.717773,4350.641113,4403.461426,0.0,1.0,15.0,,,,0.0,4.0,4.0,4.0,4.0,4.0,4.0,4.0,4.0,4.0,4.0,4.0,4.0,4.0,4.0,100.0,,,,,,,,,,,,,,,,,,,,,,,,,,,,,,,,,,,,,,,,,,,,,,,,,,,,,,,,,,,,,,,,,,,,,,,,,,,,,,,,,,,,,,,,,,,,,,,,,,,,,,,,,,,,,,,,,,,,,,,,,,,,,,,,,,,
1725716031.720023,1725716031.721828,33.0,0.0,4152.692383,4296.410156,4286.538574,4382.05127,4214.358887,4263.589844,4265.897461,4254.871582,4266.538574,4232.563965,4458.974121,4504.358887,4350.512695,4404.358887,0.0,1.0,15.0,,,,0.0,4.0,4.0,4.0,4.0,4.0,4.0,4.0,4.0,4.0,4.0,4.0,4.0,4.0,4.0,100.0,,,,,,,,,,,,,,,,,,,,,,,,,,,,,,,,,,,,,,,,,,,,,,,,,,,,,,,,,,,,,,,,,,,,,,,,,,,,,,,,,,,,,,,,,,,,,,,,,,,,,,,,,,,,,,,,,,,,,,,,,,,,,,,,,,,
1725716031.723927,1725716031.725732,34.0,0.0,4152.563965,4298.589844,4292.179688,4383.077148,4216.025879,4264.102539,4265.384766,4258.077148,4268.333496,4234.102539,4458.205078,4505.384766,4350.384766,4405.256348,0.0,1.0,15.0,,,,0.0,4.0,4.0,4.0,4.0,4.0,4.0,4.0,4.0,4.0,4.0,4.0,4.0,4.0,4.0,100.0,,,,,,,,,,,,,,,,,,,,,,,,,,,,,,,,,,,,,,,,,,,,,,,,,,,,,,,,,,,,,,,,,,,,,,,,,,,,,,,,,,,,,,,,,,,,,,,,,,,,,,,,,,,,,,,,,,,,,,,,,,,,,,,,,,,
1725716031.727831,1725716031.729736,35.0,0.0,4152.179688,4301.922852,4296.153809,4385.384766,4217.820313,4263.974121,4265.0,4257.179688,4268.717773,4236.153809,4457.563965,4505.897461,4350.641113,4406.153809,0.0,1.0,15.0,,,,0.0,4.0,4.0,4.0,4.0,4.0,4.0,4.0,4.0,4.0,4.0,4.0,4.0,4.0,4.0,100.0,,,,,,,,,,,,,,,,,,,,,,,,,,,,,,,,,,,,,,,,,,,,,,,,,,,,,,,,,,,,,,,,,,,,,,,,,,,,,,,,,,,,,,,,,,,,,,,,,,,,,,,,,,,,,,,,,,,,,,,,,,,,,,,,,,,
1725716031.731735,1725716031.73364,36.0,0.0,4152.307617,4304.615234,4297.436035,4388.333496,4219.102539,4263.974121,4265.384766,4252.436035,4266.794922,4236.794922,4457.307617,4505.897461,4351.025879,4406.794922,0.0,1.0,15.0,,,,0.0,4.0,4.0,4.0,4.0,4.0,4.0,4.0,4.0,4.0,4.0,4.0,4.0,4.0,4.0,100.0,,,,,,,,,,,,,,,,,,,,,,,,,,,,,,,,,,,,,,,,,,,,,,,,,,,,,,,,0.0,0.0,64.0,0.735429,1.0,0.0,,,,,,,,,,,,,,,,,,,,,,,,,,,,,,,,,,,,,,,,,,,,,,,,,,,,,,,,,,,,,,,,,,,,,,
1725716031.735639,1725716031.737544,37.0,0.0,4152.692383,4305.0,4296.666504,4390.384766,4219.358887,4264.871582,4266.025879,4247.563965,4263.461426,4235.512695,4457.179688,4505.769043,4351.153809,4406.410156,0.0,1.0,15.0,,,,0.0,4.0,4.0,4.0,4.0,4.0,4.0,4.0,4.0,4.0,4.0,4.0,4.0,4.0,4.0,100.0,,,,,,,,,,,,,,,,,,,,,,,,,,,,,,,,,,,,,,,,,,,,,,,,,,,,,,,,,,,,,,,,,,,,,,,,,,,,,,,,,,,,,,,,,,,,,,,,,,,,,,,,,,,,,,,,,,,,,,,,,,,,,,,,,,,
1725716031.739543,1725716031.741548,38.0,0.0,4151.794922,4302.692383,4295.512695,4390.641113,4218.846191,4266.282227,4266.153809,4246.538574,4260.769043,4233.205078,4456.666504,4506.025879,4351.410156,4404.615234,0.0,1.0,15.0,,,,0.0,4.0,4.0,4.0,4.0,4.0,4.0,4.0,4.0,4.0,4.0,4.0,4.0,4.0,4.0,100.0,,,,,,,,,,,,,,,,,,,,,,,,,,,,,,,,,,,,,,,,,,,,,,,,,,,,,,,,,,,,,,,,,,,,,,,,,,,,,,,,,,,,,,,,,,,,,,,,,,,,,,,,,,,,,,,,,,,,,,,,,,,,,,,,,,,
1725716031.743447,1725716031.745452,39.0,0.0,4148.461426,4299.358887,4295.256348,4389.487305,4218.333496,4267.436035,4265.512695,4250.769043,4260.0,4231.922852,4456.410156,4506.666504,4351.538574,4402.436035,0.0,1.0,15.0,,,,0.0,4.0,4.0,4.0,4.0,4.0,4.0,4.0,4.0,4.0,4.0,4.0,4.0,4.0,4.0,100.0,,,,,,,,,,,,,,,,,,,,,,,,,,,,,,,,,,,,,,,,,,,,,,,,,,,,,,,,,,,,,,,,,,,,,,,,,,,,,,,,,,,,,,,,,,,,,,,,,,,,,,,,,,,,,,,,,,,,,,,,,,,,,,,,,,,
1725716031.747352,1725716031.749356,40.0,0.0,4143.333496,4297.179688,4295.769043,4388.333496,4218.333496,4267.820313,4264.743652,4257.94873,4261.538574,4232.436035,4456.794922,4507.307617,4351.666504,4401.282227,0.0,1.0,15.0,,,,0.0,4.0,4.0,4.0,4.0,4.0,4.0,4.0,4.0,4.0,4.0,4.0,4.0,4.0,4.0,100.0,,,,,,,,,,,,,,,,,,,,,,,,,,,,,,,,,,,,,,,,,,,,,,,,,,,,,,,,,,,,,,,,,,,,,,,,,,,,,,,,,,,,,,,,,,,,,,,,,,,,,,,,,,,,,,,,,,,,,,,,,,,,,,,,,,,
1725716031.751256,1725716031.75326,41.0,0.0,4138.717773,4297.179688,4296.538574,4388.077148,4218.461426,4267.436035,4265.256348,4263.974121,4264.358887,4233.974121,4457.94873,4507.94873,4351.538574,4402.05127,0.0,1.0,15.0,,,,0.0,4.0,4.0,4.0,4.0,4.0,4.0,4.0,4.0,4.0,4.0,4.0,4.0,4.0,4.0,100.0,,,,,,,,,,,,,,,,,,,,,,,,,,,,,,,,,,,,,,,,,,,,,,,,,,,,,,,,,,,,,,,,,,,,,,,,,,,,,,,,,,,,,,,,,,,,,,,,,,,,,,,,,,,,,,,,,,,,,,,,,,,,,,,,,,,
1725716031.75516,1725716031.757164,42.0,0.0,4136.794922,4298.461426,4296.794922,4388.846191,4218.077148,4266.666504,4267.94873,4265.128418,4266.666504,4235.641113,4459.487305,4507.94873,4351.538574,4404.358887,0.0,1.0,15.0,,,,0.0,4.0,4.0,4.0,4.0,4.0,4.0,4.0,4.0,4.0,4.0,4.0,4.0,4.0,4.0,100.0,,,,,,,,,,,,,,,,,,,,,,,,,,,,,,,,,,,,,,,,,,,,,,,,,,,,,,,,,,,,,,,,,,,,,,,,,,,,,,,,,,,,,,,,,,,,,,,,,,,,,,,,,,,,,,,,,,,,,,,,,,,,,,,,,,,
1725716031.759064,1725716031.760968,43.0,0.0,4137.563965,4299.615234,4296.538574,4389.743652,4217.563965,4266.538574,4272.692383,4261.153809,4267.307617,4236.538574,4460.641113,4507.563965,4351.794922,4407.05127,0.0,1.0,15.0,,,,0.0,4.0,4.0,4.0,4.0,4.0,4.0,4.0,4.0,4.0,4.0,4.0,4.0,4.0,4.0,100.0,,,,,,,,,,,,,,,,,,,,,,,,,,,,,,,,,,,,,,,,,,,,,,,,,,,,,,,,,,,,,,,,,,,,,,,,,,,,,,,,,,,,,,,,,,,,,,,,,,,,,,,,,,,,,,,,,,,,,,,,,,,,,,,,,,,
1725716031.762968,1725716031.764873,44.0,0.0,4138.461426,4299.358887,4296.153809,4389.871582,4217.563965,4266.922852,4277.94873,4254.615234,4266.025879,4236.282227,4460.512695,4506.538574,4352.307617,4408.717773,0.0,1.0,15.0,,,,0.0,4.0,4.0,4.0,4.0,4.0,4.0,4.0,4.0,4.0,4.0,4.0,4.0,4.0,4.0,100.0,,,,,,,,,,,,,,,,,,,,,,,,,,,,,,,,,,,,,,,,,,,,,,,,,,,,,,,,0.0,0.0,64.0,0.735429,1.0,0.0,,,,,,,,,,,,,,,,,,,,,,,,,,,,,,,,,,,,,,,,,,,,,,,,,,,,,,,,,,,,,,,,,,,,,,
1725716031.766872,1725716031.768777,45.0,0.0,4136.794922,4298.077148,4295.897461,4389.102539,4218.461426,4267.179688,4281.666504,4249.358887,4263.974121,4235.256348,4458.846191,4505.384766,4352.692383,4408.077148,0.0,1.0,15.0,,,,0.0,4.0,4.0,4.0,4.0,4.0,4.0,4.0,4.0,4.0,4.0,4.0,4.0,4.0,4.0,100.0,,,,,,,,,,,,,,,,,,,,,,,,,,,,,,,,,,,,,,,,,,,,,,,,,,,,,,,,,,,,,,,,,,,,,,,,,,,,,,,,,,,,,,,,,,,,,,,,,,,,,,,,,,,,,,,,,,,,,,,,,,,,,,,,,,,
1725716031.770776,1725716031.772781,46.0,0.0,4131.922852,4296.666504,4295.641113,4387.563965,4219.871582,4266.538574,4282.820313,4248.461426,4262.94873,4233.717773,4455.769043,4504.615234,4352.436035,4405.512695,0.0,1.0,15.0,,,,0.0,4.0,4.0,4.0,4.0,4.0,4.0,4.0,4.0,4.0,4.0,4.0,4.0,4.0,4.0,100.0,,,,,,,,,,,,,,,,,,,,,,,,,,,,,,,,,,,,,,,,,,,,,,,,,,,,,,,,,,,,,,,,,,,,,,,,,,,,,,,,,,,,,,,,,,,,,,,,,,,,,,,,,,,,,,,,,,,,,,,,,,,,,,,,,,,
1725716031.77468,1725716031.776685,47.0,0.0,4125.769043,4296.025879,4295.256348,4385.897461,4220.384766,4265.0,4282.179688,4252.436035,4263.846191,4232.692383,4452.05127,4503.974121,4351.666504,4402.05127,0.0,1.0,15.0,,,,0.0,4.0,4.0,4.0,4.0,4.0,4.0,4.0,4.0,4.0,4.0,4.0,4.0,4.0,4.0,100.0,,,,,,,,,,,,,,,,,,,,,,,,,,,,,,,,,,,,,,,,,,,,,,,,,,,,,,,,,,,,,,,,,,,,,,,,,,,,,,,,,,,,,,,,,,,,,,,,,,,,,,,,,,,,,,,,,,,,,,,,,,,,,,,,,,,
1725716031.778584,1725716031.780589,48.0,0.0,4120.897461,4296.153809,4295.256348,4384.871582,4219.871582,4263.717773,4281.922852,4259.358887,4266.538574,4232.692383,4448.461426,4502.820313,4350.769043,4399.615234,0.0,1.0,15.0,,,,0.0,4.0,4.0,4.0,4.0,4.0,4.0,4.0,4.0,4.0,4.0,4.0,4.0,4.0,4.0,100.0,,,,,,,,,,,,,,,,,,,,,,,,,,,,,,,,,,,,,,,,,,,,,,,,,,,,,,,,,,,,,,,,,,,,,,,,,,,,,,,,,,,,,,,,,,,,,,,,,,,,,,,,,,,,,,,,,,,,,,,,,,,,,,,,,,,
1725716031.782488,1725716031.784493,49.0,0.0,4119.102539,4295.512695,4295.512695,4385.0,4218.974121,4263.717773,4283.717773,4265.512695,4269.615234,4233.974121,4446.025879,4500.769043,4350.0,4398.333496,0.0,1.0,15.0,,,,0.0,4.0,4.0,4.0,4.0,4.0,4.0,4.0,4.0,4.0,4.0,4.0,4.0,4.0,4.0,100.0,,,,,,,,,,,,,,,,,,,,,,,,,,,,,,,,,,,,,,,,,,,,,,,,,,,,,,,,,,,,,,,,,,,,,,,,,,,,,,,,,,,,,,,,,,,,,,,,,,,,,,,,,,,,,,,,,,,,,,,,,,,,,,,,,,,
1725716031.786393,1725716031.788397,50.0,0.0,4119.871582,4293.717773,4296.025879,4386.025879,4219.230957,4265.769043,4287.692383,4267.563965,4271.410156,4235.512695,4444.871582,4497.820313,4349.230957,4397.820313,0.0,1.0,15.0,,,,0.0,4.0,4.0,4.0,4.0,4.0,4.0,4.0,4.0,4.0,4.0,4.0,4.0,4.0,4.0,100.0,,,,,,,,,,,,,,,,,,,,,,,,,,,,,,,,,,,,,,,,,,,,,,,,,,,,,,,,,,,,,,,,,,,,,,,,,,,,,,,,,,,,,,,,,,,,,,,,,,,,,,,,,,,,,,,,,,,,,,,,,,,,,,,,,,,
1725716031.790297,1725716031.792201,51.0,0.0,4120.769043,4291.922852,4296.025879,4387.692383,4221.538574,4269.230957,4292.179688,4265.0,4271.282227,4236.538574,4445.0,4495.0,4348.333496,4397.436035,0.0,1.0,15.0,,,,0.0,4.0,4.0,4.0,4.0,4.0,4.0,4.0,4.0,4.0,4.0,4.0,4.0,4.0,4.0,100.0,,,,,,,,,,,,,,,,,,,,,,,,,,,,,,,,,,,,,,,,,,,,,,,,,,,,,,,,,,,,,,,,,,,,,,,,,,,,,,,,,,,,,,,,,,,,,,,,,,,,,,,,,,,,,,,,,,,,,,,,,,,,,,,,,,,
1725716031.794201,1725716031.796105,52.0,0.0,4119.743652,4291.922852,4295.512695,4388.974121,4225.512695,4272.94873,4295.384766,4259.487305,4269.871582,4236.538574,4445.769043,4492.94873,4346.794922,4396.794922,0.0,1.0,15.0,,,,0.0,4.0,4.0,4.0,4.0,4.0,4.0,4.0,4.0,4.0,4.0,4.0,4.0,4.0,4.0,100.0,1.0,25.0,1.0,4.0,4.0,4.0,4.0,1.0,1.0,4.0,4.0,4.0,4.0,4.0,4.0,4.0,1.0,0.0,0.0,,,,,,,,,,,,,,,,,,,,,,,,,,,,,,,,,,,,,0.0,0.0,1.0,0.0,1.0,0.0,1.508717,1.881463,0.919482,0.247548,0.083908,1.698572,1.107064,0.471417,0.305589,0.050141,2.468976,1.235959,0.703488,0.26534,0.041756,0.841658,0.831242,0.536827,0.208114,0.063902,1.384926,0.563576,0.283599,0.111703,0.05327,0.448754,0.228783,0.064813,0.109465,0.05561,0.527895,0.497992,0.20318,0.10221,0.054003,0.298561,1.623784,0.902085,0.094599,0.085735,0.910874,0.964779,0.503263,0.134985,0.059526,1.057072,0.842687,0.978294,0.241285,0.071472,1.512927,1.870616,1.352619,0.279092,0.120524,1.794062,2.944532,1.476088,0.370667,0.157434,1.970609,1.616035,0.920484,0.476963,0.148219,1.791181,1.969688,1.365281,0.266114,0.129059
1725716031.798105,1725716031.80001,53.0,0.0,4116.282227,4293.461426,4294.615234,4388.974121,4229.871582,4275.769043,4296.282227,4253.717773,4268.333496,4235.512695,4446.282227,4491.666504,4344.615234,4396.153809,0.0,1.0,15.0,,,,0.0,4.0,4.0,4.0,4.0,4.0,4.0,4.0,4.0,4.0,4.0,4.0,4.0,4.0,4.0,100.0,,,,,,,,,,,,,,,,,,,,,,,,,,,,,,,,,,,,,,,,,,,,,,,,,,,,,,,,,,,,,,,,,,,,,,,,,,,,,,,,,,,,,,,,,,,,,,,,,,,,,,,,,,,,,,,,,,,,,,,,,,,,,,,,,,,
1725716031.802009,1725716031.803914,54.0,0.0,4112.179688,4294.615234,4294.487305,4387.563965,4232.94873,4276.922852,4295.256348,4249.871582,4266.922852,4234.102539,4446.538574,4490.897461,4342.563965,4395.641113,0.0,1.0,15.0,,,,0.0,4.0,4.0,4.0,4.0,4.0,4.0,4.0,4.0,4.0,4.0,4.0,4.0,4.0,4.0,100.0,,,,,,,,,,,,,,,,,,,,,,,,,,,,,,,,,,,,,,,,,,,,,,,,,,,,,,,,,,,,,,,,,,,,,,,,,,,,,,,,,,,,,,,,,,,,,,,,,,,,,,,,,,,,,,,,,,,,,,,,,,,,,,,,,,,
1725716031.805913,1725716031.807718,55.0,0.0,4109.615234,4293.205078,4296.153809,4385.256348,4233.846191,4276.025879,4293.717773,4248.589844,4265.641113,4233.077148,4446.538574,4490.512695,4341.794922,4395.384766,0.0,1.0,15.0,,,,0.0,4.0,4.0,4.0,4.0,4.0,4.0,4.0,4.0,4.0,4.0,4.0,4.0,4.0,4.0,100.0,,,,,,,,,,,,,,,,,,,,,,,,,,,,,,,,,,,,,,,,,,,,,,,,,,,,,,,,,,,,,,,,,,,,,,,,,,,,,,,,,,,,,,,,,,,,,,,,,,,,,,,,,,,,,,,,,,,,,,,,,,,,,,,,,,,
1725716031.809817,1725716031.811622,56.0,0.0,4109.615234,4289.358887,4299.615234,4382.94873,4232.692383,4273.589844,4292.820313,4249.102539,4264.358887,4232.563965,4446.794922,4491.153809,4343.205078,4395.384766,0.0,1.0,15.0,,,,0.0,4.0,4.0,4.0,4.0,4.0,4.0,4.0,4.0,4.0,4.0,4.0,4.0,4.0,4.0,100.0,,,,,,,,,,,,,,,,,,,,,,,,,,,,,,,,,,,,,,,,,,,,,,,,,,,,,,,,,,,,,,,,,,,,,,,,,,,,,,,,,,,,,,,,,,,,,,,,,,,,,,,,,,,,,,,,,,,,,,,,,,,,,,,,,,,
1725716031.813721,1725716031.815526,57.0,0.0,4111.282227,4285.256348,4304.358887,4381.282227,4231.025879,4271.153809,4292.563965,4250.641113,4263.205078,4232.436035,4447.307617,4492.94873,4346.794922,4395.897461,0.0,1.0,15.0,,,,0.0,4.0,4.0,4.0,4.0,4.0,4.0,4.0,4.0,4.0,4.0,4.0,4.0,4.0,4.0,100.0,,,,,,,,,,,,,,,,,,,,,,,,,,,,,,,,,,,,,,,,,,,,,,,,,,,,,,,,,,,,,,,,,,,,,,,,,,,,,,,,,,,,,,,,,,,,,,,,,,,,,,,,,,,,,,,,,,,,,,,,,,,,,,,,,,,
1725716031.817625,1725716031.81943,58.0,0.0,4112.436035,4283.461426,4308.589844,4380.769043,4230.641113,4270.256348,4292.820313,4252.436035,4262.692383,4232.692383,4447.563965,4495.384766,4350.512695,4397.05127,0.0,1.0,15.0,,,,0.0,4.0,4.0,4.0,4.0,4.0,4.0,4.0,4.0,4.0,4.0,4.0,4.0,4.0,4.0,100.0,,,,,,,,,,,,,,,,,,,,,,,,,,,,,,,,,,,,,,,,,,,,,,,,,,,,,,,,,,,,,,,,,,,,,,,,,,,,,,,,,,,,,,,,,,,,,,,,,,,,,,,,,,,,,,,,,,,,,,,,,,,,,,,,,,,
1725716031.82153,1725716031.823234,59.0,0.0,4111.282227,4285.256348,4310.897461,4381.410156,4232.820313,4270.897461,4293.717773,4253.333496,4262.692383,4233.077148,4447.307617,4497.05127,4352.05127,4398.461426,0.0,1.0,15.0,,,,0.0,4.0,4.0,4.0,4.0,4.0,4.0,4.0,4.0,4.0,4.0,4.0,4.0,4.0,4.0,100.0,,,,,,,,,,,,,,,,,,,,,,,,,,,,,,,,,,,,,,,,,,,,,,,,,,,,,,,,,,,,,,,,,,,,,,,,,,,,,,,,,,,,,,,,,,,,,,,,,,,,,,,,,,,,,,,,,,,,,,,,,,,,,,,,,,,
1725716031.825434,1725716031.827138,60.0,0.0,4107.05127,4289.871582,4311.282227,4383.205078,4237.179688,4272.179688,4295.512695,4252.692383,4262.436035,4233.333496,4446.538574,4496.794922,4350.256348,4399.230957,0.0,1.0,15.0,,,,0.0,4.0,4.0,4.0,4.0,4.0,4.0,4.0,4.0,4.0,4.0,4.0,4.0,4.0,4.0,100.0,,,,,,,,,,,,,,,,,,,,,,,,,,,,,,,,,,,,,,,,,,,,,,,,,,,,,,,,0.0,0.0,1.0,0.0,1.0,0.0,,,,,,,,,,,,,,,,,,,,,,,,,,,,,,,,,,,,,,,,,,,,,,,,,,,,,,,,,,,,,,,,,,,,,,
1725716031.829338,1725716031.831043,61.0,0.0,4100.0,4294.615234,4310.512695,4386.410156,4242.563965,4272.820313,4297.94873,4250.641113,4261.025879,4233.589844,4445.897461,4494.743652,4346.410156,4398.974121,0.0,1.0,15.0,,,,0.0,4.0,4.0,4.0,4.0,4.0,4.0,4.0,4.0,4.0,4.0,4.0,4.0,4.0,4.0,100.0,,,,,,,,,,,,,,,,,,,,,,,,,,,,,,,,,,,,,,,,,,,,,,,,,,,,,,,,,,,,,,,,,,,,,,,,,,,,,,,,,,,,,,,,,,,,,,,,,,,,,,,,,,,,,,,,,,,,,,,,,,,,,,,,,,,
1725716031.833242,1725716031.835047,62.0,0.0,4090.897461,4296.922852,4310.256348,4390.256348,4247.05127,4272.307617,4301.153809,4248.205078,4258.205078,4233.205078,4445.897461,4492.436035,4343.077148,4398.077148,0.0,1.0,15.0,,,,0.0,4.0,4.0,4.0,4.0,4.0,4.0,4.0,4.0,4.0,4.0,4.0,4.0,4.0,4.0,100.0,,,,,,,,,,,,,,,,,,,,,,,,,,,,,,,,,,,,,,,,,,,,,,,,,,,,,,,,,,,,,,,,,,,,,,,,,,,,,,,,,,,,,,,,,,,,,,,,,,,,,,,,,,,,,,,,,,,,,,,,,,,,,,,,,,,
1725716031.837146,1725716031.838951,63.0,0.0,4079.615479,4295.897461,4311.410156,4393.974121,4249.487305,4271.538574,4304.615234,4246.410156,4254.230957,4231.922852,4446.666504,4491.025879,4342.05127,4397.563965,0.0,1.0,15.0,,,,0.0,4.0,4.0,4.0,4.0,4.0,4.0,4.0,4.0,4.0,4.0,4.0,4.0,4.0,4.0,100.0,,,,,,,,,,,,,,,,,,,,,,,,,,,,,,,,,,,,,,,,,,,,,,,,,,,,,,,,,,,,,,,,,,,,,,,,,,,,,,,,,,,,,,,,,,,,,,,,,,,,,,,,,,,,,,,,,,,,,,,,,,,,,,,,,,,
1725716031.84105,1725716031.842855,64.0,0.0,4065.512939,4292.692383,4314.102539,4396.410156,4249.615234,4271.666504,4308.077148,4245.897461,4250.769043,4229.871582,4447.692383,4490.769043,4343.077148,4397.436035,0.0,1.0,15.0,,,,0.0,4.0,4.0,4.0,4.0,4.0,4.0,4.0,4.0,4.0,4.0,4.0,4.0,4.0,4.0,100.0,,,,,,,,,,,,,,,,,,,,,,,,,,,,,,,,,,,,,,,,,,,,,,,,,,,,,,,,,,,,,,,,,,,,,,,,,,,,,,,,,,,,,,,,,,,,,,,,,,,,,,,,,,,,,,,,,,,,,,,,,,,,,,,,,,,
1725716031.844954,1725716031.846859,65.0,0.0,4048.205078,4289.358887,4317.179688,4396.794922,4248.846191,4273.333496,4311.666504,4245.897461,4248.846191,4228.077148,4447.94873,4490.897461,4343.846191,4397.05127,0.0,1.0,15.0,,,,0.0,4.0,4.0,4.0,4.0,4.0,4.0,4.0,4.0,4.0,4.0,4.0,4.0,4.0,4.0,100.0,,,,,,,,,,,,,,,,,,,,,,,,,,,,,,,,,,,,,,,,,,,,,,,,,,,,,,,,,,,,,,,,,,,,,,,,,,,,,,,,,,,,,,,,,,,,,,,,,,,,,,,,,,,,,,,,,,,,,,,,,,,,,,,,,,,
1725716031.848858,1725716031.850763,66.0,0.0,4028.205078,4288.077148,4320.0,4395.897461,4248.974121,4275.897461,4316.025879,4246.025879,4249.230957,4227.94873,4447.307617,4490.641113,4342.179688,4395.256348,0.0,1.0,15.0,,,,0.0,4.0,4.0,4.0,4.0,4.0,4.0,4.0,4.0,4.0,4.0,4.0,4.0,4.0,4.0,100.0,,,,,,,,,,,,,,,,,,,,,,,,,,,,,,,,,,,,,,,,,,,,,,,,,,,,,,,,,,,,,,,,,,,,,,,,,,,,,,,,,,,,,,,,,,,,,,,,,,,,,,,,,,,,,,,,,,,,,,,,,,,,,,,,,,,
1725716031.852762,1725716031.854667,67.0,0.0,4007.307617,4288.717773,4321.922852,4395.0,4251.410156,4278.461426,4321.666504,4245.769043,4250.384766,4229.230957,4446.025879,4490.0,4337.179688,4391.666504,0.0,1.0,15.0,,,,0.0,4.0,4.0,4.0,4.0,4.0,4.0,4.0,4.0,4.0,4.0,4.0,4.0,4.0,4.0,100.0,,,,,,,,,,,,,,,,,,,,,,,,,,,,,,,,,,,,,,,,,,,,,,,,,,,,,,,,,,,,,,,,,,,,,,,,,,,,,,,,,,,,,,,,,,,,,,,,,,,,,,,,,,,,,,,,,,,,,,,,,,,,,,,,,,,
1725716031.856666,1725716031.858571,68.0,0.0,3988.205078,4290.384766,4323.461426,4395.384766,4255.512695,4279.871582,4328.589844,4245.384766,4250.512695,4230.897461,4444.743652,4490.128418,4330.897461,4387.179688,0.0,1.0,15.0,,,,0.0,4.0,4.0,4.0,4.0,4.0,4.0,4.0,4.0,4.0,4.0,4.0,4.0,4.0,4.0,100.0,,,,,,,,,,,,,,,,,,,,,,,,,,,,,,,,,,,,,,,,,,,,,,,,,,,,,,,,0.0,0.0,1.0,0.0,1.0,0.0,,,,,,,,,,,,,,,,,,,,,,,,,,,,,,,,,,,,,,,,,,,,,,,,,,,,,,,,,,,,,,,,,,,,,,
1725716031.860571,1725716031.862575,69.0,0.0,3972.820557,4291.794922,4324.871582,4397.05127,4259.743652,4280.0,4336.410156,4245.384766,4248.974121,4230.769043,4444.102539,4491.153809,4326.410156,4383.333496,0.0,1.0,15.0,,,,0.0,4.0,4.0,4.0,4.0,4.0,4.0,4.0,4.0,4.0,4.0,4.0,4.0,4.0,4.0,100.0,,,,,,,,,,,,,,,,,,,,,,,,,,,,,,,,,,,,,,,,,,,,,,,,,,,,,,,,,,,,,,,,,,,,,,,,,,,,,,,,,,,,,,,,,,,,,,,,,,,,,,,,,,,,,,,,,,,,,,,,,,,,,,,,,,,
1725716031.864475,1725716031.866479,70.0,0.0,3961.025635,4292.563965,4326.153809,4398.974121,4262.179688,4279.871582,4344.487305,4246.153809,4247.179688,4227.820313,4444.358887,4491.922852,4325.897461,4381.538574,0.0,1.0,15.0,,,,0.0,4.0,4.0,4.0,4.0,4.0,4.0,4.0,4.0,4.0,4.0,4.0,4.0,4.0,4.0,100.0,,,,,,,,,,,,,,,,,,,,,,,,,,,,,,,,,,,,,,,,,,,,,,,,,,,,,,,,,,,,,,,,,,,,,,,,,,,,,,,,,,,,,,,,,,,,,,,,,,,,,,,,,,,,,,,,,,,,,,,,,,,,,,,,,,,
1725716031.868379,1725716031.870383,71.0,0.0,3951.281982,4293.077148,4327.05127,4400.0,4262.563965,4280.0,4351.922852,4247.692383,4246.922852,4222.563965,4444.743652,4490.256348,4328.846191,4381.666504,0.0,1.0,15.0,,,,0.0,4.0,4.0,4.0,4.0,4.0,4.0,4.0,4.0,4.0,4.0,4.0,4.0,4.0,4.0,100.0,,,,,,,,,,,,,,,,,,,,,,,,,,,,,,,,,,,,,,,,,,,,,,,,,,,,,,,,,,,,,,,,,,,,,,,,,,,,,,,,,,,,,,,,,,,,,,,,,,,,,,,,,,,,,,,,,,,,,,,,,,,,,,,,,,,
1725716031.872283,1725716031.874287,72.0,0.0,3940.897461,4293.717773,4327.307617,4400.0,4261.666504,4280.641113,4358.205078,4248.205078,4248.205078,4217.05127,4444.358887,4485.512695,4332.692383,4382.179688,0.0,1.0,15.0,,,,0.0,4.0,4.0,4.0,4.0,4.0,4.0,4.0,4.0,4.0,4.0,4.0,4.0,4.0,4.0,100.0,,,,,,,,,,,,,,,,,,,,,,,,,,,,,,,,,,,,,,,,,,,,,,,,,,,,,,,,,,,,,,,,,,,,,,,,,,,,,,,,,,,,,,,,,,,,,,,,,,,,,,,,,,,,,,,,,,,,,,,,,,,,,,,,,,,
