Timestamp,OriginalTimestamp,EEG.Counter,EEG.Interpolated,EEG.AF3,EEG.F7,EEG.F3,EEG.FC5,EEG.T7,EEG.P7,EEG.O1,EEG.O2,EEG.P8,EEG.T8,EEG.FC6,EEG.F4,EEG.F8,EEG.AF4,EEG.RawCq,EEG.Battery,EEG.BatteryPercent,MarkerIndex,MarkerType,MarkerValueInt,EEG.MarkerHardware,CQ.AF3,CQ.F7,CQ.F3,CQ.FC5,CQ.T7,CQ.P7,CQ.O1,CQ.O2,CQ.P8,CQ.T8,CQ.FC6,CQ.F4,CQ.F8,CQ.AF4,CQ.Overall,EQ.SampleRateQuality,EQ.OVERALL,EQ.AF3,EQ.F7,EQ.F3,EQ.FC5,EQ.T7,EQ.P7,EQ.O1,EQ.O2,EQ.P8,EQ.T8,EQ.FC6,EQ.F4,EQ.F8,EQ.AF4,MC.Action,MC.ActionPower,MC.IsActive,PM.Attention.IsActive,PM.Attention.Scaled,PM.Attention.Raw,PM.Attention.Min,PM.Attention.Max,PM.Engagement.IsActive,PM.Engagement.Scaled,PM.Engagement.Raw,PM.Engagement.Min,PM.Engagement.Max,PM.Excitement.IsActive,PM.Excitement.Scaled,PM.Excitement.Raw,PM.Excitement.Min,PM.Excitement.Max,PM.LongTermExcitement,PM.Stress.IsActive,PM.Stress.Scaled,PM.Stress.Raw,PM.Stress.Min,PM.Stress.Max,PM.Relaxation.IsActive,PM.Relaxation.Scaled,PM.Relaxation.Raw,PM.Relaxation.Min,PM.Relaxation.Max,PM.Interest.IsActive,PM.Interest.Scaled,PM.Interest.Raw,PM.Interest.Min,PM.Interest.Max,PM.Focus.IsActive,PM.Focus.Scaled,PM.Focus.Raw,PM.Focus.Min,PM.Focus.Max,FE.BlinkWink,FE.HorizontalEyesDirection,FE.UpperFaceAction,FE.UpperFaceActionPower,FE.LowerFaceAction,FE.LowerFaceActionPower,POW.AF3.Theta,POW.AF3.Alpha,POW.AF3.BetaL,POW.AF3.BetaH,POW.AF3.Gamma,POW.F7.Theta,POW.F7.Alpha,POW.F7.BetaL,POW.F7.BetaH,POW.F7.Gamma,POW.F3.Theta,POW.F3.Alpha,POW.F3.BetaL,POW.F3.BetaH,POW.F3.Gamma,POW.FC5.Theta,POW.FC5.Alpha,POW.FC5.BetaL,POW.FC5.BetaH,POW.FC5.Gamma,POW.T7.Theta,POW.T7.Alpha,POW.T7.BetaL,POW.T7.BetaH,POW.T7.Gamma,POW.P7.Theta,POW.P7.Alpha,POW.P7.BetaL,POW.P7.BetaH,POW.P7.Gamma,POW.O1.Theta,POW.O1.Alpha,POW.O1.BetaL,POW.O1.BetaH,POW.O1.Gamma,POW.O2.Theta,POW.O2.Alpha,POW.O2.BetaL,POW.O2.BetaH,POW.O2.Gamma,POW.P8.Theta,POW.P8.Alpha,POW.P8.BetaL,POW.P8.BetaH,POW.P8.Gamma,POW.T8.Theta,POW.T8.Alpha,POW.T8.BetaL,POW.T8.BetaH,POW.T8.Gamma,POW.FC6.Theta,POW.FC6.Alpha,POW.FC6.BetaL,POW.FC6.BetaH,POW.FC6.Gamma,POW.F4.Theta,POW.F4.Alpha,POW.F4.BetaL,POW.F4.BetaH,POW.F4.Gamma,POW.F8.Theta,POW.F8.Alpha,POW.F8.BetaL,POW.F8.BetaH,POW.F8.Gamma,POW.AF4.Theta,POW.AF4.Alpha,POW.AF4.BetaL,POW.AF4.BetaH,POW.AF4.Gamma
1725618255.620031,1725618255.621044,161.0,0.0,4257.820313,4241.666504,4290.0,4281.282227,4217.563965,4210.0,4212.692383,4217.94873,4216.282227,4198.205078,4532.436035,4533.461426,4359.743652,4453.205078,3889.0,2.0,35.0,15.0,1.0,1.0,0.0,4.0,4.0,4.0,4.0,4.0,4.0,4.0,4.0,4.0,4.0,4.0,4.0,4.0,4.0,100.0,,,,,,,,,,,,,,,,,,,,,,,,,,,,,,,,,,,,,,,,,,,,,,,,,,,,,,,,,,,,,,,,,,,,,,,,,,,,,,,,,,,,,,,,,,,,,,,,,,,,,,,,,,,,,,,,,,,,,,,,,,,,,,,,,,,
1725618255.623935,1725618255.624849,162.0,0.0,4262.563965,4249.487305,4290.769043,4281.282227,4216.922852,4205.897461,4207.692383,4220.256348,4216.794922,4200.897461,4534.871582,4532.820313,4362.692383,4452.436035,2887.0,2.0,35.0,,,,0.0,4.0,4.0,4.0,4.0,4.0,4.0,4.0,4.0,4.0,4.0,4.0,4.0,4.0,4.0,100.0,,,,,,,,,,,,,,,,,1.0,0.0,0.0,,,,,,,,,,,,,,,,,,,,,,,,,,,,,,,,,,,,,0.0,0.0,1.0,0.0,1.0,0.0,2.069667,1.438137,1.057956,0.249162,0.113224,1.617228,1.378483,0.717946,0.286107,0.104704,2.256104,1.413126,0.649229,0.35933,0.137817,2.253913,1.155059,0.780857,0.18886,0.065929,0.40437,0.603695,0.41329,0.136101,0.143607,0.432215,0.440473,0.425192,0.184343,0.179063,0.517249,0.463602,0.36602,0.115823,0.053685,1.114225,2.57902,0.463162,0.431195,0.173374,1.449719,1.522699,0.671069,0.443631,0.143631,1.855947,1.343897,1.190839,0.499419,0.087546,2.336455,2.698827,1.629274,0.668459,0.25104,4.015131,3.0125,0.964757,0.688965,0.194341,3.290524,2.566229,1.71667,0.487741,0.150109,2.603079,1.701968,1.268036,0.436501,0.121676
1725618255.627839,1725618255.628753,163.0,0.0,4266.153809,4253.205078,4291.922852,4280.0,4212.563965,4204.358887,4203.461426,4225.0,4217.692383,4203.974121,4538.333496,4536.666504,4366.410156,4454.358887,3069.0,2.0,35.0,,,,0.0,4.0,4.0,4.0,4.0,4.0,4.0,4.0,4.0,4.0,4.0,4.0,4.0,4.0,4.0,100.0,,,,,,,,,,,,,,,,,,,,,,,,,,,,,,,,,,,,,,,,,,,,,,,,,,,,,,,,,,,,,,,,,,,,,,,,,,,,,,,,,,,,,,,,,,,,,,,,,,,,,,,,,,,,,,,,,,,,,,,,,,,,,,,,,,,
1725618255.631743,1725618255.632657,164.0,0.0,4266.922852,4252.05127,4292.94873,4279.230957,4206.794922,4205.384766,4201.794922,4230.769043,4218.846191,4204.743652,4541.025879,4542.05127,4368.589844,4458.205078,3410.0,2.0,35.0,,,,0.0,4.0,4.0,4.0,4.0,4.0,4.0,4.0,4.0,4.0,4.0,4.0,4.0,4.0,4.0,100.0,,,,,,,,,,,,,,,,,,,,,,,,,,,,,,,,,,,,,,,,,,,,,,,,,,,,,,,,,,,,,,,,,,,,,,,,,,,,,,,,,,,,,,,,,,,,,,,,,,,,,,,,,,,,,,,,,,,,,,,,,,,,,,,,,,,
1725618255.635647,1725618255.636561,165.0,0.0,4264.230957,4247.307617,4292.563965,4279.102539,4202.179688,4207.436035,4202.307617,4235.0,4219.743652,4202.692383,4541.410156,4545.0,4368.846191,4461.538574,3889.0,2.0,35.0,,,,0.0,4.0,4.0,4.0,4.0,4.0,4.0,4.0,4.0,4.0,4.0,4.0,4.0,4.0,4.0,100.0,,,,,,,,,,,,,,,,,,,,,,,,,,,,,,,,,,,,,,,,,,,,,,,,,,,,,,,,,,,,,,,,,,,,,,,,,,,,,,,,,,,,,,,,,,,,,,,,,,,,,,,,,,,,,,,,,,,,,,,,,,,,,,,,,,,
1725618255.639552,1725618255.640365,166.0,0.0,4258.846191,4241.538574,4290.256348,4278.077148,4200.256348,4208.717773,4203.461426,4235.769043,4220.128418,4200.0,4539.358887,4544.230957,4368.077148,4462.05127,2887.0,2.0,35.0,,,,0.0,4.0,4.0,4.0,4.0,4.0,4.0,4.0,4.0,4.0,4.0,4.0,4.0,4.0,4.0,100.0,,,,,,,,,,,,,,,,,,,,,,,,,,,,,,,,,,,,,,,,,,,,,,,,,,,,,,,,,,,,,,,,,,,,,,,,,,,,,,,,,,,,,,,,,,,,,,,,,,,,,,,,,,,,,,,,,,,,,,,,,,,,,,,,,,,
1725618255.643456,1725618255.644269,167.0,0.0,4253.333496,4236.538574,4286.794922,4275.128418,4200.641113,4208.205078,4203.461426,4232.94873,4219.615234,4199.230957,4535.384766,4541.410156,4367.179688,4459.358887,3069.0,2.0,35.0,,,,0.0,4.0,4.0,4.0,4.0,4.0,4.0,4.0,4.0,4.0,4.0,4.0,4.0,4.0,4.0,100.0,,,,,,,,,,,,,,,,,,,,,,,,,,,,,,,,,,,,,,,,,,,,,,,,,,,,,,,,,,,,,,,,,,,,,,,,,,,,,,,,,,,,,,,,,,,,,,,,,,,,,,,,,,,,,,,,,,,,,,,,,,,,,,,,,,,
1725618255.64736,1725618255.648173,168.0,0.0,4249.358887,4232.94873,4283.461426,4270.384766,4201.794922,4206.153809,4202.05127,4228.461426,4218.589844,4201.410156,4530.769043,4539.358887,4366.153809,4454.615234,3410.0,2.0,35.0,,,,0.0,4.0,4.0,4.0,4.0,4.0,4.0,4.0,4.0,4.0,4.0,4.0,4.0,4.0,4.0,100.0,,,,,,,,,,,,,,,,,,,,,,,,,,,,,,,,,,,,,,,,,,,,,,,,,,,,,,,,,,,,,,,,,,,,,,,,,,,,,,,,,,,,,,,,,,,,,,,,,,,,,,,,,,,,,,,,,,,,,,,,,,,,,,,,,,,
1725618255.651264,1725618255.652177,169.0,0.0,4247.820313,4230.512695,4281.153809,4265.641113,4202.179688,4203.717773,4200.384766,4224.358887,4217.307617,4204.358887,4526.025879,4538.974121,4364.871582,4450.128418,3889.0,2.0,35.0,,,,0.0,4.0,4.0,4.0,4.0,4.0,4.0,4.0,4.0,4.0,4.0,4.0,4.0,4.0,4.0,100.0,,,,,,,,,,,,,,,,,,,,,,,,,,,,,,,,,,,,,,,,,,,,,,,,,,,,,,,,,,,,,,,,,,,,,,,,,,,,,,,,,,,,,,,,,,,,,,,,,,,,,,,,,,,,,,,,,,,,,,,,,,,,,,,,,,,
1725618255.655168,1725618255.656081,170.0,0.0,4248.333496,4228.846191,4279.871582,4262.94873,4201.410156,4202.692383,4199.743652,4221.153809,4216.153809,4205.256348,4522.179688,4538.717773,4362.692383,4447.179688,2887.0,2.0,35.0,,,,0.0,4.0,4.0,4.0,4.0,4.0,4.0,4.0,4.0,4.0,4.0,4.0,4.0,4.0,4.0,100.0,,,,,,,,,,,,,,,,,,,,,,,,,,,,,,,,,,,,,,,,,,,,,,,,,,,,,,,,0.0,0.0,1.0,0.0,1.0,0.0,,,,,,,,,,,,,,,,,,,,,,,,,,,,,,,,,,,,,,,,,,,,,,,,,,,,,,,,,,,,,,,,,,,,,,
1725618255.659072,1725618255.659986,171.0,0.0,4249.743652,4227.692383,4279.358887,4262.94873,4200.128418,4203.333496,4200.256348,4218.589844,4215.0,4202.94873,4520.256348,4536.666504,4359.487305,4445.512695,3069.0,2.0,35.0,,,,0.0,4.0,4.0,4.0,4.0,4.0,4.0,4.0,4.0,4.0,4.0,4.0,4.0,4.0,4.0,100.0,,,,,,,,,,,,,,,,,,,,,,,,,,,,,,,,,,,,,,,,,,,,,,,,,,,,,,,,,,,,,,,,,,,,,,,,,,,,,,,,,,,,,,,,,,,,,,,,,,,,,,,,,,,,,,,,,,,,,,,,,,,,,,,,,,,
1725618255.662976,1725618255.66389,172.0,0.0,4250.897461,4227.179688,4279.358887,4264.358887,4200.0,4204.230957,4201.538574,4216.538574,4213.974121,4199.230957,4520.128418,4532.179688,4356.153809,4444.230957,3410.0,2.0,35.0,,,,0.0,4.0,4.0,4.0,4.0,4.0,4.0,4.0,4.0,4.0,4.0,4.0,4.0,4.0,4.0,100.0,,,,,,,,,,,,,,,,,,,,,,,,,,,,,,,,,,,,,,,,,,,,,,,,,,,,,,,,,,,,,,,,,,,,,,,,,,,,,,,,,,,,,,,,,,,,,,,,,,,,,,,,,,,,,,,,,,,,,,,,,,,,,,,,,,,
1725618255.66688,1725618255.667894,173.0,0.0,4250.256348,4226.282227,4279.358887,4265.256348,4200.897461,4204.358887,4202.563965,4216.025879,4213.333496,4197.307617,4521.153809,4526.794922,4354.102539,4442.94873,3889.0,2.0,35.0,,,,0.0,4.0,4.0,4.0,4.0,4.0,4.0,4.0,4.0,4.0,4.0,4.0,4.0,4.0,4.0,100.0,,,,,,,,,,,,,,,,,,,,,,,,,,,,,,,,,,,,,,,,,,,,,,,,,,,,,,,,,,,,,,,,,,,,,,,,,,,,,,,,,,,,,,,,,,,,,,,,,,,,,,,,,,,,,,,,,,,,,,,,,,,,,,,,,,,
1725618255.670784,1725618255.671798,174.0,0.0,4246.922852,4224.230957,4278.461426,4265.0,4201.666504,4203.846191,4202.94873,4218.974121,4213.461426,4198.077148,4522.436035,4523.077148,4354.615234,4442.436035,2887.0,2.0,35.0,,,,0.0,4.0,4.0,4.0,4.0,4.0,4.0,4.0,4.0,4.0,4.0,4.0,4.0,4.0,4.0,100.0,,,,,,,,,,,,,,,,,,,,,,,,,,,,,,,,,,,,,,,,,,,,,,,,,,,,,,,,,,,,,,,,,,,,,,,,,,,,,,,,,,,,,,,,,,,,,,,,,,,,,,,,,,,,,,,,,,,,,,,,,,,,,,,,,,,
1725618255.674688,1725618255.675702,175.0,0.0,4241.410156,4220.512695,4275.512695,4263.846191,4201.666504,4203.974121,4202.820313,4225.128418,4214.487305,4200.256348,4523.205078,4522.05127,4357.05127,4442.563965,3069.0,2.0,35.0,,,,0.0,4.0,4.0,4.0,4.0,4.0,4.0,4.0,4.0,4.0,4.0,4.0,4.0,4.0,4.0,100.0,,,,,,,,,,,,,,,,,,,,,,,,,,,,,,,,,,,,,,,,,,,,,,,,,,,,,,,,,,,,,,,,,,,,,,,,,,,,,,,,,,,,,,,,,,,,,,,,,,,,,,,,,,,,,,,,,,,,,,,,,,,,,,,,,,,
1725618255.678593,1725618255.679706,176.0,0.0,4236.025879,4216.282227,4270.897461,4262.820313,4201.538574,4205.0,4203.077148,4231.282227,4215.769043,4202.05127,4522.692383,4522.820313,4359.358887,4442.820313,3410.0,2.0,35.0,,,,0.0,4.0,4.0,4.0,4.0,4.0,4.0,4.0,4.0,4.0,4.0,4.0,4.0,4.0,4.0,100.0,,,,,,,,,,,,,,,,,,,,,,,,,,,,,,,,,,,,,,,,,,,,,,,,,,,,,,,,,,,,,,,,,,,,,,,,,,,,,,,,,,,,,,,,,,,,,,,,,,,,,,,,,,,,,,,,,,,,,,,,,,,,,,,,,,,
1725618255.682497,1725618255.68361,177.0,0.0,4232.692383,4214.230957,4266.410156,4262.563965,4202.436035,4206.025879,4203.461426,4233.077148,4216.282227,4202.05127,4520.512695,4523.461426,4359.487305,4442.307617,3889.0,2.0,35.0,,,,0.0,4.0,4.0,4.0,4.0,4.0,4.0,4.0,4.0,4.0,4.0,4.0,4.0,4.0,4.0,100.0,,,,,,,,,,,,,,,,,,,,,,,,,,,,,,,,,,,,,,,,,,,,,,,,,,,,,,,,,,,,,,,,,,,,,,,,,,,,,,,,,,,,,,,,,,,,,,,,,,,,,,,,,,,,,,,,,,,,,,,,,,,,,,,,,,,
1725618255.686401,1725618255.687514,178.0,0.0,4232.94873,4216.025879,4264.743652,4262.820313,4205.0,4205.641113,4203.589844,4228.589844,4215.512695,4200.769043,4517.179688,4522.563965,4357.436035,4441.282227,2887.0,2.0,35.0,,,,0.0,4.0,4.0,4.0,4.0,4.0,4.0,4.0,4.0,4.0,4.0,4.0,4.0,4.0,4.0,100.0,,,,,,,,,,,,,,,,,,,,,,,,,,,,,,,,,,,,,,,,,,,,,,,,,,,,,,,,0.0,0.0,1.0,0.0,1.0,0.0,,,,,,,,,,,,,,,,,,,,,,,,,,,,,,,,,,,,,,,,,,,,,,,,,,,,,,,,,,,,,,,,,,,,,,
1725618255.690305,1725618255.691518,179.0,0.0,4236.282227,4221.282227,4267.179688,4263.077148,4208.333496,4203.717773,4203.077148,4219.615234,4214.230957,4199.358887,4515.512695,4520.897461,4355.0,4440.384766,3069.0,2.0,35.0,,,,0.0,4.0,4.0,4.0,4.0,4.0,4.0,4.0,4.0,4.0,4.0,4.0,4.0,4.0,4.0,100.0,,,,,,,,,,,,,,,,,,,,,,,,,,,,,,,,,,,,,,,,,,,,,,,,,,,,,,,,,,,,,,,,,,,,,,,,,,,,,,,,,,,,,,,,,,,,,,,,,,,,,,,,,,,,,,,,,,,,,,,,,,,,,,,,,,,
1725618255.694209,1725618255.695422,180.0,0.0,4241.410156,4227.820313,4272.820313,4263.974121,4210.769043,4202.05127,4202.94873,4211.153809,4213.333496,4199.102539,4517.820313,4520.0,4354.615234,4440.256348,3410.0,2.0,35.0,,,,0.0,4.0,4.0,4.0,4.0,4.0,4.0,4.0,4.0,4.0,4.0,4.0,4.0,4.0,4.0,100.0,,,,,,,,,,,,,,,,,,,,,,,,,,,,,,,,,,,,,,,,,,,,,,,,,,,,,,,,,,,,,,,,,,,,,,,,,,,,,,,,,,,,,,,,,,,,,,,,,,,,,,,,,,,,,,,,,,,,,,,,,,,,,,,,,,,
1725618255.698113,1725618255.699326,181.0,0.0,4246.538574,4232.820313,4279.230957,4265.641113,4211.282227,4201.794922,4204.230957,4207.94873,4213.589844,4200.384766,4523.974121,4520.641113,4357.563965,4441.538574,3889.0,2.0,35.0,,,,0.0,4.0,4.0,4.0,4.0,4.0,4.0,4.0,4.0,4.0,4.0,4.0,4.0,4.0,4.0,100.0,,,,,,,,,,,,,,,,,,,,,,,,,,,,,,,,,,,,,,,,,,,,,,,,,,,,,,,,,,,,,,,,,,,,,,,,,,,,,,,,,,,,,,,,,,,,,,,,,,,,,,,,,,,,,,,,,,,,,,,,,,,,,,,,,,,
1725618255.702017,1725618255.70323,182.0,0.0,4249.871582,4234.615234,4283.333496,4267.820313,4209.615234,4202.692383,4207.05127,4211.153809,4215.128418,4202.820313,4530.769043,4522.563965,4363.461426,4443.974121,2887.0,2.0,35.0,,,,0.0,4.0,4.0,4.0,4.0,4.0,4.0,4.0,4.0,4.0,4.0,4.0,4.0,4.0,4.0,100.0,,,,,,,,,,,,,,,,,,,,,,,,,,,,,,,,,,,,,,,,,,,,,,,,,,,,,,,,,,,,,,,,,,,,,,,,,,,,,,,,,,,,,,,,,,,,,,,,,,,,,,,,,,,,,,,,,,,,,,,,,,,,,,,,,,,
1725618255.705921,1725618255.707135,183.0,0.0,4250.512695,4233.974121,4283.717773,4269.102539,4206.922852,4203.333496,4209.487305,4217.94873,4217.179688,4205.256348,4534.358887,4524.487305,4369.743652,4446.922852,3069.0,2.0,35.0,,,,0.0,4.0,4.0,4.0,4.0,4.0,4.0,4.0,4.0,4.0,4.0,4.0,4.0,4.0,4.0,100.0,,,,,,,,,,,,,,,,,,,,,,,,,,,,,,,,,,,,,,,,,,,,,,,,,,,,,,,,,,,,,,,,,,,,,,,,,,,,,,,,,,,,,,,,,,,,,,,,,,,,,,,,,,,,,,,,,,,,,,,,,,,,,,,,,,,
1725618255.709825,1725618255.711039,184.0,0.0,4249.358887,4232.563965,4280.897461,4268.461426,4204.487305,4203.077148,4209.871582,4223.077148,4218.461426,4206.153809,4533.333496,4525.897461,4373.589844,4448.461426,3410.0,2.0,35.0,,,,0.0,4.0,4.0,4.0,4.0,4.0,4.0,4.0,4.0,4.0,4.0,4.0,4.0,4.0,4.0,100.0,,,,,,,,,,,,,,,,,,,,,,,,,,,,,,,,,,,,,,,,,,,,,,,,,,,,,,,,,,,,,,,,,,,,,,,,,,,,,,,,,,,,,,,,,,,,,,,,,,,,,,,,,,,,,,,,,,,,,,,,,,,,,,,,,,,
1725618255.71373,1725618255.714843,185.0,0.0,4247.94873,4231.538574,4277.436035,4266.410156,4203.205078,4203.077148,4207.563965,4223.205078,4218.205078,4204.871582,4529.487305,4527.05127,4373.077148,4447.94873,3889.0,2.0,35.0,,,,0.0,4.0,4.0,4.0,4.0,4.0,4.0,4.0,4.0,4.0,4.0,4.0,4.0,4.0,4.0,100.0,,,,,,,,,,,,,,,,,,,,,,,,,,,,,,,,,,,,,,,,,,,,,,,,,,,,,,,,,,,,,,,,,,,,,,,,,,,,,,,,,,,,,,,,,,,,,,,,,,,,,,,,,,,,,,,,,,,,,,,,,,,,,,,,,,,
1725618255.717634,1725618255.718747,186.0,0.0,4247.692383,4231.410156,4275.769043,4265.0,4202.692383,4204.615234,4203.589844,4219.487305,4217.179688,4202.307617,4526.666504,4528.974121,4368.974121,4446.025879,2887.0,2.0,35.0,,,,0.0,4.0,4.0,4.0,4.0,4.0,4.0,4.0,4.0,4.0,4.0,4.0,4.0,4.0,4.0,100.0,,,,,,,,,,,,,,,,,,,,,,,,,,,,,,,,,,,,,,,,,,,,,,,,,,,,,,,,0.0,0.0,1.0,0.0,1.0,0.0,,,,,,,,,,,,,,,,,,,,,,,,,,,,,,,,,,,,,,,,,,,,,,,,,,,,,,,,,,,,,,,,,,,,,,
1725618255.721538,1725618255.722651,187.0,0.0,4248.333496,4232.05127,4276.794922,4266.025879,4202.94873,4208.077148,4200.641113,4216.282227,4216.153809,4200.0,4527.820313,4531.922852,4364.615234,4445.256348,3069.0,2.0,35.0,,,,0.0,4.0,4.0,4.0,4.0,4.0,4.0,4.0,4.0,4.0,4.0,4.0,4.0,4.0,4.0,100.0,,,,,,,,,,,,,,,,,,,,,,,,,,,,,,,,,,,,,,,,,,,,,,,,,,,,,,,,,,,,,,,,,,,,,,,,,,,,,,,,,,,,,,,,,,,,,,,,,,,,,,,,,,,,,,,,,,,,,,,,,,,,,,,,,,,
1725618255.725442,1725618255.726555,188.0,0.0,4249.358887,4233.205078,4279.487305,4270.0,4203.077148,4212.05127,4200.128418,4217.563965,4216.282227,4199.871582,4533.205078,4535.512695,4363.974121,4447.820313,3410.0,2.0,35.0,,,,0.0,4.0,4.0,4.0,4.0,4.0,4.0,4.0,4.0,4.0,4.0,4.0,4.0,4.0,4.0,100.0,,,,,,,,,,,,,,,,,,,,,,,,,,,,,,,,,,,,,,,,,,,,,,,,,,,,,,,,,,,,,,,,,,,,,,,,,,,,,,,,,,,,,,,,,,,,,,,,,,,,,,,,,,,,,,,,,,,,,,,,,,,,,,,,,,,
1725618255.729346,1725618255.730359,189.0,0.0,4250.256348,4234.358887,4281.666504,4275.128418,4202.94873,4214.487305,4201.922852,4222.692383,4217.563965,4202.307617,4539.743652,4538.205078,4368.461426,4453.461426,3889.0,2.0,35.0,,,,0.0,4.0,4.0,4.0,4.0,4.0,4.0,4.0,4.0,4.0,4.0,4.0,4.0,4.0,4.0,100.0,,,,,,,,,,,,,,,,,,,,,,,,,,,,,,,,,,,,,,,,,,,,,,,,,,,,,,,,,,,,,,,,,,,,,,,,,,,,,,,,,,,,,,,,,,,,,,,,,,,,,,,,,,,,,,,,,,,,,,,,,,,,,,,,,,,
1725618255.73325,1725618255.734263,190.0,0.0,4250.897461,4233.974121,4282.179688,4278.846191,4202.307617,4214.743652,4204.230957,4228.461426,4219.230957,4205.897461,4543.589844,4539.230957,4375.384766,4459.487305,2887.0,2.0,35.0,,,,0.0,4.0,4.0,4.0,4.0,4.0,4.0,4.0,4.0,4.0,4.0,4.0,4.0,4.0,4.0,100.0,,,,,,,,,,,,,,,,,,,,,,,,,,,,,,,,,,,,,,,,,,,,,,,,,,,,,,,,,,,,,,,,,,,,,,,,,,,,,,,,,,,,,,,,,,,,,,,,,,,,,,,,,,,,,,,,,,,,,,,,,,,,,,,,,,,
1725618255.737154,1725618255.738168,191.0,0.0,4251.282227,4230.769043,4281.410156,4278.974121,4201.922852,4213.974121,4205.256348,4232.05127,4219.871582,4208.333496,4543.205078,4538.846191,4380.256348,4462.05127,3069.0,2.0,35.0,,,,0.0,4.0,4.0,4.0,4.0,4.0,4.0,4.0,4.0,4.0,4.0,4.0,4.0,4.0,4.0,100.0,,,,,,,,,,,,,,,,,,,,,,,,,,,,,,,,,,,,,,,,,,,,,,,,,,,,,,,,,,,,,,,,,,,,,,,,,,,,,,,,,,,,,,,,,,,,,,,,,,,,,,,,,,,,,,,,,,,,,,,,,,,,,,,,,,,
1725618255.741058,1725618255.742072,192.0,0.0,4251.410156,4225.384766,4280.384766,4275.512695,4202.179688,4214.102539,4204.615234,4233.205078,4219.230957,4208.205078,4539.615234,4538.205078,4380.0,4459.743652,3410.0,2.0,35.0,,,,0.0,4.0,4.0,4.0,4.0,4.0,4.0,4.0,4.0,4.0,4.0,4.0,4.0,4.0,4.0,100.0,,,,,,,,,,,,,,,,,,,,,,,,,,,,,,,,,,,,,,,,,,,,,,,,,,,,,,,,,,,,,,,,,,,,,,,,,,,,,,,,,,,,,,,,,,,,,,,,,,,,,,,,,,,,,,,,,,,,,,,,,,,,,,,,,,,
1725618255.744962,1725618255.745876,193.0,0.0,4250.641113,4220.256348,4279.615234,4270.128418,4202.692383,4215.512695,4203.205078,4232.94873,4217.94873,4205.512695,4536.410156,4537.820313,4375.384766,4454.230957,3889.0,2.0,35.0,,,,0.0,4.0,4.0,4.0,4.0,4.0,4.0,4.0,4.0,4.0,4.0,4.0,4.0,4.0,4.0,100.0,,,,,,,,,,,,,,,,,,,,,,,,,,,,,,,,,,,,,,,,,,,,,,,,,,,,,,,,,,,,,,,,,,,,,,,,,,,,,,,,,,,,,,,,,,,,,,,,,,,,,,,,,,,,,,,,,,,,,,,,,,,,,,,,,,,
1725618255.748866,1725618255.74978,194.0,0.0,4249.358887,4218.077148,4278.974121,4265.128418,4202.307617,4216.282227,4202.179688,4231.538574,4216.794922,4202.179688,4535.641113,4537.94873,4369.487305,4449.102539,2887.0,2.0,35.0,,,,0.0,4.0,4.0,4.0,4.0,4.0,4.0,4.0,4.0,4.0,4.0,4.0,4.0,4.0,4.0,100.0,1.0,100.0,4.0,4.0,4.0,4.0,4.0,4.0,4.0,4.0,4.0,4.0,4.0,4.0,4.0,4.0,1.0,0.0,0.0,1.0,0.419356,-6.755875,-10.387024,-2.470765,1.0,0.553199,-0.532407,-1.069798,-0.030659,1.0,0.158612,2.226785,1.255504,7.379151,0.17908,1.0,0.351217,22.370888,-18.90289,90.507579,1.0,0.200842,0.104443,0.066103,0.249853,1.0,0.489234,2.842833,-16.696813,23.127558,1.0,0.373428,0.373428,0.0,1.0,0.0,0.0,1.0,0.0,1.0,0.0,2.565059,1.4278,1.029576,0.212463,0.113045,1.659875,1.247944,0.750388,0.262065,0.113865,2.795293,1.53042,0.749962,0.324566,0.142435,2.544112,1.068663,0.782877,0.169189,0.061721,0.442581,0.643829,0.551447,0.127165,0.153031,0.442271,0.417296,0.427895,0.200236,0.192756,0.541677,0.482547,0.492775,0.133653,0.065446,1.27059,2.514616,0.494745,0.416141,0.164192,1.692087,1.67442,0.752307,0.365945,0.11896,2.185529,1.421265,1.001784,0.468325,0.099177,3.194834,2.985356,1.558488,0.553946,0.26351,5.190221,3.474081,0.944117,0.630302,0.194046,3.946157,2.453774,1.387013,0.443067,0.174738,3.337341,1.871462,1.107022,0.408796,0.129507
1725618255.752771,1725618255.753684,195.0,0.0,4248.077148,4220.128418,4278.974121,4262.436035,4201.153809,4214.102539,4201.410156,4229.102539,4216.538574,4200.256348,4536.922852,4537.94873,4365.0,4447.179688,3069.0,2.0,35.0,,,,0.0,4.0,4.0,4.0,4.0,4.0,4.0,4.0,4.0,4.0,4.0,4.0,4.0,4.0,4.0,100.0,,,,,,,,,,,,,,,,,,,,,,,,,,,,,,,,,,,,,,,,,,,,,,,,,,,,,,,,,,,,,,,,,,,,,,,,,,,,,,,,,,,,,,,,,,,,,,,,,,,,,,,,,,,,,,,,,,,,,,,,,,,,,,,,,,,
1725618255.756675,1725618255.757688,196.0,0.0,4247.820313,4225.769043,4279.615234,4262.820313,4200.128418,4209.230957,4201.025879,4225.512695,4217.05127,4200.128418,4538.205078,4537.436035,4363.717773,4448.589844,3410.0,2.0,35.0,,,,0.0,4.0,4.0,4.0,4.0,4.0,4.0,4.0,4.0,4.0,4.0,4.0,4.0,4.0,4.0,100.0,,,,,,,,,,,,,,,,,,,,,,,,,,,,,,,,,,,,,,,,,,,,,,,,,,,,,,,,,,,,,,,,,,,,,,,,,,,,,,,,,,,,,,,,,,,,,,,,,,,,,,,,,,,,,,,,,,,,,,,,,,,,,,,,,,,
1725618255.760579,1725618255.761592,197.0,0.0,4249.487305,4231.922852,4281.025879,4265.897461,4200.384766,4204.487305,4201.410156,4221.922852,4217.94873,4201.410156,4537.563965,4536.410156,4364.871582,4452.05127,3889.0,2.0,35.0,,,,0.0,4.0,4.0,4.0,4.0,4.0,4.0,4.0,4.0,4.0,4.0,4.0,4.0,4.0,4.0,100.0,,,,,,,,,,,,,,,,,,,,,,,,,,,,,,,,,,,,,,,,,,,,,,,,,,,,,,,,,,,,,,,,,,,,,,,,,,,,,,,,,,,,,,,,,,,,,,,,,,,,,,,,,,,,,,,,,,,,,,,,,,,,,,,,,,,
1725618255.764483,1725618255.765496,198.0,0.0,4252.820313,4235.384766,4283.205078,4270.256348,4202.820313,4203.461426,4203.846191,4219.743652,4218.717773,4202.820313,4535.769043,4535.384766,4366.666504,4455.512695,2887.0,2.0,35.0,,,,0.0,4.0,4.0,4.0,4.0,4.0,4.0,4.0,4.0,4.0,4.0,4.0,4.0,4.0,4.0,100.0,,,,,,,,,,,,,,,,,,,,,,,,,,,,,,,,,,,,,,,,,,,,,,,,,,,,,,,,,,,,,,,,,,,,,,,,,,,,,,,,,,,,,,,,,,,,,,,,,,,,,,,,,,,,,,,,,,,,,,,,,,,,,,,,,,,
1725618255.768387,1725618255.7695,199.0,0.0,4256.666504,4235.256348,4286.153809,4274.615234,4207.179688,4207.05127,4208.077148,4220.512695,4218.974121,4203.461426,4534.358887,4535.512695,4367.563965,4457.436035,3069.0,2.0,35.0,,,,0.0,4.0,4.0,4.0,4.0,4.0,4.0,4.0,4.0,4.0,4.0,4.0,4.0,4.0,4.0,100.0,,,,,,,,,,,,,,,,,,,,,,,,,,,,,,,,,,,,,,,,,,,,,,,,,,,,,,,,,,,,,,,,,,,,,,,,,,,,,,,,,,,,,,,,,,,,,,,,,,,,,,,,,,,,,,,,,,,,,,,,,,,,,,,,,,,
1725618255.772291,1725618255.773404,200.0,0.0,4259.102539,4233.077148,4289.871582,4278.205078,4212.179688,4212.692383,4211.922852,4224.358887,4218.974121,4203.589844,4534.487305,4537.179688,4367.05127,4457.820313,3410.0,2.0,35.0,,,,0.0,4.0,4.0,4.0,4.0,4.0,4.0,4.0,4.0,4.0,4.0,4.0,4.0,4.0,4.0,100.0,,,,,,,,,,,,,,,,,,,,,,,,,,,,,,,,,,,,,,,,,,,,,,,,,,,,,,,,,,,,,,,,,,,,,,,,,,,,,,,,,,,,,,,,,,,,,,,,,,,,,,,,,,,,,,,,,,,,,,,,,,,,,,,,,,,
1725618255.776195,1725618255.777309,201.0,0.0,4258.846191,4231.410156,4293.077148,4280.256348,4215.897461,4216.794922,4213.077148,4229.230957,4218.846191,4203.461426,4535.256348,4539.230957,4366.282227,4457.05127,3889.0,2.0,35.0,,,,0.0,4.0,4.0,4.0,4.0,4.0,4.0,4.0,4.0,4.0,4.0,4.0,4.0,4.0,4.0,100.0,,,,,,,,,,,,,,,,,,,,,,,,,,,,,,,,,,,,,,,,,,,,,,,,,,,,,,,,,,,,,,,,,,,,,,,,,,,,,,,,,,,,,,,,,,,,,,,,,,,,,,,,,,,,,,,,,,,,,,,,,,,,,,,,,,,
1725618255.780099,1725618255.781213,202.0,0.0,4256.282227,4232.05127,4294.230957,4280.641113,4216.922852,4217.436035,4211.153809,4232.307617,4219.102539,4203.461426,4535.0,4540.0,4365.897461,4455.641113,2887.0,2.0,35.0,,,,0.0,4.0,4.0,4.0,4.0,4.0,4.0,4.0,4.0,4.0,4.0,4.0,4.0,4.0,4.0,100.0,,,,,,,,,,,,,,,,,,,,,,,,,,,,,,,,,,,,,,,,,,,,,,,,,,,,,,,,0.0,0.0,1.0,0.0,1.0,0.0,,,,,,,,,,,,,,,,,,,,,,,,,,,,,,,,,,,,,,,,,,,,,,,,,,,,,,,,,,,,,,,,,,,,,,
1725618255.784003,1725618255.785217,203.0,0.0,4252.94873,4233.974121,4292.692383,4279.871582,4214.871582,4215.769043,4208.077148,4230.897461,4219.487305,4203.333496,4532.820313,4538.077148,4366.025879,4453.589844,3069.0,2.0,35.0,,,,0.0,4.0,4.0,4.0,4.0,4.0,4.0,4.0,4.0,4.0,4.0,4.0,4.0,4.0,4.0,100.0,,,,,,,,,,,,,,,,,,,,,,,,,,,,,,,,,,,,,,,,,,,,,,,,,,,,,,,,,,,,,,,,,,,,,,,,,,,,,,,,,,,,,,,,,,,,,,,,,,,,,,,,,,,,,,,,,,,,,,,,,,,,,,,,,,,
1725618255.787907,1725618255.789121,204.0,0.0,4250.384766,4235.384766,4288.846191,4279.230957,4211.282227,4214.358887,4206.538574,4225.769043,4219.743652,4202.692383,4529.230957,4533.717773,4365.769043,4451.153809,3410.0,2.0,35.0,,,,0.0,4.0,4.0,4.0,4.0,4.0,4.0,4.0,4.0,4.0,4.0,4.0,4.0,4.0,4.0,100.0,,,,,,,,,,,,,,,,,,,,,,,,,,,,,,,,,,,,,,,,,,,,,,,,,,,,,,,,,,,,,,,,,,,,,,,,,,,,,,,,,,,,,,,,,,,,,,,,,,,,,,,,,,,,,,,,,,,,,,,,,,,,,,,,,,,
1725618255.791812,1725618255.793025,205.0,0.0,4249.358887,4235.128418,4284.871582,4279.358887,4208.333496,4214.487305,4207.179688,4219.615234,4219.615234,4201.538574,4525.256348,4528.717773,4364.743652,4448.717773,3889.0,2.0,35.0,,,,0.0,4.0,4.0,4.0,4.0,4.0,4.0,4.0,4.0,4.0,4.0,4.0,4.0,4.0,4.0,100.0,,,,,,,,,,,,,,,,,,,,,,,,,,,,,,,,,,,,,,,,,,,,,,,,,,,,,,,,,,,,,,,,,,,,,,,,,,,,,,,,,,,,,,,,,,,,,,,,,,,,,,,,,,,,,,,,,,,,,,,,,,,,,,,,,,,
1725618255.795716,1725618255.796929,206.0,0.0,4249.487305,4233.846191,4282.179688,4279.358887,4207.05127,4215.897461,4208.846191,4215.897461,4219.102539,4200.384766,4522.820313,4524.871582,4362.820313,4446.922852,2887.0,2.0,35.0,,,,0.0,4.0,4.0,4.0,4.0,4.0,4.0,4.0,4.0,4.0,4.0,4.0,4.0,4.0,4.0,100.0,,,,,,,,,,,,,,,,,,,,,,,,,,,,,,,,,,,,,,,,,,,,,,,,,,,,,,,,,,,,,,,,,,,,,,,,,,,,,,,,,,,,,,,,,,,,,,,,,,,,,,,,,,,,,,,,,,,,,,,,,,,,,,,,,,,
1725618255.79962,1725618255.800933,207.0,0.0,4249.615234,4232.820313,4281.153809,4278.461426,4207.05127,4217.307617,4209.230957,4215.0,4218.205078,4199.743652,4522.820313,4523.205078,4360.641113,4445.641113,3069.0,2.0,35.0,,,,0.0,4.0,4.0,4.0,4.0,4.0,4.0,4.0,4.0,4.0,4.0,4.0,4.0,4.0,4.0,100.0,,,,,,,,,,,,,,,,,,,,,,,,,,,,,,,,,,,,,,,,,,,,,,,,,,,,,,,,,,,,,,,,,,,,,,,,,,,,,,,,,,,,,,,,,,,,,,,,,,,,,,,,,,,,,,,,,,,,,,,,,,,,,,,,,,,
1725618255.803524,1725618255.804837,208.0,0.0,4248.717773,4232.563965,4281.282227,4275.641113,4206.794922,4217.692383,4207.05127,4215.384766,4216.922852,4199.871582,4524.358887,4522.94873,4358.974121,4444.615234,3410.0,2.0,35.0,,,,0.0,4.0,4.0,4.0,4.0,4.0,4.0,4.0,4.0,4.0,4.0,4.0,4.0,4.0,4.0,100.0,,,,,,,,,,,,,,,,,,,,,,,,,,,,,,,,,,,,,,,,,,,,,,,,,,,,,,,,,,,,,,,,,,,,,,,,,,,,,,,,,,,,,,,,,,,,,,,,,,,,,,,,,,,,,,,,,,,,,,,,,,,,,,,,,,,
1725618255.807428,1725618255.808741,209.0,0.0,4247.436035,4232.436035,4281.666504,4271.538574,4205.384766,4216.538574,4203.333496,4215.128418,4215.769043,4200.0,4525.512695,4522.563965,4357.94873,4443.589844,3889.0,2.0,35.0,,,,0.0,4.0,4.0,4.0,4.0,4.0,4.0,4.0,4.0,4.0,4.0,4.0,4.0,4.0,4.0,100.0,,,,,,,,,,,,,,,,,,,,,,,,,,,,,,,,,,,,,,,,,,,,,,,,,,,,,,,,,,,,,,,,,,,,,,,,,,,,,,,,,,,,,,,,,,,,,,,,,,,,,,,,,,,,,,,,,,,,,,,,,,,,,,,,,,,
1725618255.811332,1725618255.812645,210.0,0.0,4246.666504,4231.410156,4281.666504,4267.820313,4202.94873,4214.358887,4199.871582,4214.230957,4215.0,4200.0,4524.358887,4521.666504,4357.692383,4442.820313,2887.0,2.0,35.0,,,,0.0,4.0,4.0,4.0,4.0,4.0,4.0,4.0,4.0,4.0,4.0,4.0,4.0,4.0,4.0,100.0,,,,,,,,,,,,,,,,,,,,,,,,,,,,,,,,,,,,,,,,,,,,,,,,,,,,,,,,0.0,0.0,1.0,0.0,1.0,0.0,,,,,,,,,,,,,,,,,,,,,,,,,,,,,,,,,,,,,,,,,,,,,,,,,,,,,,,,,,,,,,,,,,,,,,
1725618255.815236,1725618255.816549,211.0,0.0,4247.563965,4229.743652,4281.410156,4265.769043,4200.769043,4211.666504,4198.205078,4213.846191,4214.615234,4199.871582,4521.282227,4521.282227,4358.077148,4442.692383,3069.0,2.0,35.0,,,,0.0,4.0,4.0,4.0,4.0,4.0,4.0,4.0,4.0,4.0,4.0,4.0,4.0,4.0,4.0,100.0,,,,,,,,,,,,,,,,,,,,,,,,,,,,,,,,,,,,,,,,,,,,,,,,,,,,,,,,,,,,,,,,,,,,,,,,,,,,,,,,,,,,,,,,,,,,,,,,,,,,,,,,,,,,,,,,,,,,,,,,,,,,,,,,,,,
1725618255.81914,1725618255.820354,212.0,0.0,4249.487305,4228.717773,4280.769043,4265.256348,4199.615234,4208.589844,4198.589844,4214.871582,4214.615234,4199.615234,4518.333496,4521.794922,4358.974121,4442.94873,3410.0,2.0,35.0,,,,0.0,4.0,4.0,4.0,4.0,4.0,4.0,4.0,4.0,4.0,4.0,4.0,4.0,4.0,4.0,100.0,,,,,,,,,,,,,,,,,,,,,,,,,,,,,,,,,,,,,,,,,,,,,,,,,,,,,,,,,,,,,,,,,,,,,,,,,,,,,,,,,,,,,,,,,,,,,,,,,,,,,,,,,,,,,,,,,,,,,,,,,,,,,,,,,,,
1725618255.823044,1725618255.824258,213.0,0.0,4250.641113,4229.230957,4279.871582,4265.512695,4199.358887,4205.128418,4199.615234,4216.410156,4214.871582,4198.717773,4517.692383,4522.692383,4359.615234,4443.461426,3889.0,2.0,35.0,,,,0.0,4.0,4.0,4.0,4.0,4.0,4.0,4.0,4.0,4.0,4.0,4.0,4.0,4.0,4.0,100.0,,,,,,,,,,,,,,,,,,,,,,,,,,,,,,,,,,,,,,,,,,,,,,,,,,,,,,,,,,,,,,,,,,,,,,,,,,,,,,,,,,,,,,,,,,,,,,,,,,,,,,,,,,,,,,,,,,,,,,,,,,,,,,,,,,,
1725618255.826949,1725618255.828162,214.0,0.0,4250.0,4230.897461,4278.974121,4265.512695,4199.615234,4202.179688,4199.871582,4216.794922,4215.128418,4197.563965,4519.358887,4522.692383,4359.102539,4443.846191,2887.0,2.0,35.0,,,,0.0,4.0,4.0,4.0,4.0,4.0,4.0,4.0,4.0,4.0,4.0,4.0,4.0,4.0,4.0,100.0,,,,,,,,,,,,,,,,,,,,,,,,,,,,,,,,,,,,,,,,,,,,,,,,,,,,,,,,,,,,,,,,,,,,,,,,,,,,,,,,,,,,,,,,,,,,,,,,,,,,,,,,,,,,,,,,,,,,,,,,,,,,,,,,,,,
1725618255.830853,1725618255.832066,215.0,0.0,4248.589844,4232.436035,4278.461426,4265.0,4199.871582,4201.282227,4199.230957,4215.641113,4215.512695,4197.05127,4521.794922,4520.897461,4358.077148,4443.589844,3069.0,2.0,35.0,,,,0.0,4.0,4.0,4.0,4.0,4.0,4.0,4.0,4.0,4.0,4.0,4.0,4.0,4.0,4.0,100.0,,,,,,,,,,,,,,,,,,,,,,,,,,,,,,,,,,,,,,,,,,,,,,,,,,,,,,,,,,,,,,,,,,,,,,,,,,,,,,,,,,,,,,,,,,,,,,,,,,,,,,,,,,,,,,,,,,,,,,,,,,,,,,,,,,,
1725618255.834757,1725618255.83587,216.0,0.0,4248.205078,4232.820313,4278.205078,4263.846191,4200.0,4203.077148,4198.333496,4214.102539,4215.641113,4198.077148,4522.94873,4517.179688,4357.692383,4442.820313,3410.0,2.0,35.0,,,,0.0,4.0,4.0,4.0,4.0,4.0,4.0,4.0,4.0,4.0,4.0,4.0,4.0,4.0,4.0,100.0,,,,,,,,,,,,,,,,,,,,,,,,,,,,,,,,,,,,,,,,,,,,,,,,,,,,,,,,,,,,,,,,,,,,,,,,,,,,,,,,,,,,,,,,,,,,,,,,,,,,,,,,,,,,,,,,,,,,,,,,,,,,,,,,,,,
1725618255.838661,1725618255.839774,217.0,0.0,4249.102539,4230.641113,4277.692383,4262.179688,4199.871582,4206.282227,4197.820313,4213.077148,4215.512695,4200.0,4521.794922,4512.179688,4358.974121,4441.410156,3889.0,2.0,35.0,,,,0.0,4.0,4.0,4.0,4.0,4.0,4.0,4.0,4.0,4.0,4.0,4.0,4.0,4.0,4.0,100.0,,,,,,,,,,,,,,,,,,,,,,,,,,,,,,,,,,,,,,,,,,,,,,,,,,,,,,,,,,,,,,,,,,,,,,,,,,,,,,,,,,,,,,,,,,,,,,,,,,,,,,,,,,,,,,,,,,,,,,,,,,,,,,,,,,,
1725618255.842565,1725618255.843678,218.0,0.0,4249.230957,4226.025879,4276.282227,4260.0,4199.102539,4209.230957,4197.563965,4213.846191,4214.615234,4200.384766,4518.333496,4506.922852,4361.282227,4439.615234,2887.0,2.0,35.0,,,,0.0,4.0,4.0,4.0,4.0,4.0,4.0,4.0,4.0,4.0,4.0,4.0,4.0,4.0,4.0,100.0,,,,,,,,,,,,,,,,,,,,,,,,,,,,,,,,,,,,,,,,,,,,,,,,,,,,,,,,0.0,0.0,1.0,0.0,1.0,0.0,,,,,,,,,,,,,,,,,,,,,,,,,,,,,,,,,,,,,,,,,,,,,,,,,,,,,,,,,,,,,,,,,,,,,,
1725618255.846469,1725618255.847582,219.0,0.0,4246.666504,4220.769043,4274.230957,4257.94873,4197.94873,4210.512695,4196.666504,4215.769043,4213.461426,4197.563965,4513.461426,4503.461426,4361.794922,4437.563965,3069.0,2.0,35.0,,,,0.0,4.0,4.0,4.0,4.0,4.0,4.0,4.0,4.0,4.0,4.0,4.0,4.0,4.0,4.0,100.0,,,,,,,,,,,,,,,,,,,,,,,,,,,,,,,,,,,,,,,,,,,,,,,,,,,,,,,,,,,,,,,,,,,,,,,,,,,,,,,,,,,,,,,,,,,,,,,,,,,,,,,,,,,,,,,,,,,,,,,,,,,,,,,,,,,
1725618255.850373,1725618255.851387,220.0,0.0,4241.538574,4217.05127,4272.563965,4256.794922,4197.179688,4210.897461,4195.897461,4217.692383,4212.820313,4192.307617,4508.205078,4503.333496,4358.461426,4436.282227,3410.0,2.0,35.0,,,,0.0,4.0,4.0,4.0,4.0,4.0,4.0,4.0,4.0,4.0,4.0,4.0,4.0,4.0,4.0,100.0,,,,,,,,,,,,,,,,,,,,,,,,,,,,,,,,,,,,,,,,,,,,,,,,,,,,,,,,,,,,,,,,,,,,,,,,,,,,,,,,,,,,,,,,,,,,,,,,,,,,,,,,,,,,,,,,,,,,,,,,,,,,,,,,,,,
1725618255.854277,1725618255.855291,221.0,0.0,4236.410156,4215.641113,4272.307617,4257.307617,4197.436035,4211.666504,4196.025879,4218.461426,4213.205078,4187.692383,4504.871582,4507.179688,4351.922852,4436.666504,3889.0,2.0,35.0,,,,0.0,4.0,4.0,4.0,4.0,4.0,4.0,4.0,4.0,4.0,4.0,4.0,4.0,4.0,4.0,100.0,,,,,,,,,,,,,,,,,,,,,,,,,,,,,,,,,,,,,,,,,,,,,,,,,,,,,,,,,,,,,,,,,,,,,,,,,,,,,,,,,,,,,,,,,,,,,,,,,,,,,,,,,,,,,,,,,,,,,,,,,,,,,,,,,,,
1725618255.858181,1725618255.859195,222.0,0.0,4234.615234,4216.153809,4273.717773,4259.230957,4198.846191,4213.717773,4197.307617,4218.333496,4214.871582,4186.922852,4505.128418,4513.717773,4345.128418,4438.846191,2887.0,2.0,35.0,,,,0.0,4.0,4.0,4.0,4.0,4.0,4.0,4.0,4.0,4.0,4.0,4.0,4.0,4.0,4.0,100.0,,,,,,,,,,,,,,,,,,,,,,,,,,,,,,,,,,,,,,,,,,,,,,,,,,,,,,,,,,,,,,,,,,,,,,,,,,,,,,,,,,,,,,,,,,,,,,,,,,,,,,,,,,,,,,,,,,,,,,,,,,,,,,,,,,,
1725618255.862085,1725618255.863199,223.0,0.0,4237.179688,4217.179688,4275.641113,4261.922852,4200.641113,4216.282227,4198.205078,4218.205078,4217.436035,4190.641113,4509.487305,4520.384766,4341.922852,4441.410156,3069.0,2.0,35.0,,,,0.0,4.0,4.0,4.0,4.0,4.0,4.0,4.0,4.0,4.0,4.0,4.0,4.0,4.0,4.0,100.0,,,,,,,,,,,,,,,,,,,,,,,,,,,,,,,,,,,,,,,,,,,,,,,,,,,,,,,,,,,,,,,,,,,,,,,,,,,,,,,,,,,,,,,,,,,,,,,,,,,,,,,,,,,,,,,,,,,,,,,,,,,,,,,,,,,
1725618255.86599,1725618255.867103,224.0,0.0,4242.179688,4217.94873,4277.05127,4263.717773,4202.179688,4218.333496,4197.563965,4219.102539,4220.0,4196.794922,4515.769043,4524.230957,4343.846191,4442.563965,3410.0,2.0,35.0,,,,0.0,4.0,4.0,4.0,4.0,4.0,4.0,4.0,4.0,4.0,4.0,4.0,4.0,4.0,4.0,100.0,,,,,,,,,,,,,,,,,,,,,,,,,,,,,,,,,,,,,,,,,,,,,,,,,,,,,,,,,,,,,,,,,,,,,,,,,,,,,,,,,,,,,,,,,,,,,,,,,,,,,,,,,,,,,,,,,,,,,,,,,,,,,,,,,,,
1725618255.869894,1725618255.871007,225.0,0.0,4246.794922,4218.974121,4277.436035,4263.589844,4202.692383,4218.461426,4195.641113,4220.256348,4221.538574,4201.538574,4521.025879,4524.230957,4349.743652,4441.666504,3889.0,2.0,35.0,,,,0.0,4.0,4.0,4.0,4.0,4.0,4.0,4.0,4.0,4.0,4.0,4.0,4.0,4.0,4.0,100.0,,,,,,,,,,,,,,,,,,,,,,,,,,,,,,,,,,,,,,,,,,,,,,,,,,,,,,,,,,,,,,,,,,,,,,,,,,,,,,,,,,,,,,,,,,,,,,,,,,,,,,,,,,,,,,,,,,,,,,,,,,,,,,,,,,,
1725618255.873798,1725618255.875011,226.0,0.0,4248.974121,4221.025879,4277.307617,4262.307617,4202.05127,4216.794922,4194.230957,4220.641113,4221.282227,4202.820313,4523.461426,4522.179688,4356.410156,4440.256348,2887.0,2.0,35.0,,,,0.0,4.0,4.0,4.0,4.0,4.0,4.0,4.0,4.0,4.0,4.0,4.0,4.0,4.0,4.0,100.0,,,,,,,,,,,,,,,,,1.0,0.0,0.0,,,,,,,,,,,,,,,,,,,,,,,,,,,,,,,,,,,,,0.0,0.0,1.0,0.0,1.0,0.0,3.127632,1.509426,1.103714,0.211796,0.11024,1.775418,1.219027,0.866945,0.252418,0.124276,3.329266,1.723279,0.920868,0.318945,0.142988,2.760964,1.019423,0.877631,0.1779,0.061387,0.523194,0.72471,0.735725,0.133456,0.154337,0.446735,0.408579,0.426147,0.208291,0.199814,0.581334,0.511592,0.657365,0.167029,0.075858,1.379969,2.346372,0.50385,0.417722,0.172535,1.924687,1.889725,0.877037,0.327343,0.099099,2.50749,1.59648,0.921093,0.506307,0.113348,4.048095,3.308491,1.616001,0.532638,0.263323,6.261086,3.949859,1.024304,0.634613,0.193868,4.671364,2.547469,1.242273,0.4549,0.18927,4.186994,2.180662,1.106903,0.421085,0.133791
1725618255.877702,1725618255.878915,227.0,0.0,4248.077148,4224.487305,4277.436035,4261.794922,4200.769043,4214.615234,4195.128418,4219.358887,4219.743652,4200.897461,4523.333496,4521.153809,4360.641113,4440.128418,3069.0,2.0,35.0,,,,0.0,4.0,4.0,4.0,4.0,4.0,4.0,4.0,4.0,4.0,4.0,4.0,4.0,4.0,4.0,100.0,,,,,,,,,,,,,,,,,,,,,,,,,,,,,,,,,,,,,,,,,,,,,,,,,,,,,,,,,,,,,,,,,,,,,,,,,,,,,,,,,,,,,,,,,,,,,,,,,,,,,,,,,,,,,,,,,,,,,,,,,,,,,,,,,,,
1725618255.881606,1725618255.882819,228.0,0.0,4245.641113,4228.717773,4278.717773,4263.717773,4199.487305,4212.820313,4198.077148,4217.179688,4217.94873,4198.461426,4522.692383,4523.077148,4362.179688,4441.922852,3410.0,2.0,35.0,,,,0.0,4.0,4.0,4.0,4.0,4.0,4.0,4.0,4.0,4.0,4.0,4.0,4.0,4.0,4.0,100.0,,,,,,,,,,,,,,,,,,,,,,,,,,,,,,,,,,,,,,,,,,,,,,,,,,,,,,,,,,,,,,,,,,,,,,,,,,,,,,,,,,,,,,,,,,,,,,,,,,,,,,,,,,,,,,,,,,,,,,,,,,,,,,,,,,,
1725618255.88551,1725618255.886723,229.0,0.0,4244.230957,4232.436035,4280.384766,4267.307617,4199.230957,4212.179688,4201.538574,4215.128418,4216.794922,4197.94873,4523.077148,4527.179688,4362.563965,4444.358887,3889.0,2.0,35.0,,,,0.0,4.0,4.0,4.0,4.0,4.0,4.0,4.0,4.0,4.0,4.0,4.0,4.0,4.0,4.0,100.0,,,,,,,,,,,,,,,,,,,,,,,,,,,,,,,,,,,,,,,,,,,,,,,,,,,,,,,,,,,,,,,,,,,,,,,,,,,,,,,,,,,,,,,,,,,,,,,,,,,,,,,,,,,,,,,,,,,,,,,,,,,,,,,,,,,
1725618255.889414,1725618255.890727,230.0,0.0,4245.512695,4235.0,4281.666504,4270.897461,4200.128418,4212.820313,4203.077148,4213.974121,4216.538574,4199.871582,4524.487305,4530.897461,4363.461426,4446.282227,2887.0,2.0,35.0,,,,0.0,4.0,4.0,4.0,4.0,4.0,4.0,4.0,4.0,4.0,4.0,4.0,4.0,4.0,4.0,100.0,,,,,,,,,,,,,,,,,,,,,,,,,,,,,,,,,,,,,,,,,,,,,,,,,,,,,,,,,,,,,,,,,,,,,,,,,,,,,,,,,,,,,,,,,,,,,,,,,,,,,,,,,,,,,,,,,,,,,,,,,,,,,,,,,,,
1725618255.893318,1725618255.894631,231.0,0.0,4249.102539,4236.025879,4282.307617,4273.333496,4201.666504,4213.589844,4201.410156,4213.717773,4216.922852,4202.179688,4525.897461,4531.794922,4364.871582,4447.307617,3069.0,2.0,35.0,,,,0.0,4.0,4.0,4.0,4.0,4.0,4.0,4.0,4.0,4.0,4.0,4.0,4.0,4.0,4.0,100.0,,,,,,,,,,,,,,,,,,,,,,,,,,,,,,,,,,,,,,,,,,,,,,,,,,,,,,,,,,,,,,,,,,,,,,,,,,,,,,,,,,,,,,,,,,,,,,,,,,,,,,,,,,,,,,,,,,,,,,,,,,,,,,,,,,,
1725618255.897222,1725618255.898536,232.0,0.0,4253.077148,4235.897461,4283.846191,4274.871582,4203.077148,4213.717773,4196.282227,4213.717773,4217.179688,4203.077148,4526.410156,4529.230957,4365.897461,4448.205078,3410.0,2.0,35.0,,,,0.0,4.0,4.0,4.0,4.0,4.0,4.0,4.0,4.0,4.0,4.0,4.0,4.0,4.0,4.0,100.0,,,,,,,,,,,,,,,,,,,,,,,,,,,,,,,,,,,,,,,,,,,,,,,,,,,,,,,,,,,,,,,,,,,,,,,,,,,,,,,,,,,,,,,,,,,,,,,,,,,,,,,,,,,,,,,,,,,,,,,,,,,,,,,,,,,
1725618255.901127,1725618255.90244,233.0,0.0,4255.641113,4235.0,4287.05127,4276.410156,4203.461426,4212.820313,4188.974121,4213.846191,4217.05127,4201.666504,4525.769043,4525.384766,4365.897461,4450.256348,3889.0,2.0,35.0,,,,0.0,4.0,4.0,4.0,4.0,4.0,4.0,4.0,4.0,4.0,4.0,4.0,4.0,4.0,4.0,100.0,,,,,,,,,,,,,,,,,,,,,,,,,,,,,,,,,,,,,,,,,,,,,,,,,,,,,,,,,,,,,,,,,,,,,,,,,,,,,,,,,,,,,,,,,,,,,,,,,,,,,,,,,,,,,,,,,,,,,,,,,,,,,,,,,,,
1725618255.905031,1725618255.906444,234.0,0.0,4256.410156,4234.102539,4291.282227,4277.94873,4203.077148,4211.922852,4180.769043,4214.358887,4216.538574,4199.230957,4524.743652,4523.461426,4365.512695,4453.205078,2887.0,2.0,35.0,,,,0.0,4.0,4.0,4.0,4.0,4.0,4.0,4.0,4.0,4.0,4.0,4.0,4.0,4.0,4.0,100.0,,,,,,,,,,,,,,,,,,,,,,,,,,,,,,,,,,,,,,,,,,,,,,,,,,,,,,,,0.0,0.0,1.0,0.0,1.0,0.0,,,,,,,,,,,,,,,,,,,,,,,,,,,,,,,,,,,,,,,,,,,,,,,,,,,,,,,,,,,,,,,,,,,,,,
1725618255.908935,1725618255.910348,235.0,0.0,4256.025879,4233.589844,4294.615234,4278.461426,4202.05127,4212.179688,4172.436035,4215.512695,4216.538574,4198.077148,4524.230957,4524.743652,4365.384766,4455.512695,3069.0,2.0,35.0,,,,0.0,4.0,4.0,4.0,4.0,4.0,4.0,4.0,4.0,4.0,4.0,4.0,4.0,4.0,4.0,100.0,,,,,,,,,,,,,,,,,,,,,,,,,,,,,,,,,,,,,,,,,,,,,,,,,,,,,,,,,,,,,,,,,,,,,,,,,,,,,,,,,,,,,,,,,,,,,,,,,,,,,,,,,,,,,,,,,,,,,,,,,,,,,,,,,,,
1725618255.912839,1725618255.914252,236.0,0.0,4254.487305,4233.589844,4294.871582,4276.794922,4201.025879,4213.333496,4163.205078,4217.307617,4216.922852,4198.974121,4524.487305,4527.563965,4365.769043,4455.384766,3410.0,2.0,35.0,,,,0.0,4.0,4.0,4.0,4.0,4.0,4.0,4.0,4.0,4.0,4.0,4.0,4.0,4.0,4.0,100.0,,,,,,,,,,,,,,,,,,,,,,,,,,,,,,,,,,,,,,,,,,,,,,,,,,,,,,,,,,,,,,,,,,,,,,,,,,,,,,,,,,,,,,,,,,,,,,,,,,,,,,,,,,,,,,,,,,,,,,,,,,,,,,,,,,,
1725618255.916743,1725618255.918156,237.0,0.0,4251.666504,4233.205078,4291.410156,4272.94873,4200.641113,4214.358887,4152.307617,4219.358887,4217.563965,4201.153809,4525.0,4528.846191,4365.641113,4452.436035,3889.0,2.0,35.0,,,,0.0,4.0,4.0,4.0,4.0,4.0,4.0,4.0,4.0,4.0,4.0,4.0,4.0,4.0,4.0,100.0,,,,,,,,,,,,,,,,,,,,,,,,,,,,,,,,,,,,,,,,,,,,,,,,,,,,,,,,,,,,,,,,,,,,,,,,,,,,,,,,,,,,,,,,,,,,,,,,,,,,,,,,,,,,,,,,,,,,,,,,,,,,,,,,,,,
1725618255.920647,1725618255.92206,238.0,0.0,4248.461426,4231.666504,4285.512695,4268.205078,4200.641113,4214.230957,4139.871582,4220.769043,4217.94873,4203.205078,4524.871582,4527.179688,4364.102539,4448.077148,2887.0,2.0,35.0,,,,0.0,4.0,4.0,4.0,4.0,4.0,4.0,4.0,4.0,4.0,4.0,4.0,4.0,4.0,4.0,100.0,,,,,,,,,,,,,,,,,,,,,,,,,,,,,,,,,,,,,,,,,,,,,,,,,,,,,,,,,,,,,,,,,,,,,,,,,,,,,,,,,,,,,,,,,,,,,,,,,,,,,,,,,,,,,,,,,,,,,,,,,,,,,,,,,,,
1725618255.924551,1725618255.925864,239.0,0.0,4246.538574,4228.717773,4280.0,4264.743652,4200.512695,4213.077148,4127.05127,4221.282227,4218.205078,4203.717773,4523.974121,4524.358887,4361.282227,4444.487305,3069.0,2.0,35.0,,,,0.0,4.0,4.0,4.0,4.0,4.0,4.0,4.0,4.0,4.0,4.0,4.0,4.0,4.0,4.0,100.0,,,,,,,,,,,,,,,,,,,,,,,,,,,,,,,,,,,,,,,,,,,,,,,,,,,,,,,,,,,,,,,,,,,,,,,,,,,,,,,,,,,,,,,,,,,,,,,,,,,,,,,,,,,,,,,,,,,,,,,,,,,,,,,,,,,
1725618255.928455,1725618255.929768,240.0,0.0,4246.153809,4224.871582,4277.307617,4263.461426,4199.871582,4211.666504,4115.256348,4221.282227,4217.94873,4202.692383,4523.205078,4522.692383,4358.846191,4442.94873,3410.0,2.0,35.0,,,,0.0,4.0,4.0,4.0,4.0,4.0,4.0,4.0,4.0,4.0,4.0,4.0,4.0,4.0,4.0,100.0,,,,,,,,,,,,,,,,,,,,,,,,,,,,,,,,,,,,,,,,,,,,,,,,,,,,,,,,,,,,,,,,,,,,,,,,,,,,,,,,,,,,,,,,,,,,,,,,,,,,,,,,,,,,,,,,,,,,,,,,,,,,,,,,,,,
1725618255.932359,1725618255.933672,241.0,0.0,4246.922852,4221.025879,4277.179688,4264.230957,4199.230957,4211.025879,4105.128418,4220.384766,4217.692383,4201.025879,4522.820313,4522.94873,4357.94873,4443.461426,3889.0,2.0,35.0,,,,0.0,4.0,4.0,4.0,4.0,4.0,4.0,4.0,4.0,4.0,4.0,4.0,4.0,4.0,4.0,100.0,,,,,,,,,,,,,,,,,,,,,,,,,,,,,,,,,,,,,,,,,,,,,,,,,,,,,,,,,,,,,,,,,,,,,,,,,,,,,,,,,,,,,,,,,,,,,,,,,,,,,,,,,,,,,,,,,,,,,,,,,,,,,,,,,,,
1725618255.936263,1725618255.937577,242.0,0.0,4247.436035,4218.205078,4277.820313,4265.512695,4198.589844,4211.538574,4096.794922,4219.102539,4217.436035,4199.615234,4522.436035,4523.461426,4358.717773,4444.230957,2887.0,2.0,35.0,,,,0.0,4.0,4.0,4.0,4.0,4.0,4.0,4.0,4.0,4.0,4.0,4.0,4.0,4.0,4.0,100.0,,,,,,,,,,,,,,,,,,,,,,,,,,,,,,,,,,,,,,,,,,,,,,,,,,,,,,,,0.0,0.0,1.0,0.0,1.0,0.0,,,,,,,,,,,,,,,,,,,,,,,,,,,,,,,,,,,,,,,,,,,,,,,,,,,,,,,,,,,,,,,,,,,,,,
1725618255.940168,1725618255.941381,243.0,0.0,4247.436035,4217.563965,4277.563965,4265.512695,4198.461426,4213.333496,4089.871826,4217.820313,4217.436035,4199.230957,4521.410156,4522.563965,4359.487305,4443.974121,3069.0,2.0,35.0,,,,0.0,4.0,4.0,4.0,4.0,4.0,4.0,4.0,4.0,4.0,4.0,4.0,4.0,4.0,4.0,100.0,,,,,,,,,,,,,,,,,,,,,,,,,,,,,,,,,,,,,,,,,,,,,,,,,,,,,,,,,,,,,,,,,,,,,,,,,,,,,,,,,,,,,,,,,,,,,,,,,,,,,,,,,,,,,,,,,,,,,,,,,,,,,,,,,,,
1725618255.944072,1725618255.945285,244.0,0.0,4247.05127,4218.846191,4276.282227,4264.230957,4198.589844,4215.641113,4084.230713,4217.05127,4217.692383,4199.871582,4520.256348,4519.871582,4359.615234,4442.436035,3410.0,2.0,35.0,,,,0.0,4.0,4.0,4.0,4.0,4.0,4.0,4.0,4.0,4.0,4.0,4.0,4.0,4.0,4.0,100.0,,,,,,,,,,,,,,,,,,,,,,,,,,,,,,,,,,,,,,,,,,,,,,,,,,,,,,,,,,,,,,,,,,,,,,,,,,,,,,,,,,,,,,,,,,,,,,,,,,,,,,,,,,,,,,,,,,,,,,,,,,,,,,,,,,,
1725618255.947976,1725618255.949189,245.0,0.0,4246.153809,4220.128418,4275.0,4262.692383,4198.589844,4217.436035,4079.102539,4217.179688,4218.077148,4200.897461,4519.743652,4516.282227,4359.358887,4440.512695,3889.0,2.0,35.0,,,,0.0,4.0,4.0,4.0,4.0,4.0,4.0,4.0,4.0,4.0,4.0,4.0,4.0,4.0,4.0,100.0,,,,,,,,,,,,,,,,,,,,,,,,,,,,,,,,,,,,,,,,,,,,,,,,,,,,,,,,,,,,,,,,,,,,,,,,,,,,,,,,,,,,,,,,,,,,,,,,,,,,,,,,,,,,,,,,,,,,,,,,,,,,,,,,,,,
1725618255.95188,1725618255.953093,246.0,0.0,4244.871582,4220.256348,4273.974121,4262.05127,4198.589844,4217.692383,4073.846191,4217.692383,4218.333496,4201.410156,4520.256348,4513.589844,4359.615234,4439.358887,2887.0,2.0,35.0,,,,0.0,4.0,4.0,4.0,4.0,4.0,4.0,4.0,4.0,4.0,4.0,4.0,4.0,4.0,4.0,100.0,,,,,,,,,,,,,,,,,,,,,,,,,,,,,,,,,,,,,,,,,,,,,,,,,,,,,,,,,,,,,,,,,,,,,,,,,,,,,,,,,,,,,,,,,,,,,,,,,,,,,,,,,,,,,,,,,,,,,,,,,,,,,,,,,,,
1725618255.955784,1725618255.956897,247.0,0.0,4243.205078,4219.102539,4273.461426,4262.563965,4198.846191,4216.282227,4068.076904,4217.436035,4218.333496,4201.153809,4520.769043,4513.589844,4361.153809,4439.358887,3069.0,2.0,35.0,,,,0.0,4.0,4.0,4.0,4.0,4.0,4.0,4.0,4.0,4.0,4.0,4.0,4.0,4.0,4.0,100.0,,,,,,,,,,,,,,,,,,,,,,,,,,,,,,,,,,,,,,,,,,,,,,,,,,,,,,,,,,,,,,,,,,,,,,,,,,,,,,,,,,,,,,,,,,,,,,,,,,,,,,,,,,,,,,,,,,,,,,,,,,,,,,,,,,,
1725618255.959688,1725618255.960801,248.0,0.0,4242.307617,4218.461426,4273.205078,4263.589844,4199.358887,4214.102539,4061.281982,4215.512695,4217.563965,4200.384766,4520.641113,4516.282227,4363.846191,4440.512695,3410.0,2.0,35.0,,,,0.0,4.0,4.0,4.0,4.0,4.0,4.0,4.0,4.0,4.0,4.0,4.0,4.0,4.0,4.0,100.0,,,,,,,,,,,,,,,,,,,,,,,,,,,,,,,,,,,,,,,,,,,,,,,,,,,,,,,,,,,,,,,,,,,,,,,,,,,,,,,,,,,,,,,,,,,,,,,,,,,,,,,,,,,,,,,,,,,,,,,,,,,,,,,,,,,
1725618255.963592,1725618255.964706,249.0,0.0,4243.077148,4219.871582,4273.077148,4263.974121,4199.615234,4213.077148,4054.102539,4212.94873,4216.153809,4200.512695,4519.871582,4519.871582,4366.922852,4442.179688,3889.0,2.0,35.0,,,,0.0,4.0,4.0,4.0,4.0,4.0,4.0,4.0,4.0,4.0,4.0,4.0,4.0,4.0,4.0,100.0,,,,,,,,,,,,,,,,,,,,,,,,,,,,,,,,,,,,,,,,,,,,,,,,,,,,,,,,,,,,,,,,,,,,,,,,,,,,,,,,,,,,,,,,,,,,,,,,,,,,,,,,,,,,,,,,,,,,,,,,,,,,,,,,,,,
1725618255.967496,1725618255.96851,250.0,0.0,4245.0,4223.077148,4273.461426,4263.717773,4199.615234,4214.230957,4047.435791,4211.794922,4215.256348,4201.922852,4519.871582,4521.666504,4369.487305,4444.358887,2887.0,2.0,35.0,,,,0.0,4.0,4.0,4.0,4.0,4.0,4.0,4.0,4.0,4.0,4.0,4.0,4.0,4.0,4.0,100.0,,,,,,,,,,,,,,,,,,,,,,,,,,,,,,,,,,,,,,,,,,,,,,,,,,,,,,,,0.0,0.0,1.0,0.0,1.0,0.0,,,,,,,,,,,,,,,,,,,,,,,,,,,,,,,,,,,,,,,,,,,,,,,,,,,,,,,,,,,,,,,,,,,,,,
1725618255.9714,1725618255.972414,251.0,0.0,4245.897461,4225.769043,4274.358887,4263.717773,4199.743652,4216.282227,4042.94873,4213.333496,4215.769043,4203.974121,4521.025879,4520.256348,4371.153809,4446.153809,3069.0,2.0,35.0,,,,0.0,4.0,4.0,4.0,4.0,4.0,4.0,4.0,4.0,4.0,4.0,4.0,4.0,4.0,4.0,100.0,,,,,,,,,,,,,,,,,,,,,,,,,,,,,,,,,,,,,,,,,,,,,,,,,,,,,,,,,,,,,,,,,,,,,,,,,,,,,,,,,,,,,,,,,,,,,,,,,,,,,,,,,,,,,,,,,,,,,,,,,,,,,,,,,,,
1725618255.975304,1725618255.976318,252.0,0.0,4243.974121,4225.769043,4274.743652,4264.487305,4200.256348,4216.794922,4040.512939,4216.538574,4217.307617,4205.384766,4522.436035,4516.282227,4371.410156,4446.666504,3410.0,2.0,35.0,,,,0.0,4.0,4.0,4.0,4.0,4.0,4.0,4.0,4.0,4.0,4.0,4.0,4.0,4.0,4.0,100.0,,,,,,,,,,,,,,,,,,,,,,,,,,,,,,,,,,,,,,,,,,,,,,,,,,,,,,,,,,,,,,,,,,,,,,,,,,,,,,,,,,,,,,,,,,,,,,,,,,,,,,,,,,,,,,,,,,,,,,,,,,,,,,,,,,,
1725618255.979209,1725618255.980322,253.0,0.0,4239.615234,4222.820313,4273.846191,4265.256348,4200.512695,4214.230957,4038.974365,4217.563965,4217.94873,4204.615234,4521.922852,4511.282227,4369.615234,4444.487305,3889.0,2.0,35.0,,,,0.0,4.0,4.0,4.0,4.0,4.0,4.0,4.0,4.0,4.0,4.0,4.0,4.0,4.0,4.0,100.0,,,,,,,,,,,,,,,,,,,,,,,,,,,,,,,,,,,,,,,,,,,,,,,,,,,,,,,,,,,,,,,,,,,,,,,,,,,,,,,,,,,,,,,,,,,,,,,,,,,,,,,,,,,,,,,,,,,,,,,,,,,,,,,,,,,
1725618255.983113,1725618255.984226,254.0,0.0,4234.871582,4219.230957,4270.769043,4264.615234,4199.487305,4209.358887,4036.538574,4214.230957,4215.384766,4201.922852,4518.077148,4506.922852,4364.615234,4439.487305,2887.0,2.0,35.0,,,,0.0,4.0,4.0,4.0,4.0,4.0,4.0,4.0,4.0,4.0,4.0,4.0,4.0,4.0,4.0,100.0,,,,,,,,,,,,,,,,,,,,,,,,,,,,,,,,,,,,,,,,,,,,,,,,,,,,,,,,,,,,,,,,,,,,,,,,,,,,,,,,,,,,,,,,,,,,,,,,,,,,,,,,,,,,,,,,,,,,,,,,,,,,,,,,,,,
1725618255.987017,1725618255.98813,255.0,0.0,4231.794922,4217.179688,4266.282227,4261.922852,4196.282227,4204.487305,4032.179443,4207.307617,4210.0,4198.461426,4511.922852,4504.102539,4357.179688,4432.820313,35.0,2.0,35.0,,,,0.0,4.0,4.0,4.0,4.0,4.0,4.0,4.0,4.0,4.0,4.0,4.0,4.0,4.0,4.0,100.0,,,,,,,,,,,,,,,,,,,,,,,,,,,,,,,,,,,,,,,,,,,,,,,,,,,,,,,,,,,,,,,,,,,,,,,,,,,,,,,,,,,,,,,,,,,,,,,,,,,,,,,,,,,,,,,,,,,,,,,,,,,,,,,,,,,
1725618255.990921,1725618255.992034,0.0,0.0,4231.025879,4216.922852,4261.922852,4257.436035,4191.794922,4201.922852,4026.153809,4200.897461,4204.743652,4195.769043,4505.897461,4502.820313,4350.384766,4426.025879,2621.0,2.0,35.0,,,,0.0,4.0,4.0,4.0,4.0,4.0,4.0,4.0,4.0,4.0,4.0,4.0,4.0,4.0,4.0,100.0,,,,,,,,,,,,,,,,,,,,,,,,,,,,,,,,,,,,,,,,,,,,,,,,,,,,,,,,,,,,,,,,,,,,,,,,,,,,,,,,,,,,,,,,,,,,,,,,,,,,,,,,,,,,,,,,,,,,,,,,,,,,,,,,,,,
1725618255.994825,1725618255.996038,1.0,0.0,4231.282227,4216.538574,4259.230957,4253.077148,4187.692383,4203.077148,4020.0,4199.487305,4203.333496,4195.128418,4502.820313,4502.307617,4347.820313,4421.025879,2570.0,2.0,35.0,,,,0.0,4.0,4.0,4.0,4.0,4.0,4.0,4.0,4.0,4.0,4.0,4.0,4.0,4.0,4.0,100.0,,,,,,,,,,,,,,,,,,,,,,,,,,,,,,,,,,,,,,,,,,,,,,,,,,,,,,,,,,,,,,,,,,,,,,,,,,,,,,,,,,,,,,,,,,,,,,,,,,,,,,,,,,,,,,,,,,,,,,,,,,,,,,,,,,,
1725618255.998729,1725618255.999942,2.0,0.0,4230.256348,4213.717773,4258.974121,4250.256348,4185.897461,4207.05127,4015.128174,4204.358887,4206.922852,4196.282227,4503.589844,4502.820313,4350.384766,4418.333496,2449.0,2.0,35.0,,,,0.0,4.0,4.0,4.0,4.0,4.0,4.0,4.0,4.0,4.0,4.0,4.0,4.0,4.0,4.0,100.0,,,,,,,,,,,,,,,,,1.0,0.0,0.0,,,,,,,,,,,,,,,,,,,,,,,,,,,,,,,,,,,,,0.0,0.0,1.0,0.0,1.0,0.0,3.632533,1.660438,1.235932,0.242232,0.105064,1.953601,1.31466,1.033569,0.26266,0.133739,3.749644,1.94607,1.1125,0.338287,0.138789,2.883955,1.03737,1.030955,0.213972,0.065913,0.626468,0.830317,0.930211,0.154016,0.149294,0.449145,0.416333,0.422984,0.207863,0.198119,0.623424,0.551327,0.821607,0.210346,0.081566,1.414656,2.07901,0.476253,0.437933,0.192771,2.07811,2.086547,0.997594,0.327042,0.085734,2.761954,1.805691,0.949664,0.599641,0.128381,4.67027,3.57913,1.737307,0.591996,0.251784,6.976413,4.300969,1.145907,0.693684,0.19517,5.308693,2.806473,1.255445,0.510613,0.191951,4.932828,2.570387,1.221769,0.46542,0.134468
1725618256.002633,1725618256.003846,3.0,0.0,4226.410156,4207.94873,4260.769043,4249.230957,4186.282227,4211.025879,4011.794922,4212.563965,4213.077148,4198.205078,4506.538574,4504.487305,4354.743652,4417.692383,2461.0,2.0,35.0,,,,0.0,4.0,4.0,4.0,4.0,4.0,4.0,4.0,4.0,4.0,4.0,4.0,4.0,4.0,4.0,100.0,,,,,,,,,,,,,,,,,,,,,,,,,,,,,,,,,,,,,,,,,,,,,,,,,,,,,,,,,,,,,,,,,,,,,,,,,,,,,,,,,,,,,,,,,,,,,,,,,,,,,,,,,,,,,,,,,,,,,,,,,,,,,,,,,,,
1725618256.006538,1725618256.007751,4.0,0.0,4219.871582,4201.666504,4263.077148,4249.102539,4187.436035,4212.307617,4009.487061,4219.230957,4217.563965,4199.230957,4509.487305,4506.282227,4356.153809,4417.563965,2419.0,2.0,35.0,,,,0.0,4.0,4.0,4.0,4.0,4.0,4.0,4.0,4.0,4.0,4.0,4.0,4.0,4.0,4.0,100.0,,,,,,,,,,,,,,,,,,,,,,,,,,,,,,,,,,,,,,,,,,,,,,,,,,,,,,,,,,,,,,,,,,,,,,,,,,,,,,,,,,,,,,,,,,,,,,,,,,,,,,,,,,,,,,,,,,,,,,,,,,,,,,,,,,,
1725618256.010442,1725618256.011755,5.0,0.0,4213.589844,4198.333496,4264.102539,4248.846191,4187.563965,4210.0,4007.564209,4220.641113,4217.307617,4198.846191,4510.512695,4506.666504,4352.94873,4416.282227,2399.0,2.0,35.0,,,,0.0,4.0,4.0,4.0,4.0,4.0,4.0,4.0,4.0,4.0,4.0,4.0,4.0,4.0,4.0,100.0,,,,,,,,,,,,,,,,,,,,,,,,,,,,,,,,,,,,,,,,,,,,,,,,,,,,,,,,,,,,,,,,,,,,,,,,,,,,,,,,,,,,,,,,,,,,,,,,,,,,,,,,,,,,,,,,,,,,,,,,,,,,,,,,,,,
1725618256.014346,1725618256.015659,6.0,0.0,4210.641113,4200.384766,4262.94873,4248.589844,4186.538574,4206.282227,4005.897461,4217.563965,4212.94873,4197.94873,4509.230957,4505.128418,4347.436035,4413.846191,2184.0,2.0,35.0,,,,0.0,4.0,4.0,4.0,4.0,4.0,4.0,4.0,4.0,4.0,4.0,4.0,4.0,4.0,4.0,100.0,,,,,,,,,,,,,,,,,,,,,,,,,,,,,,,,,,,,,,,,,,,,,,,,,,,,,,,,,,,,,,,,,,,,,,,,,,,,,,,,,,,,,,,,,,,,,,,,,,,,,,,,,,,,,,,,,,,,,,,,,,,,,,,,,,,
1725618256.01825,1725618256.019563,7.0,0.0,4212.436035,4206.538574,4260.769043,4249.487305,4185.897461,4203.974121,4004.615479,4213.461426,4207.94873,4197.94873,4506.025879,4503.205078,4343.846191,4411.794922,2484.0,2.0,35.0,,,,0.0,4.0,4.0,4.0,4.0,4.0,4.0,4.0,4.0,4.0,4.0,4.0,4.0,4.0,4.0,100.0,,,,,,,,,,,,,,,,,,,,,,,,,,,,,,,,,,,,,,,,,,,,,,,,,,,,,,,,,,,,,,,,,,,,,,,,,,,,,,,,,,,,,,,,,,,,,,,,,,,,,,,,,,,,,,,,,,,,,,,,,,,,,,,,,,,
1725618256.022154,1725618256.023467,8.0,0.0,4217.563965,4213.077148,4259.358887,4252.179688,4187.436035,4205.128418,4003.846191,4211.666504,4206.153809,4198.717773,4502.692383,4502.94873,4344.871582,4412.563965,2473.0,2.0,35.0,,,,0.0,4.0,4.0,4.0,4.0,4.0,4.0,4.0,4.0,4.0,4.0,4.0,4.0,4.0,4.0,100.0,,,,,,,,,,,,,,,,,,,,,,,,,,,,,,,,,,,,,,,,,,,,,,,,,,,,,,,,,,,,,,,,,,,,,,,,,,,,,,,,,,,,,,,,,,,,,,,,,,,,,,,,,,,,,,,,,,,,,,,,,,,,,,,,,,,
1725618256.026058,1725618256.027371,9.0,0.0,4223.589844,4216.153809,4260.384766,4256.153809,4191.282227,4208.717773,4003.205078,4212.94873,4208.461426,4199.358887,4501.153809,4505.897461,4349.358887,4417.563965,2555.0,2.0,35.0,,,,0.0,4.0,4.0,4.0,4.0,4.0,4.0,4.0,4.0,4.0,4.0,4.0,4.0,4.0,4.0,100.0,,,,,,,,,,,,,,,,,,,,,,,,,,,,,,,,,,,,,,,,,,,,,,,,,,,,,,,,,,,,,,,,,,,,,,,,,,,,,,,,,,,,,,,,,,,,,,,,,,,,,,,,,,,,,,,,,,,,,,,,,,,,,,,,,,,
1725618256.029962,1725618256.031175,10.0,0.0,4228.974121,4215.641113,4264.102539,4260.0,4196.282227,4212.94873,4002.564209,4216.153809,4213.333496,4199.487305,4503.077148,4511.794922,4354.743652,4425.769043,2889.0,2.0,35.0,,,,0.0,4.0,4.0,4.0,4.0,4.0,4.0,4.0,4.0,4.0,4.0,4.0,4.0,4.0,4.0,100.0,,,,,,,,,,,,,,,,,,,,,,,,,,,,,,,,,,,,,,,,,,,,,,,,,,,,,,,,0.0,0.0,1.0,0.0,1.0,0.0,,,,,,,,,,,,,,,,,,,,,,,,,,,,,,,,,,,,,,,,,,,,,,,,,,,,,,,,,,,,,,,,,,,,,,
1725618256.033866,1725618256.035079,11.0,0.0,4233.717773,4214.871582,4269.615234,4262.94873,4200.128418,4216.025879,4002.179443,4218.846191,4217.436035,4199.871582,4508.846191,4518.846191,4358.461426,4435.0,3067.0,2.0,35.0,,,,0.0,4.0,4.0,4.0,4.0,4.0,4.0,4.0,4.0,4.0,4.0,4.0,4.0,4.0,4.0,100.0,,,,,,,,,,,,,,,,,,,,,,,,,,,,,,,,,,,,,,,,,,,,,,,,,,,,,,,,,,,,,,,,,,,,,,,,,,,,,,,,,,,,,,,,,,,,,,,,,,,,,,,,,,,,,,,,,,,,,,,,,,,,,,,,,,,
1725618256.03777,1725618256.038983,12.0,0.0,4238.333496,4216.794922,4275.897461,4264.871582,4201.666504,4217.179688,4002.692383,4220.0,4218.974121,4202.436035,4517.179688,4524.230957,4360.384766,4442.563965,3421.0,2.0,35.0,,,,0.0,4.0,4.0,4.0,4.0,4.0,4.0,4.0,4.0,4.0,4.0,4.0,4.0,4.0,4.0,100.0,,,,,,,,,,,,,,,,,,,,,,,,,,,,,,,,,,,,,,,,,,,,,,,,,,,,,,,,,,,,,,,,,,,,,,,,,,,,,,,,,,,,,,,,,,,,,,,,,,,,,,,,,,,,,,,,,,,,,,,,,,,,,,,,,,,
1725618256.041675,1725618256.042887,13.0,0.0,4242.94873,4221.922852,4281.410156,4266.922852,4201.153809,4216.794922,4003.846191,4219.743652,4218.461426,4207.307617,4525.256348,4526.282227,4361.666504,4446.794922,3889.0,2.0,35.0,,,,0.0,4.0,4.0,4.0,4.0,4.0,4.0,4.0,4.0,4.0,4.0,4.0,4.0,4.0,4.0,100.0,,,,,,,,,,,,,,,,,,,,,,,,,,,,,,,,,,,,,,,,,,,,,,,,,,,,,,,,,,,,,,,,,,,,,,,,,,,,,,,,,,,,,,,,,,,,,,,,,,,,,,,,,,,,,,,,,,,,,,,,,,,,,,,,,,,
1725618256.045579,1725618256.046692,14.0,0.0,4246.538574,4228.077148,4284.615234,4269.871582,4200.384766,4215.512695,4005.128174,4218.717773,4217.179688,4212.563965,4529.871582,4525.512695,4363.589844,4447.94873,2889.0,2.0,35.0,,,,0.0,4.0,4.0,4.0,4.0,4.0,4.0,4.0,4.0,4.0,4.0,4.0,4.0,4.0,4.0,100.0,,,,,,,,,,,,,,,,,,,,,,,,,,,,,,,,,,,,,,,,,,,,,,,,,,,,,,,,,,,,,,,,,,,,,,,,,,,,,,,,,,,,,,,,,,,,,,,,,,,,,,,,,,,,,,,,,,,,,,,,,,,,,,,,,,,
1725618256.049483,1725618256.050596,15.0,0.0,4248.717773,4232.436035,4284.487305,4273.717773,4200.512695,4214.358887,4005.0,4217.820313,4216.666504,4215.0,4529.871582,4523.846191,4366.025879,4447.307617,3067.0,2.0,35.0,,,,0.0,4.0,4.0,4.0,4.0,4.0,4.0,4.0,4.0,4.0,4.0,4.0,4.0,4.0,4.0,100.0,,,,,,,,,,,,,,,,,,,,,,,,,,,,,,,,,,,,,,,,,,,,,,,,,,,,,,,,,,,,,,,,,,,,,,,,,,,,,,,,,,,,,,,,,,,,,,,,,,,,,,,,,,,,,,,,,,,,,,,,,,,,,,,,,,,
1725618256.053387,1725618256.0545,16.0,0.0,4249.358887,4233.589844,4282.307617,4277.05127,4201.410156,4214.102539,4002.820557,4216.538574,4216.794922,4212.820313,4526.282227,4523.077148,4368.077148,4446.538574,3421.0,2.0,35.0,,,,0.0,4.0,4.0,4.0,4.0,4.0,4.0,4.0,4.0,4.0,4.0,4.0,4.0,4.0,4.0,100.0,,,,,,,,,,,,,,,,,,,,,,,,,,,,,,,,,,,,,,,,,,,,,,,,,,,,,,,,,,,,,,,,,,,,,,,,,,,,,,,,,,,,,,,,,,,,,,,,,,,,,,,,,,,,,,,,,,,,,,,,,,,,,,,,,,,
1725618256.057291,1725618256.058404,17.0,0.0,4249.230957,4232.692383,4280.512695,4278.589844,4202.179688,4215.128418,3999.615479,4215.128418,4216.922852,4207.179688,4522.179688,4523.461426,4368.589844,4446.538574,3889.0,2.0,35.0,,,,0.0,4.0,4.0,4.0,4.0,4.0,4.0,4.0,4.0,4.0,4.0,4.0,4.0,4.0,4.0,100.0,,,,,,,,,,,,,,,,,,,,,,,,,,,,,,,,,,,,,,,,,,,,,,,,,,,,,,,,,,,,,,,,,,,,,,,,,,,,,,,,,,,,,,,,,,,,,,,,,,,,,,,,,,,,,,,,,,,,,,,,,,,,,,,,,,,
1725618256.061195,1725618256.062208,18.0,0.0,4248.974121,4231.410156,4280.897461,4278.461426,4202.05127,4217.05127,3997.564209,4213.974121,4217.179688,4201.666504,4520.0,4524.487305,4367.179688,4446.922852,2889.0,2.0,35.0,,,,0.0,4.0,4.0,4.0,4.0,4.0,4.0,4.0,4.0,4.0,4.0,4.0,4.0,4.0,4.0,100.0,,,,,,,,,,,,,,,,,,,,,,,,,,,,,,,,,,,,,,,,,,,,,,,,,,,,,,,,0.0,0.0,1.0,0.0,1.0,0.0,,,,,,,,,,,,,,,,,,,,,,,,,,,,,,,,,,,,,,,,,,,,,,,,,,,,,,,,,,,,,,,,,,,,,,
1725618256.065099,1725618256.066112,19.0,0.0,4249.230957,4231.153809,4283.846191,4278.077148,4201.666504,4218.461426,3997.820557,4213.846191,4217.563965,4199.487305,4520.256348,4525.512695,4365.128418,4447.05127,3067.0,2.0,35.0,,,,0.0,4.0,4.0,4.0,4.0,4.0,4.0,4.0,4.0,4.0,4.0,4.0,4.0,4.0,4.0,100.0,,,,,,,,,,,,,,,,,,,,,,,,,,,,,,,,,,,,,,,,,,,,,,,,,,,,,,,,,,,,,,,,,,,,,,,,,,,,,,,,,,,,,,,,,,,,,,,,,,,,,,,,,,,,,,,,,,,,,,,,,,,,,,,,,,,
1725618256.069003,1725618256.070016,20.0,0.0,4250.0,4231.922852,4287.307617,4278.589844,4201.538574,4218.717773,3999.230713,4214.487305,4218.205078,4201.153809,4521.538574,4526.025879,4363.589844,4446.410156,3421.0,2.0,35.0,,,,0.0,4.0,4.0,4.0,4.0,4.0,4.0,4.0,4.0,4.0,4.0,4.0,4.0,4.0,4.0,100.0,,,,,,,,,,,,,,,,,,,,,,,,,,,,,,,,,,,,,,,,,,,,,,,,,,,,,,,,,,,,,,,,,,,,,,,,,,,,,,,,,,,,,,,,,,,,,,,,,,,,,,,,,,,,,,,,,,,,,,,,,,,,,,,,,,,
1725618256.072907,1725618256.073821,21.0,0.0,4250.897461,4232.820313,4288.846191,4279.743652,4201.922852,4218.205078,4000.0,4214.743652,4218.333496,4203.846191,4522.05127,4526.153809,4362.436035,4445.128418,3889.0,2.0,35.0,,,,0.0,4.0,4.0,4.0,4.0,4.0,4.0,4.0,4.0,4.0,4.0,4.0,4.0,4.0,4.0,100.0,,,,,,,,,,,,,,,,,,,,,,,,,,,,,,,,,,,,,,,,,,,,,,,,,,,,,,,,,,,,,,,,,,,,,,,,,,,,,,,,,,,,,,,,,,,,,,,,,,,,,,,,,,,,,,,,,,,,,,,,,,,,,,,,,,,
1725618256.076811,1725618256.077725,22.0,0.0,4250.384766,4233.333496,4287.307617,4279.871582,4202.179688,4217.436035,3998.974365,4214.358887,4217.94873,4205.0,4520.897461,4525.641113,4360.512695,4443.717773,2889.0,2.0,35.0,,,,0.0,4.0,4.0,4.0,4.0,4.0,4.0,4.0,4.0,4.0,4.0,4.0,4.0,4.0,4.0,100.0,,,,,,,,,,,,,,,,,,,,,,,,,,,,,,,,,,,,,,,,,,,,,,,,,,,,,,,,,,,,,,,,,,,,,,,,,,,,,,,,,,,,,,,,,,,,,,,,,,,,,,,,,,,,,,,,,,,,,,,,,,,,,,,,,,,
1725618256.080716,1725618256.081629,23.0,0.0,4248.333496,4232.820313,4283.717773,4277.307617,4201.794922,4216.794922,3996.666748,4214.102539,4217.563965,4203.589844,4519.102539,4524.871582,4358.205078,4442.94873,3067.0,2.0,35.0,,,,0.0,4.0,4.0,4.0,4.0,4.0,4.0,4.0,4.0,4.0,4.0,4.0,4.0,4.0,4.0,100.0,,,,,,,,,,,,,,,,,,,,,,,,,,,,,,,,,,,,,,,,,,,,,,,,,,,,,,,,,,,,,,,,,,,,,,,,,,,,,,,,,,,,,,,,,,,,,,,,,,,,,,,,,,,,,,,,,,,,,,,,,,,,,,,,,,,
1725618256.08462,1725618256.085633,24.0,0.0,4245.897461,4231.666504,4280.512695,4272.436035,4201.025879,4216.410156,3994.743652,4215.0,4217.563965,4201.282227,4518.077148,4523.974121,4356.282227,4442.94873,3421.0,2.0,35.0,,,,0.0,4.0,4.0,4.0,4.0,4.0,4.0,4.0,4.0,4.0,4.0,4.0,4.0,4.0,4.0,100.0,,,,,,,,,,,,,,,,,,,,,,,,,,,,,,,,,,,,,,,,,,,,,,,,,,,,,,,,,,,,,,,,,,,,,,,,,,,,,,,,,,,,,,,,,,,,,,,,,,,,,,,,,,,,,,,,,,,,,,,,,,,,,,,,,,,
1725618256.088524,1725618256.089537,25.0,0.0,4244.871582,4230.897461,4279.615234,4267.692383,4200.641113,4216.410156,3993.718018,4217.05127,4217.94873,4200.512695,4518.333496,4522.94873,4356.282227,4443.717773,3889.0,2.0,35.0,,,,0.0,4.0,4.0,4.0,4.0,4.0,4.0,4.0,4.0,4.0,4.0,4.0,4.0,4.0,4.0,100.0,,,,,,,,,,,,,,,,,,,,,,,,,,,,,,,,,,,,,,,,,,,,,,,,,,,,,,,,,,,,,,,,,,,,,,,,,,,,,,,,,,,,,,,,,,,,,,,,,,,,,,,,,,,,,,,,,,,,,,,,,,,,,,,,,,,
1725618256.092428,1725618256.093441,26.0,0.0,4245.384766,4230.769043,4280.641113,4265.0,4200.769043,4216.794922,3993.718018,4218.974121,4218.461426,4202.692383,4519.487305,4522.436035,4357.692383,4444.615234,2889.0,2.0,35.0,,,,0.0,4.0,4.0,4.0,4.0,4.0,4.0,4.0,4.0,4.0,4.0,4.0,4.0,4.0,4.0,100.0,,,,,,,,,,,,,,,,,,,,,,,,,,,,,,,,,,,,,,,,,,,,,,,,,,,,,,,,0.0,0.0,1.0,0.0,1.0,0.0,,,,,,,,,,,,,,,,,,,,,,,,,,,,,,,,,,,,,,,,,,,,,,,,,,,,,,,,,,,,,,,,,,,,,,
1725618256.096332,1725618256.097345,27.0,0.0,4245.384766,4230.897461,4281.538574,4265.0,4201.410156,4217.179688,3993.589844,4219.230957,4218.589844,4206.922852,4521.153809,4523.077148,4359.230957,4445.128418,3067.0,2.0,35.0,,,,0.0,4.0,4.0,4.0,4.0,4.0,4.0,4.0,4.0,4.0,4.0,4.0,4.0,4.0,4.0,100.0,,,,,,,,,,,,,,,,,,,,,,,,,,,,,,,,,,,,,,,,,,,,,,,,,,,,,,,,,,,,,,,,,,,,,,,,,,,,,,,,,,,,,,,,,,,,,,,,,,,,,,,,,,,,,,,,,,,,,,,,,,,,,,,,,,,
1725618256.100236,1725618256.101349,28.0,0.0,4243.974121,4230.384766,4280.256348,4266.282227,4201.922852,4217.05127,3992.820557,4217.179688,4218.461426,4211.025879,4522.94873,4524.230957,4359.615234,4444.615234,3421.0,2.0,35.0,,,,0.0,4.0,4.0,4.0,4.0,4.0,4.0,4.0,4.0,4.0,4.0,4.0,4.0,4.0,4.0,100.0,,,,,,,,,,,,,,,,,,,,,,,,,,,,,,,,,,,,,,,,,,,,,,,,,,,,,,,,,,,,,,,,,,,,,,,,,,,,,,,,,,,,,,,,,,,,,,,,,,,,,,,,,,,,,,,,,,,,,,,,,,,,,,,,,,,
1725618256.10414,1725618256.105253,29.0,0.0,4241.538574,4229.358887,4276.666504,4267.179688,4202.307617,4216.153809,3991.923096,4213.589844,4217.692383,4213.333496,4523.974121,4524.615234,4359.102539,4443.205078,3889.0,2.0,35.0,,,,0.0,4.0,4.0,4.0,4.0,4.0,4.0,4.0,4.0,4.0,4.0,4.0,4.0,4.0,4.0,100.0,,,,,,,,,,,,,,,,,,,,,,,,,,,,,,,,,,,,,,,,,,,,,,,,,,,,,,,,,,,,,,,,,,,,,,,,,,,,,,,,,,,,,,,,,,,,,,,,,,,,,,,,,,,,,,,,,,,,,,,,,,,,,,,,,,,
1725618256.108044,1725618256.109157,30.0,0.0,4239.871582,4228.461426,4273.205078,4267.436035,4201.922852,4215.128418,3991.025635,4210.512695,4216.666504,4213.589844,4522.94873,4523.461426,4358.461426,4441.794922,2889.0,2.0,35.0,,,,0.0,4.0,4.0,4.0,4.0,4.0,4.0,4.0,4.0,4.0,4.0,4.0,4.0,4.0,4.0,100.0,,,,,,,,,,,,,,,,,,,,,,,,,,,,,,,,,,,,,,,,,,,,,,,,,,,,,,,,,,,,,,,,,,,,,,,,,,,,,,,,,,,,,,,,,,,,,,,,,,,,,,,,,,,,,,,,,,,,,,,,,,,,,,,,,,,
1725618256.111948,1725618256.113061,31.0,0.0,4240.0,4228.333496,4272.94873,4267.436035,4200.897461,4214.358887,3990.384521,4210.256348,4215.769043,4212.692383,4520.0,4522.05127,4359.102539,4441.922852,3067.0,2.0,35.0,,,,0.0,4.0,4.0,4.0,4.0,4.0,4.0,4.0,4.0,4.0,4.0,4.0,4.0,4.0,4.0,100.0,,,,,,,,,,,,,,,,,,,,,,,,,,,,,,,,,,,,,,,,,,,,,,,,,,,,,,,,,,,,,,,,,,,,,,,,,,,,,,,,,,,,,,,,,,,,,,,,,,,,,,,,,,,,,,,,,,,,,,,,,,,,,,,,,,,
1725618256.115852,1725618256.117065,32.0,0.0,4242.179688,4229.358887,4276.282227,4267.820313,4199.743652,4214.230957,3990.128174,4213.205078,4215.641113,4211.410156,4516.410156,4521.922852,4360.769043,4444.102539,0.0,2.0,35.0,,,,0.0,4.0,4.0,4.0,4.0,4.0,4.0,4.0,4.0,4.0,4.0,4.0,4.0,4.0,4.0,100.0,,,,,,,,,,,,,,,,,,,,,,,,,,,,,,,,,,,,,,,,,,,,,,,,,,,,,,,,,,,,,,,,,,,,,,,,,,,,,,,,,,,,,,,,,,,,,,,,,,,,,,,,,,,,,,,,,,,,,,,,,,,,,,,,,,,
1725618256.119757,1725618256.12097,33.0,0.0,4244.615234,4230.641113,4280.256348,4269.102539,4199.615234,4214.743652,3990.256348,4217.436035,4216.153809,4210.0,4514.102539,4523.461426,4361.794922,4446.666504,0.0,2.0,35.0,,,,0.0,4.0,4.0,4.0,4.0,4.0,4.0,4.0,4.0,4.0,4.0,4.0,4.0,4.0,4.0,100.0,,,,,,,,,,,,,,,,,,,,,,,,,,,,,,,,,,,,,,,,,,,,,,,,,,,,,,,,,,,,,,,,,,,,,,,,,,,,,,,,,,,,,,,,,,,,,,,,,,,,,,,,,,,,,,,,,,,,,,,,,,,,,,,,,,,
1725618256.123661,1725618256.124874,34.0,0.0,4245.0,4230.641113,4281.282227,4270.256348,4200.897461,4215.128418,3990.769287,4219.358887,4216.282227,4207.563965,4512.692383,4525.0,4360.384766,4446.794922,0.0,2.0,35.0,,,,0.0,4.0,4.0,4.0,4.0,4.0,4.0,4.0,4.0,4.0,4.0,4.0,4.0,4.0,4.0,100.0,,,,,,,,,,,,,,,,,1.0,0.0,0.0,,,,,,,,,,,,,,,,,,,,,,,,,,,,,,,,,,,,,0.0,0.0,1.0,0.0,1.0,0.0,3.941705,1.798532,1.340581,0.281635,0.099926,2.124605,1.487738,1.180553,0.285131,0.140764,3.959776,2.109357,1.246393,0.360385,0.131673,2.888728,1.10691,1.162502,0.262758,0.073902,0.71048,0.922951,1.077897,0.179746,0.140561,0.450806,0.428183,0.416766,0.200537,0.187423,0.695315,0.614005,0.930736,0.25128,0.081482,1.357334,1.739666,0.416175,0.467835,0.217652,2.097967,2.160723,1.054212,0.34082,0.077022,2.863114,1.945885,1.021745,0.696973,0.142152,4.878318,3.695985,1.811301,0.673028,0.235272,7.152997,4.396335,1.223067,0.763078,0.197035,5.639173,3.076398,1.315704,0.568705,0.185226,5.333958,2.910956,1.336192,0.509939,0.131685
1725618256.127565,1725618256.128778,35.0,0.0,4241.282227,4227.692383,4278.077148,4269.743652,4202.436035,4215.512695,3991.410156,4217.179688,4214.615234,4203.205078,4511.025879,4523.205078,4355.769043,4442.179688,0.0,2.0,35.0,,,,0.0,4.0,4.0,4.0,4.0,4.0,4.0,4.0,4.0,4.0,4.0,4.0,4.0,4.0,4.0,100.0,,,,,,,,,,,,,,,,,,,,,,,,,,,,,,,,,,,,,,,,,,,,,,,,,,,,,,,,,,,,,,,,,,,,,,,,,,,,,,,,,,,,,,,,,,,,,,,,,,,,,,,,,,,,,,,,,,,,,,,,,,,,,,,,,,,
1725618256.131469,1725618256.132682,36.0,0.0,4233.974121,4221.153809,4272.05127,4266.153809,4201.922852,4215.128418,3991.025635,4211.538574,4210.512695,4196.794922,4507.436035,4516.794922,4348.461426,4433.461426,0.0,2.0,35.0,,,,0.0,4.0,4.0,4.0,4.0,4.0,4.0,4.0,4.0,4.0,4.0,4.0,4.0,4.0,4.0,100.0,,,,,,,,,,,,,,,,,,,,,,,,,,,,,,,,,,,,,,,,,,,,,,,,,,,,,,,,,,,,,,,,,,,,,,,,,,,,,,,,,,,,,,,,,,,,,,,,,,,,,,,,,,,,,,,,,,,,,,,,,,,,,,,,,,,
1725618256.135373,1725618256.136486,37.0,0.0,4225.769043,4212.94873,4265.769043,4260.128418,4198.077148,4213.974121,3988.589844,4204.871582,4204.102539,4188.846191,4501.153809,4506.666504,4339.487305,4422.692383,0.0,2.0,35.0,,,,0.0,4.0,4.0,4.0,4.0,4.0,4.0,4.0,4.0,4.0,4.0,4.0,4.0,4.0,4.0,100.0,,,,,,,,,,,,,,,,,,,,,,,,,,,,,,,,,,,,,,,,,,,,,,,,,,,,,,,,,,,,,,,,,,,,,,,,,,,,,,,,,,,,,,,,,,,,,,,,,,,,,,,,,,,,,,,,,,,,,,,,,,,,,,,,,,,
1725618256.139277,1725618256.14039,38.0,0.0,4219.615234,4205.769043,4260.384766,4253.589844,4192.05127,4212.307617,3983.974365,4200.128418,4196.410156,4180.897461,4492.820313,4496.025879,4330.512695,4412.692383,0.0,2.0,35.0,,,,0.0,4.0,4.0,4.0,4.0,4.0,4.0,4.0,4.0,4.0,4.0,4.0,4.0,4.0,4.0,100.0,,,,,,,,,,,,,,,,,,,,,,,,,,,,,,,,,,,,,,,,,,,,,,,,,,,,,,,,,,,,,,,,,,,,,,,,,,,,,,,,,,,,,,,,,,,,,,,,,,,,,,,,,,,,,,,,,,,,,,,,,,,,,,,,,,,
1725618256.143181,1725618256.144294,39.0,0.0,4216.282227,4201.410156,4255.512695,4248.846191,4186.153809,4211.025879,3978.205078,4198.974121,4188.589844,4173.717773,4483.589844,4487.563965,4322.05127,4404.743652,0.0,2.0,35.0,,,,0.0,4.0,4.0,4.0,4.0,4.0,4.0,4.0,4.0,4.0,4.0,4.0,4.0,4.0,4.0,100.0,,,,,,,,,,,,,,,,,,,,,,,,,,,,,,,,,,,,,,,,,,,,,,,,,,,,,,,,,,,,,,,,,,,,,,,,,,,,,,,,,,,,,,,,,,,,,,,,,,,,,,,,,,,,,,,,,,,,,,,,,,,,,,,,,,,
1725618256.147085,1725618256.148099,40.0,0.0,4214.358887,4199.615234,4250.897461,4246.410156,4182.307617,4210.897461,3973.333252,4201.153809,4182.436035,4167.820313,4475.128418,4482.820313,4314.230957,4399.102539,0.0,2.0,35.0,,,,0.0,4.0,4.0,4.0,4.0,4.0,4.0,4.0,4.0,4.0,4.0,4.0,4.0,4.0,4.0,100.0,,,,,,,,,,,,,,,,,,,,,,,,,,,,,,,,,,,,,,,,,,,,,,,,,,,,,,,,,,,,,,,,,,,,,,,,,,,,,,,,,,,,,,,,,,,,,,,,,,,,,,,,,,,,,,,,,,,,,,,,,,,,,,,,,,,
1725618256.150989,1725618256.152003,41.0,0.0,4211.922852,4198.717773,4247.05127,4245.641113,4181.025879,4212.436035,3971.153809,4205.769043,4179.871582,4163.589844,4469.230957,4482.436035,4307.820313,4395.769043,0.0,2.0,35.0,,,,0.0,4.0,4.0,4.0,4.0,4.0,4.0,4.0,4.0,4.0,4.0,4.0,4.0,4.0,4.0,100.0,,,,,,,,,,,,,,,,,,,,,,,,,,,,,,,,,,,,,,,,,,,,,,,,,,,,,,,,,,,,,,,,,,,,,,,,,,,,,,,,,,,,,,,,,,,,,,,,,,,,,,,,,,,,,,,,,,,,,,,,,,,,,,,,,,,
1725618256.154894,1725618256.155907,42.0,0.0,4209.102539,4197.179688,4245.641113,4245.128418,4181.922852,4215.384766,3972.179443,4211.538574,4182.692383,4162.94873,4468.205078,4486.282227,4305.0,4395.256348,0.0,2.0,35.0,,,,0.0,4.0,4.0,4.0,4.0,4.0,4.0,4.0,4.0,4.0,4.0,4.0,4.0,4.0,4.0,100.0,,,,,,,,,,,,,,,,,,,,,,,,,,,,,,,,,,,,,,,,,,,,,,,,,,,,,,,,0.0,0.0,1.0,0.0,1.0,0.0,,,,,,,,,,,,,,,,,,,,,,,,,,,,,,,,,,,,,,,,,,,,,,,,,,,,,,,,,,,,,,,,,,,,,,
1725618256.158798,1725618256.159811,43.0,0.0,4208.205078,4195.384766,4248.717773,4245.0,4184.102539,4218.461426,3975.384521,4218.205078,4190.769043,4167.307617,4473.717773,4493.717773,4308.974121,4398.974121,0.0,2.0,35.0,,,,0.0,4.0,4.0,4.0,4.0,4.0,4.0,4.0,4.0,4.0,4.0,4.0,4.0,4.0,4.0,100.0,,,,,,,,,,,,,,,,,,,,,,,,,,,,,,,,,,,,,,,,,,,,,,,,,,,,,,,,,,,,,,,,,,,,,,,,,,,,,,,,,,,,,,,,,,,,,,,,,,,,,,,,,,,,,,,,,,,,,,,,,,,,,,,,,,,
1725618256.162702,1725618256.163615,44.0,0.0,4212.179688,4196.025879,4257.05127,4246.794922,4187.307617,4220.641113,3979.230713,4225.128418,4202.307617,4176.794922,4486.025879,4503.846191,4321.153809,4407.692383,0.0,2.0,35.0,,,,0.0,4.0,4.0,4.0,4.0,4.0,4.0,4.0,4.0,4.0,4.0,4.0,4.0,4.0,4.0,100.0,,,,,,,,,,,,,,,,,,,,,,,,,,,,,,,,,,,,,,,,,,,,,,,,,,,,,,,,,,,,,,,,,,,,,,,,,,,,,,,,,,,,,,,,,,,,,,,,,,,,,,,,,,,,,,,,,,,,,,,,,,,,,,,,,,,
1725618256.166606,1725618256.167519,45.0,0.0,4221.922852,4202.05127,4268.846191,4252.307617,4191.538574,4220.897461,3983.205078,4231.282227,4213.589844,4188.974121,4502.94873,4514.871582,4339.102539,4420.769043,0.0,2.0,35.0,,,,0.0,4.0,4.0,4.0,4.0,4.0,4.0,4.0,4.0,4.0,4.0,4.0,4.0,4.0,4.0,100.0,,,,,,,,,,,,,,,,,,,,,,,,,,,,,,,,,,,,,,,,,,,,,,,,,,,,,,,,,,,,,,,,,,,,,,,,,,,,,,,,,,,,,,,,,,,,,,,,,,,,,,,,,,,,,,,,,,,,,,,,,,,,,,,,,,,
1725618256.17051,1725618256.171423,46.0,0.0,4234.871582,4213.461426,4280.641113,4261.153809,4196.666504,4219.743652,3987.307617,4235.256348,4221.282227,4200.512695,4519.615234,4524.743652,4357.307617,4435.0,0.0,2.0,35.0,,,,0.0,4.0,4.0,4.0,4.0,4.0,4.0,4.0,4.0,4.0,4.0,4.0,4.0,4.0,4.0,100.0,,,,,,,,,,,,,,,,,,,,,,,,,,,,,,,,,,,,,,,,,,,,,,,,,,,,,,,,,,,,,,,,,,,,,,,,,,,,,,,,,,,,,,,,,,,,,,,,,,,,,,,,,,,,,,,,,,,,,,,,,,,,,,,,,,,
1725618256.174414,1725618256.175327,47.0,0.0,4246.666504,4226.538574,4288.333496,4270.256348,4201.538574,4218.717773,3992.564209,4235.384766,4224.358887,4208.077148,4530.256348,4530.897461,4370.128418,4446.282227,0.0,2.0,35.0,,,,0.0,4.0,4.0,4.0,4.0,4.0,4.0,4.0,4.0,4.0,4.0,4.0,4.0,4.0,4.0,100.0,,,,,,,,,,,,,,,,,,,,,,,,,,,,,,,,,,,,,,,,,,,,,,,,,,,,,,,,,,,,,,,,,,,,,,,,,,,,,,,,,,,,,,,,,,,,,,,,,,,,,,,,,,,,,,,,,,,,,,,,,,,,,,,,,,,
1725618256.178318,1725618256.179132,48.0,0.0,4253.589844,4235.384766,4289.615234,4275.641113,4204.743652,4218.461426,3998.333252,4230.641113,4223.589844,4210.0,4531.025879,4531.666504,4374.230957,4451.538574,0.0,2.0,35.0,,,,0.0,4.0,4.0,4.0,4.0,4.0,4.0,4.0,4.0,4.0,4.0,4.0,4.0,4.0,4.0,100.0,,,,,,,,,,,,,,,,,,,,,,,,,,,,,,,,,,,,,,,,,,,,,,,,,,,,,,,,,,,,,,,,,,,,,,,,,,,,,,,,,,,,,,,,,,,,,,,,,,,,,,,,,,,,,,,,,,,,,,,,,,,,,,,,,,,
1725618256.182222,1725618256.183036,49.0,0.0,4253.589844,4236.025879,4284.743652,4275.256348,4205.128418,4217.94873,4002.435791,4222.05127,4220.641113,4207.179688,4522.94873,4527.692383,4371.025879,4449.871582,0.0,2.0,35.0,,,,0.0,4.0,4.0,4.0,4.0,4.0,4.0,4.0,4.0,4.0,4.0,4.0,4.0,4.0,4.0,100.0,,,,,,,,,,,,,,,,,,,,,,,,,,,,,,,,,,,,,,,,,,,,,,,,,,,,,,,,,,,,,,,,,,,,,,,,,,,,,,,,,,,,,,,,,,,,,,,,,,,,,,,,,,,,,,,,,,,,,,,,,,,,,,,,,,,
1725618256.186126,1725618256.18694,50.0,0.0,4247.692383,4228.974121,4276.282227,4270.769043,4203.205078,4216.282227,4002.94873,4212.307617,4217.05127,4202.94873,4512.179688,4521.282227,4364.102539,4443.461426,0.0,2.0,35.0,,,,0.0,4.0,4.0,4.0,4.0,4.0,4.0,4.0,4.0,4.0,4.0,4.0,4.0,4.0,4.0,100.0,,,,,,,,,,,,,,,,,,,,,,,,,,,,,,,,,,,,,,,,,,,,,,,,,,,,,,,,0.0,0.0,1.0,0.0,1.0,0.0,,,,,,,,,,,,,,,,,,,,,,,,,,,,,,,,,,,,,,,,,,,,,,,,,,,,,,,,,,,,,,,,,,,,,,
1725618256.19003,1725618256.190944,51.0,0.0,4239.102539,4219.743652,4267.94873,4265.641113,4200.512695,4212.436035,3999.871826,4205.0,4213.589844,4200.512695,4505.897461,4514.230957,4357.692383,4435.512695,0.0,2.0,35.0,,,,0.0,4.0,4.0,4.0,4.0,4.0,4.0,4.0,4.0,4.0,4.0,4.0,4.0,4.0,4.0,100.0,,,,,,,,,,,,,,,,,,,,,,,,,,,,,,,,,,,,,,,,,,,,,,,,,,,,,,,,,,,,,,,,,,,,,,,,,,,,,,,,,,,,,,,,,,,,,,,,,,,,,,,,,,,,,,,,,,,,,,,,,,,,,,,,,,,
1725618256.193935,1725618256.194848,52.0,0.0,4232.179688,4214.743652,4262.94873,4262.820313,4198.717773,4207.307617,3996.025635,4201.282227,4209.871582,4200.641113,4506.025879,4507.307617,4353.717773,4429.230957,0.0,2.0,35.0,,,,0.0,4.0,4.0,4.0,4.0,4.0,4.0,4.0,4.0,4.0,4.0,4.0,4.0,4.0,4.0,100.0,,,,,,,,,,,,,,,,,,,,,,,,,,,,,,,,,,,,,,,,,,,,,,,,,,,,,,,,,,,,,,,,,,,,,,,,,,,,,,,,,,,,,,,,,,,,,,,,,,,,,,,,,,,,,,,,,,,,,,,,,,,,,,,,,,,
1725618256.197839,1725618256.198752,53.0,0.0,4229.871582,4216.922852,4262.436035,4263.077148,4198.461426,4202.307617,3994.487061,4200.256348,4205.897461,4201.282227,4509.102539,4500.256348,4351.794922,4426.153809,0.0,2.0,35.0,,,,0.0,4.0,4.0,4.0,4.0,4.0,4.0,4.0,4.0,4.0,4.0,4.0,4.0,4.0,4.0,100.0,,,,,,,,,,,,,,,,,,,,,,,,,,,,,,,,,,,,,,,,,,,,,,,,,,,,,,,,,,,,,,,,,,,,,,,,,,,,,,,,,,,,,,,,,,,,,,,,,,,,,,,,,,,,,,,,,,,,,,,,,,,,,,,,,,,
1725618256.201743,1725618256.202656,54.0,0.0,4231.538574,4224.615234,4265.256348,4265.256348,4198.974121,4198.974121,3996.410156,4200.384766,4202.436035,4200.384766,4509.615234,4494.102539,4350.897461,4426.282227,0.0,2.0,35.0,,,,0.0,4.0,4.0,4.0,4.0,4.0,4.0,4.0,4.0,4.0,4.0,4.0,4.0,4.0,4.0,100.0,,,,,,,,,,,,,,,,,,,,,,,,,,,,,,,,,,,,,,,,,,,,,,,,,,,,,,,,,,,,,,,,,,,,,,,,,,,,,,,,,,,,,,,,,,,,,,,,,,,,,,,,,,,,,,,,,,,,,,,,,,,,,,,,,,,
1725618256.205647,1725618256.20666,55.0,0.0,4234.487305,4232.307617,4269.487305,4267.563965,4199.358887,4198.461426,4000.512939,4200.641113,4200.512695,4197.436035,4505.512695,4490.897461,4350.641113,4428.461426,0.0,2.0,35.0,,,,0.0,4.0,4.0,4.0,4.0,4.0,4.0,4.0,4.0,4.0,4.0,4.0,4.0,4.0,4.0,100.0,,,,,,,,,,,,,,,,,,,,,,,,,,,,,,,,,,,,,,,,,,,,,,,,,,,,,,,,,,,,,,,,,,,,,,,,,,,,,,,,,,,,,,,,,,,,,,,,,,,,,,,,,,,,,,,,,,,,,,,,,,,,,,,,,,,
1725618256.209551,1725618256.210564,56.0,0.0,4236.025879,4235.641113,4272.436035,4269.102539,4199.615234,4200.769043,4004.230713,4200.897461,4201.025879,4194.358887,4499.615234,4492.307617,4350.512695,4430.641113,0.0,2.0,35.0,,,,0.0,4.0,4.0,4.0,4.0,4.0,4.0,4.0,4.0,4.0,4.0,4.0,4.0,4.0,4.0,100.0,,,,,,,,,,,,,,,,,,,,,,,,,,,,,,,,,,,,,,,,,,,,,,,,,,,,,,,,,,,,,,,,,,,,,,,,,,,,,,,,,,,,,,,,,,,,,,,,,,,,,,,,,,,,,,,,,,,,,,,,,,,,,,,,,,,
1725618256.213455,1725618256.214468,57.0,0.0,4235.641113,4233.974121,4273.461426,4269.871582,4199.871582,4204.871582,4006.281982,4201.538574,4202.820313,4193.077148,4496.025879,4497.692383,4350.512695,4431.410156,0.0,2.0,35.0,,,,0.0,4.0,4.0,4.0,4.0,4.0,4.0,4.0,4.0,4.0,4.0,4.0,4.0,4.0,4.0,100.0,,,,,,,,,,,,,,,,,,,,,,,,,,,,,,,,,,,,,,,,,,,,,,,,,,,,,,,,,,,,,,,,,,,,,,,,,,,,,,,,,,,,,,,,,,,,,,,,,,,,,,,,,,,,,,,,,,,,,,,,,,,,,,,,,,,
1725618256.217359,1725618256.218372,58.0,0.0,4234.230957,4230.0,4273.205078,4270.897461,4200.512695,4209.487305,4006.410156,4202.436035,4204.358887,4193.974121,4497.179688,4504.102539,4350.256348,4430.128418,0.0,2.0,35.0,,,,0.0,4.0,4.0,4.0,4.0,4.0,4.0,4.0,4.0,4.0,4.0,4.0,4.0,4.0,4.0,100.0,,,,,,,,,,,,,,,,,,,,,,,,,,,,,,,,,,,,,,,,,,,,,,,,,,,,,,,,0.0,0.0,1.0,0.0,1.0,0.0,,,,,,,,,,,,,,,,,,,,,,,,,,,,,,,,,,,,,,,,,,,,,,,,,,,,,,,,,,,,,,,,,,,,,,
1725618256.221263,1725618256.222376,59.0,0.0,4233.589844,4227.563965,4273.461426,4272.436035,4201.025879,4213.333496,4005.384521,4203.205078,4204.487305,4196.282227,4501.922852,4508.461426,4349.871582,4428.461426,0.0,2.0,35.0,,,,0.0,4.0,4.0,4.0,4.0,4.0,4.0,4.0,4.0,4.0,4.0,4.0,4.0,4.0,4.0,100.0,,,,,,,,,,,,,,,,,,,,,,,,,,,,,,,,,,,,,,,,,,,,,,,,,,,,,,,,,,,,,,,,,,,,,,,,,,,,,,,,,,,,,,,,,,,,,,,,,,,,,,,,,,,,,,,,,,,,,,,,,,,,,,,,,,,
1725618256.225167,1725618256.22628,60.0,0.0,4235.256348,4228.333496,4275.384766,4274.743652,4201.025879,4215.512695,4004.358887,4203.461426,4203.589844,4198.717773,4507.05127,4509.615234,4349.615234,4427.820313,0.0,2.0,35.0,,,,0.0,4.0,4.0,4.0,4.0,4.0,4.0,4.0,4.0,4.0,4.0,4.0,4.0,4.0,4.0,100.0,,,,,,,,,,,,,,,,,,,,,,,,,,,,,,,,,,,,,,,,,,,,,,,,,,,,,,,,,,,,,,,,,,,,,,,,,,,,,,,,,,,,,,,,,,,,,,,,,,,,,,,,,,,,,,,,,,,,,,,,,,,,,,,,,,,
1725618256.229072,1725618256.230185,61.0,0.0,4239.230957,4231.538574,4278.461426,4276.922852,4200.897461,4216.153809,4004.358887,4203.077148,4202.179688,4200.641113,4509.743652,4509.358887,4350.0,4428.589844,0.0,2.0,35.0,,,,0.0,4.0,4.0,4.0,4.0,4.0,4.0,4.0,4.0,4.0,4.0,4.0,4.0,4.0,4.0,100.0,,,,,,,,,,,,,,,,,,,,,,,,,,,,,,,,,,,,,,,,,,,,,,,,,,,,,,,,,,,,,,,,,,,,,,,,,,,,,,,,,,,,,,,,,,,,,,,,,,,,,,,,,,,,,,,,,,,,,,,,,,,,,,,,,,,
1725618256.232976,1725618256.234089,62.0,0.0,4243.461426,4234.615234,4281.538574,4278.333496,4201.153809,4215.769043,4005.769287,4202.179688,4201.538574,4201.410156,4509.102539,4509.358887,4350.897461,4430.256348,0.0,2.0,35.0,,,,0.0,4.0,4.0,4.0,4.0,4.0,4.0,4.0,4.0,4.0,4.0,4.0,4.0,4.0,4.0,100.0,,,,,,,,,,,,,,,,,,,,,,,,,,,,,,,,,,,,,,,,,,,,,,,,,,,,,,,,,,,,,,,,,,,,,,,,,,,,,,,,,,,,,,,,,,,,,,,,,,,,,,,,,,,,,,,,,,,,,,,,,,,,,,,,,,,
1725618256.23688,1725618256.237993,63.0,0.0,4245.641113,4235.769043,4283.077148,4278.461426,4202.179688,4215.256348,4007.94873,4201.282227,4201.282227,4200.769043,4506.538574,4510.0,4351.538574,4431.666504,0.0,2.0,35.0,,,,0.0,4.0,4.0,4.0,4.0,4.0,4.0,4.0,4.0,4.0,4.0,4.0,4.0,4.0,4.0,100.0,,,,,,,,,,,,,,,,,,,,,,,,,,,,,,,,,,,,,,,,,,,,,,,,,,,,,,,,,,,,,,,,,,,,,,,,,,,,,,,,,,,,,,,,,,,,,,,,,,,,,,,,,,,,,,,,,,,,,,,,,,,,,,,,,,,
1725618256.240784,1725618256.241797,64.0,0.0,4245.0,4234.871582,4282.820313,4278.077148,4203.077148,4215.256348,4009.615479,4200.897461,4201.282227,4198.846191,4504.487305,4511.025879,4351.282227,4432.05127,0.0,2.0,35.0,,,,0.0,4.0,4.0,4.0,4.0,4.0,4.0,4.0,4.0,4.0,4.0,4.0,4.0,4.0,4.0,100.0,,,,,,,,,,,,,,,,,,,,,,,,,,,,,,,,,,,,,,,,,,,,,,,,,,,,,,,,,,,,,,,,,,,,,,,,,,,,,,,,,,,,,,,,,,,,,,,,,,,,,,,,,,,,,,,,,,,,,,,,,,,,,,,,,,,
1725618256.244688,1725618256.245701,65.0,0.0,4242.820313,4233.589844,4281.538574,4277.820313,4203.333496,4215.769043,4010.512939,4200.769043,4201.025879,4197.05127,4504.487305,4511.410156,4350.256348,4431.538574,0.0,2.0,35.0,,,,0.0,4.0,4.0,4.0,4.0,4.0,4.0,4.0,4.0,4.0,4.0,4.0,4.0,4.0,4.0,100.0,,,,,,,,,,,,,,,,,,,,,,,,,,,,,,,,,,,,,,,,,,,,,,,,,,,,,,,,,,,,,,,,,,,,,,,,,,,,,,,,,,,,,,,,,,,,,,,,,,,,,,,,,,,,,,,,,,,,,,,,,,,,,,,,,,,
1725618256.248592,1725618256.249605,66.0,0.0,4241.794922,4233.077148,4280.0,4278.077148,4203.077148,4216.410156,4011.025635,4200.769043,4200.769043,4196.410156,4506.153809,4511.153809,4349.487305,4430.897461,0.0,2.0,35.0,,,,0.0,4.0,4.0,4.0,4.0,4.0,4.0,4.0,4.0,4.0,4.0,4.0,4.0,4.0,4.0,100.0,1.0,66.666664,4.0,4.0,4.0,4.0,4.0,4.0,1.0,4.0,4.0,3.0,4.0,4.0,4.0,4.0,1.0,0.0,0.0,,,,,,,,,,,,,,,,,,,,,,,,,,,,,,,,,,,,,0.0,0.0,1.0,0.0,1.0,0.0,3.969619,1.820709,1.341484,0.303358,0.097501,2.201556,1.644743,1.249772,0.30193,0.144662,3.910968,2.108716,1.257948,0.359221,0.124447,2.765533,1.168221,1.197255,0.304271,0.082222,0.739676,0.964457,1.124252,0.197945,0.129948,0.449928,0.428974,0.403645,0.188818,0.169223,1.035522,0.7082,0.946509,0.277579,0.076744,1.207814,1.380531,0.333844,0.49233,0.240338,1.938262,2.026946,1.007892,0.337982,0.069927,2.736219,1.913296,1.053563,0.736864,0.1524,4.619907,3.56862,1.746283,0.706649,0.220532,6.75333,4.145762,1.188655,0.78833,0.19693,5.485081,3.157507,1.31252,0.583435,0.17443,5.248818,3.044477,1.351021,0.517926,0.126221
1725618256.252496,1725618256.253409,67.0,0.0,4243.205078,4233.205078,4279.102539,4278.461426,4202.94873,4216.666504,4012.05127,4200.641113,4200.897461,4197.05127,4508.205078,4510.384766,4350.128418,4430.641113,0.0,2.0,35.0,,,,0.0,4.0,4.0,4.0,4.0,4.0,4.0,4.0,4.0,4.0,4.0,4.0,4.0,4.0,4.0,100.0,,,,,,,,,,,,,,,,,,,,,,,,,,,,,,,,,,,,,,,,,,,,,,,,,,,,,,,,,,,,,,,,,,,,,,,,,,,,,,,,,,,,,,,,,,,,,,,,,,,,,,,,,,,,,,,,,,,,,,,,,,,,,,,,,,,
1725618256.2564,1725618256.257314,68.0,0.0,4246.025879,4233.846191,4278.846191,4278.846191,4203.077148,4216.282227,4013.846191,4201.025879,4201.282227,4197.692383,4508.846191,4510.128418,4351.922852,4430.641113,0.0,2.0,35.0,,,,0.0,4.0,4.0,4.0,4.0,4.0,4.0,4.0,4.0,4.0,4.0,4.0,4.0,4.0,4.0,100.0,,,,,,,,,,,,,,,,,,,,,,,,,,,,,,,,,,,,,,,,,,,,,,,,,,,,,,,,,,,,,,,,,,,,,,,,,,,,,,,,,,,,,,,,,,,,,,,,,,,,,,,,,,,,,,,,,,,,,,,,,,,,,,,,,,,
1725618256.260304,1725618256.261218,69.0,0.0,4247.692383,4234.358887,4279.102539,4278.846191,4203.846191,4215.384766,4016.153809,4202.179688,4201.922852,4196.922852,4507.94873,4510.512695,4353.589844,4431.025879,0.0,2.0,35.0,,,,0.0,4.0,4.0,4.0,4.0,4.0,4.0,4.0,4.0,4.0,4.0,4.0,4.0,4.0,4.0,100.0,,,,,,,,,,,,,,,,,,,,,,,,,,,,,,,,,,,,,,,,,,,,,,,,,,,,,,,,,,,,,,,,,,,,,,,,,,,,,,,,,,,,,,,,,,,,,,,,,,,,,,,,,,,,,,,,,,,,,,,,,,,,,,,,,,,
1725618256.264208,1725618256.265122,70.0,0.0,4246.282227,4234.743652,4279.358887,4278.205078,4204.743652,4215.128418,4018.333252,4203.846191,4202.307617,4194.358887,4506.538574,4510.897461,4353.846191,4431.025879,0.0,2.0,35.0,,,,0.0,4.0,4.0,4.0,4.0,4.0,4.0,4.0,4.0,4.0,4.0,4.0,4.0,4.0,4.0,100.0,,,,,,,,,,,,,,,,,,,,,,,,,,,,,,,,,,,,,,,,,,,,,,,,,,,,,,,,,,,,,,,,,,,,,,,,,,,,,,,,,,,,,,,,,,,,,,,,,,,,,,,,,,,,,,,,,,,,,,,,,,,,,,,,,,,
1725618256.268113,1725618256.268926,71.0,0.0,4242.563965,4234.743652,4278.974121,4277.436035,4205.0,4215.512695,4019.871826,4204.871582,4202.436035,4190.641113,4506.538574,4509.871582,4352.692383,4430.256348,0.0,2.0,35.0,,,,0.0,4.0,4.0,4.0,4.0,4.0,4.0,4.0,4.0,4.0,4.0,4.0,4.0,4.0,4.0,100.0,,,,,,,,,,,,,,,,,,,,,,,,,,,,,,,,,,,,,,,,,,,,,,,,,,,,,,,,,,,,,,,,,,,,,,,,,,,,,,,,,,,,,,,,,,,,,,,,,,,,,,,,,,,,,,,,,,,,,,,,,,,,,,,,,,,
1725618256.272017,1725618256.27283,72.0,0.0,4238.717773,4234.358887,4277.94873,4277.179688,4204.487305,4216.025879,4020.512939,4204.743652,4202.05127,4186.922852,4507.436035,4507.307617,4350.769043,4428.846191,0.0,2.0,35.0,,,,0.0,4.0,4.0,4.0,4.0,4.0,4.0,4.0,4.0,4.0,4.0,4.0,4.0,4.0,4.0,100.0,,,,,,,,,,,,,,,,,,,,,,,,,,,,,,,,,,,,,,,,,,,,,,,,,,,,,,,,,,,,,,,,,,,,,,,,,,,,,,,,,,,,,,,,,,,,,,,,,,,,,,,,,,,,,,,,,,,,,,,,,,,,,,,,,,,
1725618256.275921,1725618256.276734,73.0,0.0,4236.153809,4233.717773,4276.153809,4277.820313,4203.077148,4215.897461,4020.256348,4203.333496,4201.025879,4184.358887,4507.563965,4504.487305,4349.487305,4427.307617,0.0,2.0,35.0,,,,0.0,4.0,4.0,4.0,4.0,4.0,4.0,4.0,4.0,4.0,4.0,4.0,4.0,4.0,4.0,100.0,,,,,,,,,,,,,,,,,,,,,,,,,,,,,,,,,,,,,,,,,,,,,,,,,,,,,,,,,,,,,,,,,,,,,,,,,,,,,,,,,,,,,,,,,,,,,,,,,,,,,,,,,,,,,,,,,,,,,,,,,,,,,,,,,,,
1725618256.279825,1725618256.280638,74.0,0.0,4235.128418,4233.205078,4274.230957,4278.461426,4201.794922,4215.256348,4020.128174,4201.538574,4200.0,4184.102539,4505.128418,4503.077148,4349.358887,4426.153809,0.0,2.0,35.0,,,,0.0,4.0,4.0,4.0,4.0,4.0,4.0,4.0,4.0,4.0,4.0,4.0,4.0,4.0,4.0,100.0,,,,,,,,,,,,,,,,,,,,,,,,,,,,,,,,,,,,,,,,,,,,,,,,,,,,,,,,0.0,0.0,1.0,0.0,1.0,0.0,,,,,,,,,,,,,,,,,,,,,,,,,,,,,,,,,,,,,,,,,,,,,,,,,,,,,,,,,,,,,,,,,,,,,,
1725618256.283729,1725618256.284442,75.0,0.0,4234.615234,4232.820313,4273.077148,4278.205078,4200.897461,4214.743652,4021.281982,4199.615234,4199.358887,4185.769043,4500.897461,4504.230957,4349.743652,4425.769043,0.0,2.0,35.0,,,,0.0,4.0,4.0,4.0,4.0,4.0,4.0,4.0,4.0,4.0,4.0,4.0,4.0,4.0,4.0,100.0,,,,,,,,,,,,,,,,,,,,,,,,,,,,,,,,,,,,,,,,,,,,,,,,,,,,,,,,,,,,,,,,,,,,,,,,,,,,,,,,,,,,,,,,,,,,,,,,,,,,,,,,,,,,,,,,,,,,,,,,,,,,,,,,,,,
1725618256.287633,1725618256.288347,76.0,0.0,4234.743652,4232.563965,4273.205078,4276.666504,4200.641113,4214.743652,4024.102539,4197.692383,4199.615234,4187.436035,4496.538574,4506.794922,4350.256348,4426.282227,0.0,2.0,35.0,,,,0.0,4.0,4.0,4.0,4.0,4.0,4.0,4.0,4.0,4.0,4.0,4.0,4.0,4.0,4.0,100.0,,,,,,,,,,,,,,,,,,,,,,,,,,,,,,,,,,,,,,,,,,,,,,,,,,,,,,,,,,,,,,,,,,,,,,,,,,,,,,,,,,,,,,,,,,,,,,,,,,,,,,,,,,,,,,,,,,,,,,,,,,,,,,,,,,,
1725618256.291537,1725618256.292251,77.0,0.0,4235.897461,4232.436035,4274.615234,4274.871582,4201.025879,4215.0,4027.692383,4196.153809,4200.128418,4187.820313,4494.743652,4508.846191,4350.256348,4427.436035,0.0,2.0,35.0,,,,0.0,4.0,4.0,4.0,4.0,4.0,4.0,4.0,4.0,4.0,4.0,4.0,4.0,4.0,4.0,100.0,,,,,,,,,,,,,,,,,,,,,,,,,,,,,,,,,,,,,,,,,,,,,,,,,,,,,,,,,,,,,,,,,,,,,,,,,,,,,,,,,,,,,,,,,,,,,,,,,,,,,,,,,,,,,,,,,,,,,,,,,,,,,,,,,,,
1725618256.295441,1725618256.296255,78.0,0.0,4238.461426,4232.436035,4276.794922,4273.717773,4201.282227,4215.0,4030.128174,4195.512695,4200.256348,4186.410156,4496.282227,4508.846191,4350.0,4429.230957,0.0,2.0,35.0,,,,0.0,4.0,4.0,4.0,4.0,4.0,4.0,4.0,4.0,4.0,4.0,4.0,4.0,4.0,4.0,100.0,,,,,,,,,,,,,,,,,,,,,,,,,,,,,,,,,,,,,,,,,,,,,,,,,,,,,,,,,,,,,,,,,,,,,,,,,,,,,,,,,,,,,,,,,,,,,,,,,,,,,,,,,,,,,,,,,,,,,,,,,,,,,,,,,,,
1725618256.299345,1725618256.300159,79.0,0.0,4241.153809,4232.436035,4279.102539,4273.461426,4201.282227,4214.615234,4030.128174,4196.282227,4199.743652,4184.743652,4500.128418,4507.179688,4349.615234,4431.538574,0.0,2.0,35.0,,,,0.0,4.0,4.0,4.0,4.0,4.0,4.0,4.0,4.0,4.0,4.0,4.0,4.0,4.0,4.0,100.0,,,,,,,,,,,,,,,,,,,,,,,,,,,,,,,,,,,,,,,,,,,,,,,,,,,,,,,,,,,,,,,,,,,,,,,,,,,,,,,,,,,,,,,,,,,,,,,,,,,,,,,,,,,,,,,,,,,,,,,,,,,,,,,,,,,
1725618256.303249,1725618256.304063,80.0,0.0,4242.692383,4232.05127,4280.384766,4273.461426,4201.025879,4214.230957,4028.589844,4198.205078,4199.102539,4184.487305,4504.230957,4506.153809,4349.615234,4433.589844,0.0,2.0,35.0,,,,0.0,4.0,4.0,4.0,4.0,4.0,4.0,4.0,4.0,4.0,4.0,4.0,4.0,4.0,4.0,100.0,,,,,,,,,,,,,,,,,,,,,,,,,,,,,,,,,,,,,,,,,,,,,,,,,,,,,,,,,,,,,,,,,,,,,,,,,,,,,,,,,,,,,,,,,,,,,,,,,,,,,,,,,,,,,,,,,,,,,,,,,,,,,,,,,,,
1725618256.307154,1725618256.307967,81.0,0.0,4241.922852,4231.025879,4279.743652,4272.563965,4200.769043,4214.615234,4027.307617,4200.897461,4199.230957,4185.897461,4506.153809,4507.307617,4350.0,4434.615234,0.0,2.0,35.0,,,,0.0,4.0,4.0,4.0,4.0,4.0,4.0,4.0,4.0,4.0,4.0,4.0,4.0,4.0,4.0,100.0,,,,,,,,,,,,,,,,,,,,,,,,,,,,,,,,,,,,,,,,,,,,,,,,,,,,,,,,,,,,,,,,,,,,,,,,,,,,,,,,,,,,,,,,,,,,,,,,,,,,,,,,,,,,,,,,,,,,,,,,,,,,,,,,,,,
1725618256.311058,1725618256.311971,82.0,0.0,4238.846191,4229.871582,4276.922852,4270.641113,4200.897461,4215.769043,4027.692383,4202.94873,4200.384766,4188.077148,4505.897461,4510.384766,4350.384766,4434.615234,0.0,2.0,35.0,,,,0.0,4.0,4.0,4.0,4.0,4.0,4.0,4.0,4.0,4.0,4.0,4.0,4.0,4.0,4.0,100.0,,,,,,,,,,,,,,,,,,,,,,,,,,,,,,,,,,,,,,,,,,,,,,,,,,,,,,,,0.0,0.0,1.0,0.0,1.0,0.0,,,,,,,,,,,,,,,,,,,,,,,,,,,,,,,,,,,,,,,,,,,,,,,,,,,,,,,,,,,,,,,,,,,,,,
1725618256.314962,1725618256.315875,83.0,0.0,4235.384766,4229.358887,4272.94873,4268.077148,4201.282227,4216.922852,4028.974365,4202.692383,4202.05127,4189.487305,4504.615234,4513.077148,4350.256348,4433.461426,0.0,2.0,35.0,,,,0.0,4.0,4.0,4.0,4.0,4.0,4.0,4.0,4.0,4.0,4.0,4.0,4.0,4.0,4.0,100.0,,,,,,,,,,,,,,,,,,,,,,,,,,,,,,,,,,,,,,,,,,,,,,,,,,,,,,,,,,,,,,,,,,,,,,,,,,,,,,,,,,,,,,,,,,,,,,,,,,,,,,,,,,,,,,,,,,,,,,,,,,,,,,,,,,,
1725618256.318866,1725618256.319779,84.0,0.0,4233.333496,4229.871582,4269.487305,4266.153809,4201.538574,4216.922852,4030.256348,4200.128418,4203.205078,4189.358887,4504.230957,4513.846191,4349.102539,4431.794922,0.0,2.0,35.0,,,,0.0,4.0,4.0,4.0,4.0,4.0,4.0,4.0,4.0,4.0,4.0,4.0,4.0,4.0,4.0,100.0,,,,,,,,,,,,,,,,,,,,,,,,,,,,,,,,,,,,,,,,,,,,,,,,,,,,,,,,,,,,,,,,,,,,,,,,,,,,,,,,,,,,,,,,,,,,,,,,,,,,,,,,,,,,,,,,,,,,,,,,,,,,,,,,,,,
1725618256.32277,1725618256.323683,85.0,0.0,4233.717773,4230.641113,4267.563965,4265.128418,4201.153809,4215.641113,4030.512939,4197.307617,4203.461426,4188.205078,4505.256348,4512.436035,4347.05127,4430.128418,0.0,2.0,35.0,,,,0.0,4.0,4.0,4.0,4.0,4.0,4.0,4.0,4.0,4.0,4.0,4.0,4.0,4.0,4.0,100.0,,,,,,,,,,,,,,,,,,,,,,,,,,,,,,,,,,,,,,,,,,,,,,,,,,,,,,,,,,,,,,,,,,,,,,,,,,,,,,,,,,,,,,,,,,,,,,,,,,,,,,,,,,,,,,,,,,,,,,,,,,,,,,,,,,,
1725618256.326674,1725618256.327687,86.0,0.0,4235.512695,4230.512695,4266.794922,4264.615234,4200.384766,4214.102539,4030.641113,4197.307617,4203.205078,4186.666504,4506.794922,4511.410156,4344.743652,4429.358887,0.0,2.0,35.0,,,,0.0,4.0,4.0,4.0,4.0,4.0,4.0,4.0,4.0,4.0,4.0,4.0,4.0,4.0,4.0,100.0,,,,,,,,,,,,,,,,,,,,,,,,,,,,,,,,,,,,,,,,,,,,,,,,,,,,,,,,,,,,,,,,,,,,,,,,,,,,,,,,,,,,,,,,,,,,,,,,,,,,,,,,,,,,,,,,,,,,,,,,,,,,,,,,,,,
1725618256.330578,1725618256.331591,87.0,0.0,4236.410156,4228.461426,4266.538574,4263.846191,4199.743652,4213.461426,4031.410156,4201.025879,4202.820313,4185.769043,4507.563965,4512.820313,4342.692383,4429.230957,0.0,2.0,35.0,,,,0.0,4.0,4.0,4.0,4.0,4.0,4.0,4.0,4.0,4.0,4.0,4.0,4.0,4.0,4.0,100.0,,,,,,,,,,,,,,,,,,,,,,,,,,,,,,,,,,,,,,,,,,,,,,,,,,,,,,,,,,,,,,,,,,,,,,,,,,,,,,,,,,,,,,,,,,,,,,,,,,,,,,,,,,,,,,,,,,,,,,,,,,,,,,,,,,,
1725618256.334482,1725618256.335496,88.0,0.0,4235.256348,4224.358887,4266.025879,4262.820313,4199.871582,4214.102539,4032.94873,4206.538574,4202.820313,4185.897461,4507.179688,4517.179688,4341.153809,4429.358887,0.0,2.0,35.0,,,,0.0,4.0,4.0,4.0,4.0,4.0,4.0,4.0,4.0,4.0,4.0,4.0,4.0,4.0,4.0,100.0,,,,,,,,,,,,,,,,,,,,,,,,,,,,,,,,,,,,,,,,,,,,,,,,,,,,,,,,,,,,,,,,,,,,,,,,,,,,,,,,,,,,,,,,,,,,,,,,,,,,,,,,,,,,,,,,,,,,,,,,,,,,,,,,,,,
1725618256.338386,1725618256.3394,89.0,0.0,4232.820313,4219.487305,4264.871582,4261.794922,4200.769043,4215.128418,4034.487061,4211.153809,4203.461426,4186.538574,4506.666504,4522.307617,4340.256348,4429.358887,0.0,2.0,35.0,,,,0.0,4.0,4.0,4.0,4.0,4.0,4.0,4.0,4.0,4.0,4.0,4.0,4.0,4.0,4.0,100.0,,,,,,,,,,,,,,,,,,,,,,,,,,,,,,,,,,,,,,,,,,,,,,,,,,,,,,,,,,,,,,,,,,,,,,,,,,,,,,,,,,,,,,,,,,,,,,,,,,,,,,,,,,,,,,,,,,,,,,,,,,,,,,,,,,,
1725618256.342291,1725618256.343204,90.0,0.0,4230.641113,4216.025879,4263.717773,4261.666504,4201.794922,4215.384766,4034.871826,4212.436035,4204.358887,4187.05127,4507.05127,4525.128418,4340.0,4429.487305,0.0,2.0,35.0,,,,0.0,4.0,4.0,4.0,4.0,4.0,4.0,4.0,4.0,4.0,4.0,4.0,4.0,4.0,4.0,100.0,,,,,,,,,,,,,,,,,,,,,,,,,,,,,,,,,,,,,,,,,,,,,,,,,,,,,,,,0.0,0.0,1.0,0.0,1.0,0.0,,,,,,,,,,,,,,,,,,,,,,,,,,,,,,,,,,,,,,,,,,,,,,,,,,,,,,,,,,,,,,,,,,,,,,
1725618256.346195,1725618256.347108,91.0,0.0,4230.256348,4215.0,4263.205078,4262.436035,4202.179688,4214.615234,4033.846191,4209.871582,4205.128418,4186.282227,4508.333496,4523.205078,4340.0,4429.615234,0.0,2.0,35.0,,,,0.0,4.0,4.0,4.0,4.0,4.0,4.0,4.0,4.0,4.0,4.0,4.0,4.0,4.0,4.0,100.0,,,,,,,,,,,,,,,,,,,,,,,,,,,,,,,,,,,,,,,,,,,,,,,,,,,,,,,,,,,,,,,,,,,,,,,,,,,,,,,,,,,,,,,,,,,,,,,,,,,,,,,,,,,,,,,,,,,,,,,,,,,,,,,,,,,
1725618256.350099,1725618256.351012,92.0,0.0,4231.153809,4216.025879,4263.717773,4263.461426,4201.666504,4213.589844,4033.205078,4204.871582,4205.384766,4184.743652,4508.846191,4517.179688,4339.358887,4428.974121,0.0,2.0,35.0,,,,0.0,4.0,4.0,4.0,4.0,4.0,4.0,4.0,4.0,4.0,4.0,4.0,4.0,4.0,4.0,100.0,,,,,,,,,,,,,,,,,,,,,,,,,,,,,,,,,,,,,,,,,,,,,,,,,,,,,,,,,,,,,,,,,,,,,,,,,,,,,,,,,,,,,,,,,,,,,,,,,,,,,,,,,,,,,,,,,,,,,,,,,,,,,,,,,,,
1725618256.354003,1725618256.354916,93.0,0.0,4231.922852,4217.820313,4264.743652,4263.589844,4200.641113,4213.205078,4034.615479,4200.128418,4204.871582,4183.589844,4507.820313,4509.743652,4337.307617,4427.05127,0.0,2.0,35.0,,,,0.0,4.0,4.0,4.0,4.0,4.0,4.0,4.0,4.0,4.0,4.0,4.0,4.0,4.0,4.0,100.0,,,,,,,,,,,,,,,,,,,,,,,,,,,,,,,,,,,,,,,,,,,,,,,,,,,,,,,,,,,,,,,,,,,,,,,,,,,,,,,,,,,,,,,,,,,,,,,,,,,,,,,,,,,,,,,,,,,,,,,,,,,,,,,,,,,
1725618256.357907,1725618256.35872,94.0,0.0,4231.922852,4218.846191,4265.256348,4262.820313,4200.0,4213.974121,4038.461426,4198.974121,4203.333496,4183.461426,4506.025879,4504.743652,4334.358887,4424.615234,0.0,2.0,35.0,,,,0.0,4.0,4.0,4.0,4.0,4.0,4.0,4.0,4.0,4.0,4.0,4.0,4.0,4.0,4.0,100.0,,,,,,,,,,,,,,,,,,,,,,,,,,,,,,,,,,,,,,,,,,,,,,,,,,,,,,,,,,,,,,,,,,,,,,,,,,,,,,,,,,,,,,,,,,,,,,,,,,,,,,,,,,,,,,,,,,,,,,,,,,,,,,,,,,,
1725618256.361811,1725618256.362624,95.0,0.0,4231.794922,4219.230957,4264.615234,4262.05127,4200.384766,4215.0,4042.820557,4202.179688,4201.410156,4183.589844,4505.0,4504.230957,4331.282227,4423.077148,0.0,2.0,35.0,,,,0.0,4.0,4.0,4.0,4.0,4.0,4.0,4.0,4.0,4.0,4.0,4.0,4.0,4.0,4.0,100.0,,,,,,,,,,,,,,,,,,,,,,,,,,,,,,,,,,,,,,,,,,,,,,,,,,,,,,,,,,,,,,,,,,,,,,,,,,,,,,,,,,,,,,,,,,,,,,,,,,,,,,,,,,,,,,,,,,,,,,,,,,,,,,,,,,,
1725618256.365715,1725618256.366529,96.0,0.0,4231.922852,4219.871582,4263.333496,4262.436035,4201.410156,4215.512695,4045.256348,4207.692383,4199.615234,4182.692383,4504.871582,4507.179688,4328.846191,4422.94873,0.0,2.0,35.0,,,,0.0,4.0,4.0,4.0,4.0,4.0,4.0,4.0,4.0,4.0,4.0,4.0,4.0,4.0,4.0,100.0,,,,,,,,,,,,,,,,,,,,,,,,,,,,,,,,,,,,,,,,,,,,,,,,,,,,,,,,,,,,,,,,,,,,,,,,,,,,,,,,,,,,,,,,,,,,,,,,,,,,,,,,,,,,,,,,,,,,,,,,,,,,,,,,,,,
1725618256.369619,1725618256.370433,97.0,0.0,4232.436035,4221.922852,4262.436035,4263.717773,4202.436035,4215.128418,4045.128174,4211.794922,4198.717773,4180.128418,4505.128418,4510.512695,4327.307617,4423.717773,0.0,2.0,35.0,,,,0.0,4.0,4.0,4.0,4.0,4.0,4.0,4.0,4.0,4.0,4.0,4.0,4.0,4.0,4.0,100.0,,,,,,,,,,,,,,,,,,,,,,,,,,,,,,,,,,,,,,,,,,,,,,,,,,,,,,,,,,,,,,,,,,,,,,,,,,,,,,,,,,,,,,,,,,,,,,,,,,,,,,,,,,,,,,,,,,,,,,,,,,,,,,,,,,,
1725618256.373523,1725618256.374237,98.0,0.0,4232.820313,4225.256348,4262.820313,4265.256348,4202.820313,4213.974121,4044.102539,4212.179688,4198.717773,4176.666504,4504.615234,4511.666504,4326.538574,4424.487305,0.0,2.0,35.0,,,,0.0,4.0,4.0,4.0,4.0,4.0,4.0,4.0,4.0,4.0,4.0,4.0,4.0,4.0,4.0,100.0,,,,,,,,,,,,,,,,,1.0,0.0,0.0,,,,,,,,,,,,,,,,,,,,,,,,,,,,,,,,,,,,,0.0,0.0,1.0,0.0,1.0,0.0,3.748701,1.684673,1.236182,0.295711,0.099161,2.164904,1.704293,1.238286,0.297895,0.145809,3.655833,1.90842,1.142579,0.326248,0.119446,2.5545,1.167219,1.120139,0.324962,0.087673,0.712532,0.935216,1.05669,0.20082,0.11799,0.448659,0.412679,0.380007,0.175735,0.146513,1.907117,0.843982,0.87257,0.283121,0.069953,0.998797,1.070064,0.252706,0.500058,0.255464,1.615857,1.691177,0.871284,0.305242,0.063312,2.379664,1.673449,1.009424,0.688612,0.157232,4.012064,3.187461,1.543296,0.661643,0.211415,5.930526,3.577465,1.046829,0.744119,0.192315,4.843142,2.942038,1.234523,0.538562,0.165039,4.742966,2.890386,1.276911,0.476157,0.1192
1725618256.377427,1725618256.378141,99.0,0.0,4233.205078,4228.846191,4264.102539,4265.897461,4202.307617,4212.436035,4043.974365,4208.846191,4199.615234,4174.358887,4503.974121,4510.0,4326.410156,4424.358887,0.0,2.0,35.0,,,,0.0,4.0,4.0,4.0,4.0,4.0,4.0,4.0,4.0,4.0,4.0,4.0,4.0,4.0,4.0,100.0,,,,,,,,,,,,,,,,,,,,,,,,,,,,,,,,,,,,,,,,,,,,,,,,,,,,,,,,,,,,,,,,,,,,,,,,,,,,,,,,,,,,,,,,,,,,,,,,,,,,,,,,,,,,,,,,,,,,,,,,,,,,,,,,,,,
1725618256.381332,1725618256.382045,100.0,0.0,4233.589844,4231.153809,4265.512695,4265.256348,4201.410156,4210.897461,4045.512939,4203.974121,4200.384766,4174.743652,4503.717773,4507.05127,4326.666504,4423.589844,0.0,2.0,35.0,,,,0.0,4.0,4.0,4.0,4.0,4.0,4.0,4.0,4.0,4.0,4.0,4.0,4.0,4.0,4.0,100.0,,,,,,,,,,,,,,,,,,,,,,,,,,,,,,,,,,,,,,,,,,,,,,,,,,,,,,,,,,,,,,,,,,,,,,,,,,,,,,,,,,,,,,,,,,,,,,,,,,,,,,,,,,,,,,,,,,,,,,,,,,,,,,,,,,,
1725618256.385236,1725618256.385949,101.0,0.0,4233.846191,4231.666504,4265.641113,4263.974121,4200.512695,4209.358887,4047.692383,4199.487305,4200.0,4177.692383,4504.230957,4504.743652,4327.436035,4423.205078,0.0,2.0,35.0,,,,0.0,4.0,4.0,4.0,4.0,4.0,4.0,4.0,4.0,4.0,4.0,4.0,4.0,4.0,4.0,100.0,,,,,,,,,,,,,,,,,,,,,,,,,,,,,,,,,,,,,,,,,,,,,,,,,,,,,,,,,,,,,,,,,,,,,,,,,,,,,,,,,,,,,,,,,,,,,,,,,,,,,,,,,,,,,,,,,,,,,,,,,,,,,,,,,,,
1725618256.38914,1725618256.389753,102.0,0.0,4233.974121,4231.025879,4264.230957,4262.692383,4200.0,4208.205078,4048.974365,4196.282227,4198.589844,4181.538574,4504.871582,4504.230957,4327.94873,4424.102539,0.0,2.0,35.0,,,,0.0,4.0,4.0,4.0,4.0,4.0,4.0,4.0,4.0,4.0,4.0,4.0,4.0,4.0,4.0,100.0,,,,,,,,,,,,,,,,,,,,,,,,,,,,,,,,,,,,,,,,,,,,,,,,,,,,,,,,,,,,,,,,,,,,,,,,,,,,,,,,,,,,,,,,,,,,,,,,,,,,,,,,,,,,,,,,,,,,,,,,,,,,,,,,,,,
1725618256.393044,1725618256.393657,103.0,0.0,4233.717773,4230.128418,4261.794922,4262.436035,4200.0,4207.820313,4048.333252,4194.487305,4196.922852,4184.102539,4505.256348,4505.128418,4328.205078,4425.897461,0.0,2.0,35.0,,,,0.0,4.0,4.0,4.0,4.0,4.0,4.0,4.0,4.0,4.0,4.0,4.0,4.0,4.0,4.0,100.0,,,,,,,,,,,,,,,,,,,,,,,,,,,,,,,,,,,,,,,,,,,,,,,,,,,,,,,,,,,,,,,,,,,,,,,,,,,,,,,,,,,,,,,,,,,,,,,,,,,,,,,,,,,,,,,,,,,,,,,,,,,,,,,,,,,
1725618256.396948,1725618256.397562,104.0,0.0,4233.461426,4229.358887,4260.0,4263.205078,4200.128418,4208.974121,4046.410156,4193.846191,4196.922852,4184.615234,4505.897461,4506.025879,4328.077148,4427.436035,0.0,2.0,35.0,,,,0.0,4.0,4.0,4.0,4.0,4.0,4.0,4.0,4.0,4.0,4.0,4.0,4.0,4.0,4.0,100.0,,,,,,,,,,,,,,,,,,,,,,,,,,,,,,,,,,,,,,,,,,,,,,,,,,,,,,,,,,,,,,,,,,,,,,,,,,,,,,,,,,,,,,,,,,,,,,,,,,,,,,,,,,,,,,,,,,,,,,,,,,,,,,,,,,,
1725618256.400852,1725618256.401566,105.0,0.0,4233.205078,4229.230957,4260.128418,4264.743652,4200.384766,4211.282227,4045.256348,4194.615234,4198.974121,4183.974121,4507.436035,4506.153809,4328.333496,4427.94873,0.0,2.0,35.0,,,,0.0,4.0,4.0,4.0,4.0,4.0,4.0,4.0,4.0,4.0,4.0,4.0,4.0,4.0,4.0,100.0,,,,,,,,,,,,,,,,,,,,,,,,,,,,,,,,,,,,,,,,,,,,,,,,,,,,,,,,,,,,,,,,,,,,,,,,,,,,,,,,,,,,,,,,,,,,,,,,,,,,,,,,,,,,,,,,,,,,,,,,,,,,,,,,,,,
1725618256.404756,1725618256.40547,106.0,0.0,4233.077148,4229.487305,4262.692383,4266.025879,4200.769043,4213.717773,4046.153809,4196.282227,4201.794922,4183.461426,4509.230957,4505.897461,4328.717773,4428.077148,0.0,2.0,35.0,,,,0.0,4.0,4.0,4.0,4.0,4.0,4.0,4.0,4.0,4.0,4.0,4.0,4.0,4.0,4.0,100.0,,,,,,,,,,,,,,,,,,,,,,,,,,,,,,,,,,,,,,,,,,,,,,,,,,,,,,,,0.0,0.0,1.0,0.0,1.0,0.0,,,,,,,,,,,,,,,,,,,,,,,,,,,,,,,,,,,,,,,,,,,,,,,,,,,,,,,,,,,,,,,,,,,,,,
1725618256.408661,1725618256.409374,107.0,0.0,4233.077148,4229.871582,4265.897461,4265.897461,4201.025879,4214.871582,4049.358887,4197.820313,4203.333496,4183.589844,4510.0,4506.666504,4328.589844,4428.461426,0.0,2.0,35.0,,,,0.0,4.0,4.0,4.0,4.0,4.0,4.0,4.0,4.0,4.0,4.0,4.0,4.0,4.0,4.0,100.0,,,,,,,,,,,,,,,,,,,,,,,,,,,,,,,,,,,,,,,,,,,,,,,,,,,,,,,,,,,,,,,,,,,,,,,,,,,,,,,,,,,,,,,,,,,,,,,,,,,,,,,,,,,,,,,,,,,,,,,,,,,,,,,,,,,
1725618256.412565,1725618256.413378,108.0,0.0,4232.94873,4229.871582,4267.820313,4264.615234,4201.025879,4214.230957,4053.718018,4198.717773,4202.563965,4183.589844,4508.589844,4509.487305,4327.307617,4428.974121,0.0,2.0,35.0,,,,0.0,4.0,4.0,4.0,4.0,4.0,4.0,4.0,4.0,4.0,4.0,4.0,4.0,4.0,4.0,100.0,,,,,,,,,,,,,,,,,,,,,,,,,,,,,,,,,,,,,,,,,,,,,,,,,,,,,,,,,,,,,,,,,,,,,,,,,,,,,,,,,,,,,,,,,,,,,,,,,,,,,,,,,,,,,,,,,,,,,,,,,,,,,,,,,,,
1725618256.416469,1725618256.417282,109.0,0.0,4232.94873,4229.743652,4267.436035,4262.820313,4200.641113,4212.820313,4057.05127,4199.487305,4201.025879,4183.461426,4506.282227,4514.358887,4325.897461,4429.102539,0.0,2.0,35.0,,,,0.0,4.0,4.0,4.0,4.0,4.0,4.0,4.0,4.0,4.0,4.0,4.0,4.0,4.0,4.0,100.0,,,,,,,,,,,,,,,,,,,,,,,,,,,,,,,,,,,,,,,,,,,,,,,,,,,,,,,,,,,,,,,,,,,,,,,,,,,,,,,,,,,,,,,,,,,,,,,,,,,,,,,,,,,,,,,,,,,,,,,,,,,,,,,,,,,
1725618256.420373,1725618256.421186,110.0,0.0,4232.94873,4230.0,4265.897461,4262.307617,4200.256348,4212.436035,4058.205078,4201.922852,4201.025879,4183.717773,4505.384766,4519.871582,4325.641113,4429.230957,0.0,2.0,35.0,,,,0.0,4.0,4.0,4.0,4.0,4.0,4.0,4.0,4.0,4.0,4.0,4.0,4.0,4.0,4.0,100.0,,,,,,,,,,,,,,,,,,,,,,,,,,,,,,,,,,,,,,,,,,,,,,,,,,,,,,,,,,,,,,,,,,,,,,,,,,,,,,,,,,,,,,,,,,,,,,,,,,,,,,,,,,,,,,,,,,,,,,,,,,,,,,,,,,,
1725618256.424277,1725618256.42509,111.0,0.0,4233.205078,4231.025879,4265.641113,4263.846191,4200.769043,4213.846191,4058.076904,4206.922852,4204.743652,4185.897461,4508.333496,4524.102539,4327.94873,4430.128418,0.0,2.0,35.0,,,,0.0,4.0,4.0,4.0,4.0,4.0,4.0,4.0,4.0,4.0,4.0,4.0,4.0,4.0,4.0,100.0,,,,,,,,,,,,,,,,,,,,,,,,,,,,,,,,,,,,,,,,,,,,,,,,,,,,,,,,,,,,,,,,,,,,,,,,,,,,,,,,,,,,,,,,,,,,,,,,,,,,,,,,,,,,,,,,,,,,,,,,,,,,,,,,,,,
1725618256.428181,1725618256.428994,112.0,0.0,4233.461426,4232.179688,4268.077148,4267.05127,4202.307617,4216.538574,4058.076904,4213.589844,4211.153809,4189.871582,4515.128418,4525.897461,4332.563965,4432.179688,0.0,2.0,35.0,,,,0.0,4.0,4.0,4.0,4.0,4.0,4.0,4.0,4.0,4.0,4.0,4.0,4.0,4.0,4.0,100.0,,,,,,,,,,,,,,,,,,,,,,,,,,,,,,,,,,,,,,,,,,,,,,,,,,,,,,,,,,,,,,,,,,,,,,,,,,,,,,,,,,,,,,,,,,,,,,,,,,,,,,,,,,,,,,,,,,,,,,,,,,,,,,,,,,,
1725618256.432085,1725618256.432998,113.0,0.0,4233.589844,4232.94873,4272.436035,4269.615234,4204.230957,4218.846191,4059.615479,4219.102539,4216.922852,4194.230957,4522.563965,4525.641113,4338.205078,4434.871582,0.0,2.0,35.0,,,,0.0,4.0,4.0,4.0,4.0,4.0,4.0,4.0,4.0,4.0,4.0,4.0,4.0,4.0,4.0,100.0,,,,,,,,,,,,,,,,,,,,,,,,,,,,,,,,,,,,,,,,,,,,,,,,,,,,,,,,,,,,,,,,,,,,,,,,,,,,,,,,,,,,,,,,,,,,,,,,,,,,,,,,,,,,,,,,,,,,,,,,,,,,,,,,,,,
1725618256.435989,1725618256.436902,114.0,0.0,4234.230957,4232.94873,4276.538574,4269.871582,4205.256348,4219.358887,4062.564209,4220.897461,4218.717773,4196.410156,4526.538574,4524.358887,4342.436035,4437.179688,0.0,2.0,35.0,,,,0.0,4.0,4.0,4.0,4.0,4.0,4.0,4.0,4.0,4.0,4.0,4.0,4.0,4.0,4.0,100.0,,,,,,,,,,,,,,,,,,,,,,,,,,,,,,,,,,,,,,,,,,,,,,,,,,,,,,,,0.0,0.0,1.0,0.0,1.0,0.0,,,,,,,,,,,,,,,,,,,,,,,,,,,,,,,,,,,,,,,,,,,,,,,,,,,,,,,,,,,,,,,,,,,,,,
1725618256.439893,1725618256.440806,115.0,0.0,4236.282227,4232.436035,4278.461426,4267.94873,4204.871582,4218.461426,4065.769287,4217.692383,4215.897461,4195.512695,4524.871582,4523.077148,4343.846191,4438.461426,0.0,2.0,35.0,,,,0.0,4.0,4.0,4.0,4.0,4.0,4.0,4.0,4.0,4.0,4.0,4.0,4.0,4.0,4.0,100.0,,,,,,,,,,,,,,,,,,,,,,,,,,,,,,,,,,,,,,,,,,,,,,,,,,,,,,,,,,,,,,,,,,,,,,,,,,,,,,,,,,,,,,,,,,,,,,,,,,,,,,,,,,,,,,,,,,,,,,,,,,,,,,,,,,,
1725618256.443797,1725618256.444711,116.0,0.0,4239.871582,4231.922852,4277.692383,4265.769043,4203.974121,4216.922852,4068.589844,4210.769043,4210.256348,4192.307617,4518.333496,4522.436035,4342.436035,4438.077148,0.0,2.0,35.0,,,,0.0,4.0,4.0,4.0,4.0,4.0,4.0,4.0,4.0,4.0,4.0,4.0,4.0,4.0,4.0,100.0,,,,,,,,,,,,,,,,,,,,,,,,,,,,,,,,,,,,,,,,,,,,,,,,,,,,,,,,,,,,,,,,,,,,,,,,,,,,,,,,,,,,,,,,,,,,,,,,,,,,,,,,,,,,,,,,,,,,,,,,,,,,,,,,,,,
1725618256.447702,1725618256.448615,117.0,0.0,4243.846191,4232.179688,4275.641113,4265.641113,4204.102539,4216.025879,4070.512939,4203.589844,4204.487305,4188.589844,4510.641113,4522.563965,4340.641113,4436.794922,0.0,2.0,35.0,,,,0.0,4.0,4.0,4.0,4.0,4.0,4.0,4.0,4.0,4.0,4.0,4.0,4.0,4.0,4.0,100.0,,,,,,,,,,,,,,,,,,,,,,,,,,,,,,,,,,,,,,,,,,,,,,,,,,,,,,,,,,,,,,,,,,,,,,,,,,,,,,,,,,,,,,,,,,,,,,,,,,,,,,,,,,,,,,,,,,,,,,,,,,,,,,,,,,,
1725618256.451606,1725618256.452519,118.0,0.0,4245.897461,4233.461426,4274.230957,4268.717773,4206.153809,4216.153809,4071.538574,4199.871582,4200.512695,4185.641113,4505.384766,4523.333496,4340.256348,4435.897461,0.0,2.0,35.0,,,,0.0,4.0,4.0,4.0,4.0,4.0,4.0,4.0,4.0,4.0,4.0,4.0,4.0,4.0,4.0,100.0,,,,,,,,,,,,,,,,,,,,,,,,,,,,,,,,,,,,,,,,,,,,,,,,,,,,,,,,,,,,,,,,,,,,,,,,,,,,,,,,,,,,,,,,,,,,,,,,,,,,,,,,,,,,,,,,,,,,,,,,,,,,,,,,,,,
1725618256.45551,1725618256.456423,119.0,0.0,4245.384766,4235.256348,4274.871582,4273.974121,4210.0,4217.307617,4072.435791,4200.512695,4198.846191,4184.102539,4503.846191,4524.102539,4341.282227,4435.512695,0.0,2.0,35.0,,,,0.0,4.0,4.0,4.0,4.0,4.0,4.0,4.0,4.0,4.0,4.0,4.0,4.0,4.0,4.0,100.0,,,,,,,,,,,,,,,,,,,,,,,,,,,,,,,,,,,,,,,,,,,,,,,,,,,,,,,,,,,,,,,,,,,,,,,,,,,,,,,,,,,,,,,,,,,,,,,,,,,,,,,,,,,,,,,,,,,,,,,,,,,,,,,,,,,
1725618256.459414,1725618256.460327,120.0,0.0,4243.205078,4236.794922,4277.179688,4279.102539,4213.846191,4219.358887,4073.718018,4204.102539,4199.230957,4184.358887,4505.641113,4524.230957,4342.563965,4435.128418,0.0,2.0,35.0,,,,0.0,4.0,4.0,4.0,4.0,4.0,4.0,4.0,4.0,4.0,4.0,4.0,4.0,4.0,4.0,100.0,,,,,,,,,,,,,,,,,,,,,,,,,,,,,,,,,,,,,,,,,,,,,,,,,,,,,,,,,,,,,,,,,,,,,,,,,,,,,,,,,,,,,,,,,,,,,,,,,,,,,,,,,,,,,,,,,,,,,,,,,,,,,,,,,,,
1725618256.463318,1725618256.464131,121.0,0.0,4241.153809,4237.563965,4279.743652,4281.922852,4216.282227,4221.794922,4075.641113,4208.461426,4201.410156,4186.410156,4508.974121,4523.846191,4343.333496,4434.230957,0.0,2.0,35.0,,,,0.0,4.0,4.0,4.0,4.0,4.0,4.0,4.0,4.0,4.0,4.0,4.0,4.0,4.0,4.0,100.0,,,,,,,,,,,,,,,,,,,,,,,,,,,,,,,,,,,,,,,,,,,,,,,,,,,,,,,,,,,,,,,,,,,,,,,,,,,,,,,,,,,,,,,,,,,,,,,,,,,,,,,,,,,,,,,,,,,,,,,,,,,,,,,,,,,
1725618256.467222,1725618256.468035,122.0,0.0,4240.769043,4237.179688,4280.641113,4281.794922,4216.538574,4224.358887,4077.435791,4212.563965,4204.871582,4189.871582,4512.563965,4523.589844,4343.589844,4433.077148,0.0,2.0,35.0,,,,0.0,4.0,4.0,4.0,4.0,4.0,4.0,4.0,4.0,4.0,4.0,4.0,4.0,4.0,4.0,100.0,,,,,,,,,,,,,,,,,,,,,,,,,,,,,,,,,,,,,,,,,,,,,,,,,,,,,,,,0.0,0.0,1.0,0.0,1.0,0.0,,,,,,,,,,,,,,,,,,,,,,,,,,,,,,,,,,,,,,,,,,,,,,,,,,,,,,,,,,,,,,,,,,,,,,
1725618256.471126,1725618256.471939,123.0,0.0,4242.692383,4236.153809,4279.743652,4279.871582,4215.384766,4226.538574,4077.94873,4216.025879,4209.102539,4194.230957,4515.897461,4524.230957,4344.230957,4432.94873,0.0,2.0,35.0,,,,0.0,4.0,4.0,4.0,4.0,4.0,4.0,4.0,4.0,4.0,4.0,4.0,4.0,4.0,4.0,100.0,,,,,,,,,,,,,,,,,,,,,,,,,,,,,,,,,,,,,,,,,,,,,,,,,,,,,,,,,,,,,,,,,,,,,,,,,,,,,,,,,,,,,,,,,,,,,,,,,,,,,,,,,,,,,,,,,,,,,,,,,,,,,,,,,,,
1725618256.47503,1725618256.475843,124.0,0.0,4245.769043,4235.384766,4278.333496,4278.333496,4214.102539,4227.94873,4077.05127,4218.077148,4213.333496,4198.461426,4518.974121,4526.153809,4345.897461,4434.743652,0.0,2.0,35.0,,,,0.0,4.0,4.0,4.0,4.0,4.0,4.0,4.0,4.0,4.0,4.0,4.0,4.0,4.0,4.0,100.0,,,,,,,,,,,,,,,,,,,,,,,,,,,,,,,,,,,,,,,,,,,,,,,,,,,,,,,,,,,,,,,,,,,,,,,,,,,,,,,,,,,,,,,,,,,,,,,,,,,,,,,,,,,,,,,,,,,,,,,,,,,,,,,,,,,
1725618256.478934,1725618256.479648,125.0,0.0,4248.846191,4235.0,4277.692383,4278.205078,4213.846191,4228.974121,4075.512939,4218.589844,4216.538574,4201.282227,4521.153809,4528.974121,4348.205078,4438.205078,0.0,2.0,35.0,,,,0.0,4.0,4.0,4.0,4.0,4.0,4.0,4.0,4.0,4.0,4.0,4.0,4.0,4.0,4.0,100.0,,,,,,,,,,,,,,,,,,,,,,,,,,,,,,,,,,,,,,,,,,,,,,,,,,,,,,,,,,,,,,,,,,,,,,,,,,,,,,,,,,,,,,,,,,,,,,,,,,,,,,,,,,,,,,,,,,,,,,,,,,,,,,,,,,,
1725618256.482839,1725618256.483552,126.0,0.0,4250.384766,4235.128418,4278.205078,4279.487305,4214.358887,4229.615234,4075.384521,4217.563965,4217.94873,4201.794922,4521.538574,4531.922852,4349.615234,4441.538574,0.0,2.0,35.0,,,,0.0,4.0,4.0,4.0,4.0,4.0,4.0,4.0,4.0,4.0,4.0,4.0,4.0,4.0,4.0,100.0,,,,,,,,,,,,,,,,,,,,,,,,,,,,,,,,,,,,,,,,,,,,,,,,,,,,,,,,,,,,,,,,,,,,,,,,,,,,,,,,,,,,,,,,,,,,,,,,,,,,,,,,,,,,,,,,,,,,,,,,,,,,,,,,,,,
1725618256.486743,1725618256.487456,127.0,0.0,4250.256348,4235.256348,4279.487305,4280.897461,4215.256348,4230.0,4077.435791,4216.538574,4218.077148,4200.512695,4520.641113,4534.230957,4349.871582,4443.461426,0.0,2.0,35.0,,,,0.0,4.0,4.0,4.0,4.0,4.0,4.0,4.0,4.0,4.0,4.0,4.0,4.0,4.0,4.0,100.0,,,,,,,,,,,,,,,,,,,,,,,,,,,,,,,,,,,,,,,,,,,,,,,,,,,,,,,,,,,,,,,,,,,,,,,,,,,,,,,,,,,,,,,,,,,,,,,,,,,,,,,,,,,,,,,,,,,,,,,,,,,,,,,,,,,
1725618256.490647,1725618256.49136,128.0,0.0,4249.230957,4235.256348,4281.282227,4281.410156,4215.769043,4230.128418,4080.897461,4216.794922,4217.563965,4199.230957,4520.256348,4536.282227,4349.358887,4443.974121,2626.0,2.0,35.0,,,,0.0,4.0,4.0,4.0,4.0,4.0,4.0,4.0,4.0,4.0,4.0,4.0,4.0,4.0,4.0,100.0,,,,,,,,,,,,,,,,,,,,,,,,,,,,,,,,,,,,,,,,,,,,,,,,,,,,,,,,,,,,,,,,,,,,,,,,,,,,,,,,,,,,,,,,,,,,,,,,,,,,,,,,,,,,,,,,,,,,,,,,,,,,,,,,,,,
1725618256.494551,1725618256.495164,129.0,0.0,4248.333496,4235.641113,4283.077148,4281.025879,4215.641113,4230.384766,4084.102539,4218.461426,4217.692383,4199.615234,4521.410156,4538.077148,4349.358887,4444.230957,2570.0,2.0,35.0,,,,0.0,4.0,4.0,4.0,4.0,4.0,4.0,4.0,4.0,4.0,4.0,4.0,4.0,4.0,4.0,100.0,,,,,,,,,,,,,,,,,,,,,,,,,,,,,,,,,,,,,,,,,,,,,,,,,,,,,,,,,,,,,,,,,,,,,,,,,,,,,,,,,,,,,,,,,,,,,,,,,,,,,,,,,,,,,,,,,,,,,,,,,,,,,,,,,,,
1725618256.498455,1725618256.499068,130.0,0.0,4248.461426,4236.410156,4284.615234,4280.128418,4215.384766,4230.512695,4085.641113,4220.384766,4218.333496,4201.666504,4523.461426,4539.615234,4350.0,4444.871582,2449.0,2.0,35.0,,,,0.0,4.0,4.0,4.0,4.0,4.0,4.0,4.0,4.0,4.0,4.0,4.0,4.0,4.0,4.0,100.0,,,,,,,,,,,,,,,,,1.0,0.0,0.0,,,,,,,,,,,,,,,,,,,,,,,,,,,,,,,,,,,,,0.0,0.0,1.0,0.0,1.0,0.0,3.444348,1.427531,1.09491,0.272591,0.104506,2.120481,1.64227,1.185956,0.273754,0.145982,3.340076,1.55637,0.957116,0.28239,0.117421,2.370399,1.087969,0.979683,0.326098,0.088411,0.662825,0.839234,0.907806,0.188981,0.104022,0.451782,0.385211,0.351806,0.164548,0.123208,3.444144,1.008884,0.7516,0.270535,0.063693,0.789694,0.854831,0.210356,0.492218,0.259088,1.221941,1.254976,0.701879,0.259354,0.057974,1.901763,1.304066,0.93174,0.575247,0.155645,3.334999,2.635689,1.30065,0.567548,0.208193,4.990401,2.811671,0.8852,0.660143,0.181368,3.932656,2.496771,1.17092,0.468432,0.159664,4.092717,2.49205,1.21784,0.410864,0.111876
1725618256.502359,1725618256.502972,131.0,0.0,4249.230957,4237.179688,4285.897461,4279.230957,4215.256348,4230.769043,4085.512939,4220.769043,4218.974121,4203.589844,4524.487305,4540.256348,4350.769043,4445.512695,2461.0,2.0,35.0,,,,0.0,4.0,4.0,4.0,4.0,4.0,4.0,4.0,4.0,4.0,4.0,4.0,4.0,4.0,4.0,100.0,,,,,,,,,,,,,,,,,,,,,,,,,,,,,,,,,,,,,,,,,,,,,,,,,,,,,,,,,,,,,,,,,,,,,,,,,,,,,,,,,,,,,,,,,,,,,,,,,,,,,,,,,,,,,,,,,,,,,,,,,,,,,,,,,,,
1725618256.506263,1725618256.506976,132.0,0.0,4250.0,4236.922852,4286.794922,4278.717773,4215.256348,4230.897461,4084.871826,4218.846191,4219.102539,4203.974121,4523.974121,4539.743652,4351.025879,4445.512695,2421.0,2.0,35.0,,,,0.0,4.0,4.0,4.0,4.0,4.0,4.0,4.0,4.0,4.0,4.0,4.0,4.0,4.0,4.0,100.0,,,,,,,,,,,,,,,,,,,,,,,,,,,,,,,,,,,,,,,,,,,,,,,,,,,,,,,,,,,,,,,,,,,,,,,,,,,,,,,,,,,,,,,,,,,,,,,,,,,,,,,,,,,,,,,,,,,,,,,,,,,,,,,,,,,
1725618256.510167,1725618256.510881,133.0,0.0,4250.384766,4235.641113,4287.94873,4279.230957,4215.0,4230.256348,4084.743652,4216.410156,4218.461426,4202.94873,4523.461426,4539.102539,4351.025879,4445.128418,2396.0,2.0,35.0,,,,0.0,4.0,4.0,4.0,4.0,4.0,4.0,4.0,4.0,4.0,4.0,4.0,4.0,4.0,4.0,100.0,,,,,,,,,,,,,,,,,,,,,,,,,,,,,,,,,,,,,,,,,,,,,,,,,,,,,,,,,,,,,,,,,,,,,,,,,,,,,,,,,,,,,,,,,,,,,,,,,,,,,,,,,,,,,,,,,,,,,,,,,,,,,,,,,,,
1725618256.514071,1725618256.514785,134.0,0.0,4250.512695,4234.487305,4289.487305,4280.384766,4214.487305,4228.589844,4085.769287,4215.512695,4217.820313,4201.794922,4525.384766,4539.230957,4351.538574,4445.769043,2184.0,2.0,35.0,,,,0.0,4.0,4.0,4.0,4.0,4.0,4.0,4.0,4.0,4.0,4.0,4.0,4.0,4.0,4.0,100.0,,,,,,,,,,,,,,,,,,,,,,,,,,,,,,,,,,,,,,,,,,,,,,,,,,,,,,,,,,,,,,,,,,,,,,,,,,,,,,,,,,,,,,,,,,,,,,,,,,,,,,,,,,,,,,,,,,,,,,,,,,,,,,,,,,,
1725618256.517975,1725618256.518789,135.0,0.0,4250.769043,4235.0,4291.153809,4281.666504,4214.230957,4225.769043,4087.564209,4217.179688,4217.436035,4201.666504,4530.128418,4540.897461,4353.333496,4448.717773,2494.0,2.0,35.0,,,,0.0,4.0,4.0,4.0,4.0,4.0,4.0,4.0,4.0,4.0,4.0,4.0,4.0,4.0,4.0,100.0,,,,,,,,,,,,,,,,,,,,,,,,,,,,,,,,,,,,,,,,,,,,,,,,,,,,,,,,,,,,,,,,,,,,,,,,,,,,,,,,,,,,,,,,,,,,,,,,,,,,,,,,,,,,,,,,,,,,,,,,,,,,,,,,,,,
1725618256.52188,1725618256.522693,136.0,0.0,4251.153809,4237.563965,4292.563965,4282.307617,4214.358887,4222.563965,4089.615479,4220.128418,4217.179688,4202.820313,4535.384766,4543.333496,4356.025879,4453.717773,2473.0,2.0,35.0,,,,0.0,4.0,4.0,4.0,4.0,4.0,4.0,4.0,4.0,4.0,4.0,4.0,4.0,4.0,4.0,100.0,,,,,,,,,,,,,,,,,,,,,,,,,,,,,,,,,,,,,,,,,,,,,,,,,,,,,,,,,,,,,,,,,,,,,,,,,,,,,,,,,,,,,,,,,,,,,,,,,,,,,,,,,,,,,,,,,,,,,,,,,,,,,,,,,,,
1725618256.525784,1725618256.526597,137.0,0.0,4251.538574,4240.641113,4292.94873,4282.05127,4214.487305,4219.743652,4091.025635,4221.794922,4216.794922,4204.230957,4537.692383,4545.0,4358.589844,4458.589844,2555.0,2.0,35.0,,,,0.0,4.0,4.0,4.0,4.0,4.0,4.0,4.0,4.0,4.0,4.0,4.0,4.0,4.0,4.0,100.0,,,,,,,,,,,,,,,,,,,,,,,,,,,,,,,,,,,,,,,,,,,,,,,,,,,,,,,,,,,,,,,,,,,,,,,,,,,,,,,,,,,,,,,,,,,,,,,,,,,,,,,,,,,,,,,,,,,,,,,,,,,,,,,,,,,
1725618256.529688,1725618256.530501,138.0,0.0,4251.794922,4242.436035,4292.436035,4281.666504,4213.974121,4217.94873,4091.410156,4220.897461,4216.282227,4205.0,4535.128418,4544.615234,4359.615234,4461.794922,2889.0,2.0,35.0,,,,0.0,4.0,4.0,4.0,4.0,4.0,4.0,4.0,4.0,4.0,4.0,4.0,4.0,4.0,4.0,100.0,,,,,,,,,,,,,,,,,,,,,,,,,,,,,,,,,,,,,,,,,,,,,,,,,,,,,,,,0.0,0.0,1.0,0.0,1.0,0.0,,,,,,,,,,,,,,,,,,,,,,,,,,,,,,,,,,,,,,,,,,,,,,,,,,,,,,,,,,,,,,,,,,,,,,
1725618256.533592,1725618256.534405,139.0,0.0,4251.666504,4241.538574,4290.897461,4281.282227,4212.692383,4217.179688,4091.025635,4218.205078,4216.410156,4204.871582,4528.974121,4542.436035,4359.102539,4461.794922,3072.0,2.0,35.0,,,,0.0,4.0,4.0,4.0,4.0,4.0,4.0,4.0,4.0,4.0,4.0,4.0,4.0,4.0,4.0,100.0,,,,,,,,,,,,,,,,,,,,,,,,,,,,,,,,,,,,,,,,,,,,,,,,,,,,,,,,,,,,,,,,,,,,,,,,,,,,,,,,,,,,,,,,,,,,,,,,,,,,,,,,,,,,,,,,,,,,,,,,,,,,,,,,,,,
1725618256.537496,1725618256.538209,140.0,0.0,4250.769043,4238.461426,4288.846191,4280.256348,4210.769043,4217.179688,4090.641113,4215.512695,4217.307617,4204.102539,4523.205078,4540.641113,4358.077148,4458.974121,3430.0,2.0,35.0,,,,0.0,4.0,4.0,4.0,4.0,4.0,4.0,4.0,4.0,4.0,4.0,4.0,4.0,4.0,4.0,100.0,,,,,,,,,,,,,,,,,,,,,,,,,,,,,,,,,,,,,,,,,,,,,,,,,,,,,,,,,,,,,,,,,,,,,,,,,,,,,,,,,,,,,,,,,,,,,,,,,,,,,,,,,,,,,,,,,,,,,,,,,,,,,,,,,,,
1725618256.5414,1725618256.542113,141.0,0.0,4249.487305,4234.871582,4286.666504,4277.94873,4208.589844,4217.179688,4090.641113,4214.487305,4218.333496,4203.077148,4520.641113,4540.512695,4357.563965,4454.230957,3901.0,2.0,35.0,,,,0.0,4.0,4.0,4.0,4.0,4.0,4.0,4.0,4.0,4.0,4.0,4.0,4.0,4.0,4.0,100.0,,,,,,,,,,,,,,,,,,,,,,,,,,,,,,,,,,,,,,,,,,,,,,,,,,,,,,,,,,,,,,,,,,,,,,,,,,,,,,,,,,,,,,,,,,,,,,,,,,,,,,,,,,,,,,,,,,,,,,,,,,,,,,,,,,,
1725618256.545304,1725618256.546017,142.0,0.0,4248.205078,4232.563965,4284.615234,4274.487305,4206.794922,4217.563965,4091.538574,4215.512695,4219.487305,4202.436035,4521.922852,4541.794922,4357.307617,4449.230957,2889.0,2.0,35.0,,,,0.0,4.0,4.0,4.0,4.0,4.0,4.0,4.0,4.0,4.0,4.0,4.0,4.0,4.0,4.0,100.0,,,,,,,,,,,,,,,,,,,,,,,,,,,,,,,,,,,,,,,,,,,,,,,,,,,,,,,,,,,,,,,,,,,,,,,,,,,,,,,,,,,,,,,,,,,,,,,,,,,,,,,,,,,,,,,,,,,,,,,,,,,,,,,,,,,
1725618256.549208,1725618256.549922,143.0,0.0,4247.05127,4232.179688,4282.563965,4270.897461,4205.384766,4218.846191,4093.461426,4217.692383,4220.256348,4202.94873,4524.743652,4542.307617,4356.153809,4445.384766,3072.0,2.0,35.0,,,,0.0,4.0,4.0,4.0,4.0,4.0,4.0,4.0,4.0,4.0,4.0,4.0,4.0,4.0,4.0,100.0,,,,,,,,,,,,,,,,,,,,,,,,,,,,,,,,,,,,,,,,,,,,,,,,,,,,,,,,,,,,,,,,,,,,,,,,,,,,,,,,,,,,,,,,,,,,,,,,,,,,,,,,,,,,,,,,,,,,,,,,,,,,,,,,,,,
1725618256.553112,1725618256.553726,144.0,0.0,4245.128418,4232.563965,4280.769043,4268.717773,4204.358887,4221.538574,4095.769287,4219.743652,4220.384766,4204.358887,4526.153809,4540.641113,4353.846191,4442.94873,3430.0,2.0,35.0,,,,0.0,4.0,4.0,4.0,4.0,4.0,4.0,4.0,4.0,4.0,4.0,4.0,4.0,4.0,4.0,100.0,,,,,,,,,,,,,,,,,,,,,,,,,,,,,,,,,,,,,,,,,,,,,,,,,,,,,,,,,,,,,,,,,,,,,,,,,,,,,,,,,,,,,,,,,,,,,,,,,,,,,,,,,,,,,,,,,,,,,,,,,,,,,,,,,,,
1725618256.557016,1725618256.55763,145.0,0.0,4242.179688,4232.436035,4279.230957,4268.077148,4203.333496,4225.128418,4097.307617,4220.512695,4219.743652,4205.256348,4525.128418,4537.692383,4351.410156,4441.794922,3901.0,2.0,35.0,,,,0.0,4.0,4.0,4.0,4.0,4.0,4.0,4.0,4.0,4.0,4.0,4.0,4.0,4.0,4.0,100.0,,,,,,,,,,,,,,,,,,,,,,,,,,,,,,,,,,,,,,,,,,,,,,,,,,,,,,,,,,,,,,,,,,,,,,,,,,,,,,,,,,,,,,,,,,,,,,,,,,,,,,,,,,,,,,,,,,,,,,,,,,,,,,,,,,,
1725618256.560921,1725618256.561534,146.0,0.0,4238.846191,4231.410156,4278.205078,4268.333496,4202.436035,4228.077148,4097.563965,4219.487305,4218.717773,4204.615234,4522.436035,4535.384766,4350.641113,4441.282227,2889.0,2.0,35.0,,,,0.0,4.0,4.0,4.0,4.0,4.0,4.0,4.0,4.0,4.0,4.0,4.0,4.0,4.0,4.0,100.0,,,,,,,,,,,,,,,,,,,,,,,,,,,,,,,,,,,,,,,,,,,,,,,,,,,,,,,,0.0,0.0,1.0,0.0,1.0,0.0,,,,,,,,,,,,,,,,,,,,,,,,,,,,,,,,,,,,,,,,,,,,,,,,,,,,,,,,,,,,,,,,,,,,,,
1725618256.564825,1725618256.565438,147.0,0.0,4236.922852,4230.384766,4278.077148,4268.077148,4202.179688,4229.102539,4097.179688,4217.05127,4218.974121,4202.692383,4520.769043,4534.871582,4352.436035,4441.282227,3072.0,2.0,35.0,,,,0.0,4.0,4.0,4.0,4.0,4.0,4.0,4.0,4.0,4.0,4.0,4.0,4.0,4.0,4.0,100.0,,,,,,,,,,,,,,,,,,,,,,,,,,,,,,,,,,,,,,,,,,,,,,,,,,,,,,,,,,,,,,,,,,,,,,,,,,,,,,,,,,,,,,,,,,,,,,,,,,,,,,,,,,,,,,,,,,,,,,,,,,,,,,,,,,,
1725618256.568729,1725618256.569242,148.0,0.0,4237.05127,4230.641113,4278.717773,4266.922852,4202.692383,4228.461426,4097.179688,4214.743652,4221.153809,4201.410156,4521.153809,4536.538574,4356.153809,4442.307617,3430.0,2.0,35.0,,,,0.0,4.0,4.0,4.0,4.0,4.0,4.0,4.0,4.0,4.0,4.0,4.0,4.0,4.0,4.0,100.0,,,,,,,,,,,,,,,,,,,,,,,,,,,,,,,,,,,,,,,,,,,,,,,,,,,,,,,,,,,,,,,,,,,,,,,,,,,,,,,,,,,,,,,,,,,,,,,,,,,,,,,,,,,,,,,,,,,,,,,,,,,,,,,,,,,
1725618256.572633,1725618256.573146,149.0,0.0,4238.717773,4232.436035,4279.743652,4265.769043,4203.846191,4228.461426,4098.589844,4214.743652,4224.743652,4202.179688,4523.205078,4539.230957,4359.743652,4443.974121,3901.0,2.0,35.0,,,,0.0,4.0,4.0,4.0,4.0,4.0,4.0,4.0,4.0,4.0,4.0,4.0,4.0,4.0,4.0,100.0,,,,,,,,,,,,,,,,,,,,,,,,,,,,,,,,,,,,,,,,,,,,,,,,,,,,,,,,,,,,,,,,,,,,,,,,,,,,,,,,,,,,,,,,,,,,,,,,,,,,,,,,,,,,,,,,,,,,,,,,,,,,,,,,,,,
1725618256.576537,1725618256.57705,150.0,0.0,4240.512695,4235.0,4280.769043,4266.282227,4204.230957,4230.384766,4101.282227,4218.846191,4227.563965,4205.0,4525.384766,4541.922852,4361.538574,4445.897461,2889.0,2.0,35.0,,,,0.0,4.0,4.0,4.0,4.0,4.0,4.0,4.0,4.0,4.0,4.0,4.0,4.0,4.0,4.0,100.0,,,,,,,,,,,,,,,,,,,,,,,,,,,,,,,,,,,,,,,,,,,,,,,,,,,,,,,,,,,,,,,,,,,,,,,,,,,,,,,,,,,,,,,,,,,,,,,,,,,,,,,,,,,,,,,,,,,,,,,,,,,,,,,,,,,
1725618256.580441,1725618256.580955,151.0,0.0,4240.897461,4236.538574,4281.410156,4268.974121,4203.333496,4233.205078,4103.974121,4226.282227,4227.692383,4208.077148,4526.410156,4543.717773,4361.025879,4446.794922,3072.0,2.0,35.0,,,,0.0,4.0,4.0,4.0,4.0,4.0,4.0,4.0,4.0,4.0,4.0,4.0,4.0,4.0,4.0,100.0,,,,,,,,,,,,,,,,,,,,,,,,,,,,,,,,,,,,,,,,,,,,,,,,,,,,,,,,,,,,,,,,,,,,,,,,,,,,,,,,,,,,,,,,,,,,,,,,,,,,,,,,,,,,,,,,,,,,,,,,,,,,,,,,,,,
1725618256.584345,1725618256.584759,152.0,0.0,4240.512695,4236.538574,4281.794922,4273.205078,4202.05127,4234.358887,4105.769043,4233.461426,4225.128418,4209.358887,4526.538574,4544.743652,4359.615234,4446.410156,3430.0,2.0,35.0,,,,0.0,4.0,4.0,4.0,4.0,4.0,4.0,4.0,4.0,4.0,4.0,4.0,4.0,4.0,4.0,100.0,,,,,,,,,,,,,,,,,,,,,,,,,,,,,,,,,,,,,,,,,,,,,,,,,,,,,,,,,,,,,,,,,,,,,,,,,,,,,,,,,,,,,,,,,,,,,,,,,,,,,,,,,,,,,,,,,,,,,,,,,,,,,,,,,,,
1725618256.588249,1725618256.588663,153.0,0.0,4241.153809,4235.769043,4281.794922,4277.179688,4202.307617,4232.05127,4106.538574,4235.897461,4221.794922,4208.205078,4525.769043,4545.384766,4358.205078,4445.256348,3901.0,2.0,35.0,,,,0.0,4.0,4.0,4.0,4.0,4.0,4.0,4.0,4.0,4.0,4.0,4.0,4.0,4.0,4.0,100.0,,,,,,,,,,,,,,,,,,,,,,,,,,,,,,,,,,,,,,,,,,,,,,,,,,,,,,,,,,,,,,,,,,,,,,,,,,,,,,,,,,,,,,,,,,,,,,,,,,,,,,,,,,,,,,,,,,,,,,,,,,,,,,,,,,,
1725618256.592153,1725618256.592567,154.0,0.0,4243.974121,4235.256348,4281.282227,4279.358887,4204.871582,4227.307617,4107.05127,4230.641113,4219.230957,4205.641113,4524.102539,4545.256348,4357.307617,4444.743652,2889.0,2.0,35.0,,,,0.0,4.0,4.0,4.0,4.0,4.0,4.0,4.0,4.0,4.0,4.0,4.0,4.0,4.0,4.0,100.0,,,,,,,,,,,,,,,,,,,,,,,,,,,,,,,,,,,,,,,,,,,,,,,,,,,,,,,,0.0,0.0,1.0,0.0,1.0,0.0,,,,,,,,,,,,,,,,,,,,,,,,,,,,,,,,,,,,,,,,,,,,,,,,,,,,,,,,,,,,,,,,,,,,,,
1725618256.596058,1725618256.596471,155.0,0.0,4248.077148,4235.384766,4280.512695,4279.743652,4208.589844,4222.94873,4108.077148,4219.102539,4217.692383,4203.205078,4521.410156,4543.461426,4356.538574,4445.384766,3072.0,2.0,35.0,,,,0.0,4.0,4.0,4.0,4.0,4.0,4.0,4.0,4.0,4.0,4.0,4.0,4.0,4.0,4.0,100.0,,,,,,,,,,,,,,,,,,,,,,,,,,,,,,,,,,,,,,,,,,,,,,,,,,,,,,,,,,,,,,,,,,,,,,,,,,,,,,,,,,,,,,,,,,,,,,,,,,,,,,,,,,,,,,,,,,,,,,,,,,,,,,,,,,,
1725618256.599962,1725618256.600275,156.0,0.0,4249.871582,4235.897461,4279.487305,4278.846191,4211.153809,4221.538574,4109.487305,4206.153809,4215.769043,4201.794922,4518.846191,4538.974121,4355.641113,4446.282227,3430.0,2.0,35.0,,,,0.0,4.0,4.0,4.0,4.0,4.0,4.0,4.0,4.0,4.0,4.0,4.0,4.0,4.0,4.0,100.0,,,,,,,,,,,,,,,,,,,,,,,,,,,,,,,,,,,,,,,,,,,,,,,,,,,,,,,,,,,,,,,,,,,,,,,,,,,,,,,,,,,,,,,,,,,,,,,,,,,,,,,,,,,,,,,,,,,,,,,,,,,,,,,,,,,
1725618256.603866,1725618256.604179,157.0,0.0,4247.307617,4236.025879,4278.333496,4277.94873,4211.538574,4223.461426,4111.025879,4197.436035,4212.563965,4201.282227,4517.692383,4532.563965,4354.230957,4445.384766,3901.0,2.0,35.0,,,,0.0,4.0,4.0,4.0,4.0,4.0,4.0,4.0,4.0,4.0,4.0,4.0,4.0,4.0,4.0,100.0,,,,,,,,,,,,,,,,,,,,,,,,,,,,,,,,,,,,,,,,,,,,,,,,,,,,,,,,,,,,,,,,,,,,,,,,,,,,,,,,,,,,,,,,,,,,,,,,,,,,,,,,,,,,,,,,,,,,,,,,,,,,,,,,,,,
1725618256.60777,1725618256.608084,158.0,0.0,4241.666504,4236.025879,4277.307617,4277.436035,4210.256348,4226.538574,4112.436035,4195.512695,4208.333496,4200.897461,4518.205078,4526.153809,4352.05127,4442.179688,2889.0,2.0,35.0,,,,0.0,4.0,4.0,4.0,4.0,4.0,4.0,4.0,4.0,4.0,4.0,4.0,4.0,4.0,4.0,100.0,,,,,,,,,,,,,,,,,,,,,,,,,,,,,,,,,,,,,,,,,,,,,,,,,,,,,,,,,,,,,,,,,,,,,,,,,,,,,,,,,,,,,,,,,,,,,,,,,,,,,,,,,,,,,,,,,,,,,,,,,,,,,,,,,,,
1725618256.611674,1725618256.612088,159.0,0.0,4236.666504,4235.897461,4276.538574,4277.05127,4209.102539,4227.820313,4113.717773,4198.846191,4204.487305,4200.0,4519.871582,4522.179688,4349.743652,4438.205078,3072.0,2.0,35.0,,,,0.0,4.0,4.0,4.0,4.0,4.0,4.0,4.0,4.0,4.0,4.0,4.0,4.0,4.0,4.0,100.0,,,,,,,,,,,,,,,,,,,,,,,,,,,,,,,,,,,,,,,,,,,,,,,,,,,,,,,,,,,,,,,,,,,,,,,,,,,,,,,,,,,,,,,,,,,,,,,,,,,,,,,,,,,,,,,,,,,,,,,,,,,,,,,,,,,
1725618256.615578,1725618256.615992,160.0,0.0,4235.769043,4235.769043,4276.922852,4276.666504,4209.102539,4226.153809,4115.128418,4203.333496,4202.692383,4198.717773,4520.769043,4521.794922,4348.589844,4435.897461,3430.0,2.0,35.0,,,,0.0,4.0,4.0,4.0,4.0,4.0,4.0,4.0,4.0,4.0,4.0,4.0,4.0,4.0,4.0,100.0,,,,,,,,,,,,,,,,,,,,,,,,,,,,,,,,,,,,,,,,,,,,,,,,,,,,,,,,,,,,,,,,,,,,,,,,,,,,,,,,,,,,,,,,,,,,,,,,,,,,,,,,,,,,,,,,,,,,,,,,,,,,,,,,,,,
1725618256.619482,1725618256.619896,161.0,0.0,4239.487305,4235.769043,4278.077148,4276.538574,4210.512695,4223.077148,4117.179688,4205.128418,4203.077148,4197.692383,4518.974121,4523.846191,4348.717773,4436.282227,3901.0,2.0,35.0,,,,0.0,4.0,4.0,4.0,4.0,4.0,4.0,4.0,4.0,4.0,4.0,4.0,4.0,4.0,4.0,100.0,,,,,,,,,,,,,,,,,,,,,,,,,,,,,,,,,,,,,,,,,,,,,,,,,,,,,,,,,,,,,,,,,,,,,,,,,,,,,,,,,,,,,,,,,,,,,,,,,,,,,,,,,,,,,,,,,,,,,,,,,,,,,,,,,,,
1725618256.623386,1725618256.6239,162.0,0.0,4245.128418,4235.769043,4279.487305,4276.794922,4212.436035,4220.897461,4119.615234,4203.333496,4204.358887,4197.94873,4514.102539,4526.153809,4349.871582,4438.589844,2889.0,2.0,35.0,,,,0.0,4.0,4.0,4.0,4.0,4.0,4.0,4.0,4.0,4.0,4.0,4.0,4.0,4.0,4.0,100.0,,,,,,,,,,,,,,,,,1.0,0.0,0.0,,,,,,,,,,,,,,,,,,,,,,,,,,,,,,,,,,,,,0.0,0.0,1.0,0.0,1.0,0.0,3.229803,1.135161,1.01198,0.258188,0.111583,2.194833,1.487355,1.149937,0.243234,0.147348,3.100842,1.143629,0.788852,0.260885,0.117739,2.322802,0.941265,0.848925,0.317815,0.084804,0.636225,0.701128,0.738469,0.169089,0.087706,0.456113,0.353745,0.330287,0.157429,0.102978,5.414187,1.165689,0.637779,0.24806,0.059595,0.625104,0.731831,0.232872,0.477453,0.250059,0.868656,0.853111,0.577018,0.22991,0.05546,1.471999,0.938173,0.908271,0.448769,0.148253,2.830593,2.047343,1.157135,0.481624,0.208758,4.18919,2.010188,0.816801,0.594069,0.16462,3.071562,1.988062,1.235718,0.428431,0.157368,3.586265,1.993572,1.295598,0.366045,0.105677
1725618256.62729,1725618256.627804,163.0,0.0,4248.974121,4235.769043,4280.512695,4277.563965,4213.717773,4220.769043,4121.666504,4200.256348,4205.0,4199.230957,4508.333496,4526.922852,4350.641113,4440.256348,3072.0,2.0,35.0,,,,0.0,4.0,4.0,4.0,4.0,4.0,4.0,4.0,4.0,4.0,4.0,4.0,4.0,4.0,4.0,100.0,,,,,,,,,,,,,,,,,,,,,,,,,,,,,,,,,,,,,,,,,,,,,,,,,,,,,,,,,,,,,,,,,,,,,,,,,,,,,,,,,,,,,,,,,,,,,,,,,,,,,,,,,,,,,,,,,,,,,,,,,,,,,,,,,,,
1725618256.631194,1725618256.631708,164.0,0.0,4248.846191,4235.769043,4280.128418,4278.333496,4213.461426,4221.538574,4122.307617,4198.846191,4204.230957,4200.769043,4505.384766,4525.897461,4349.871582,4439.230957,3430.0,2.0,35.0,,,,0.0,4.0,4.0,4.0,4.0,4.0,4.0,4.0,4.0,4.0,4.0,4.0,4.0,4.0,4.0,100.0,,,,,,,,,,,,,,,,,,,,,,,,,,,,,,,,,,,,,,,,,,,,,,,,,,,,,,,,,,,,,,,,,,,,,,,,,,,,,,,,,,,,,,,,,,,,,,,,,,,,,,,,,,,,,,,,,,,,,,,,,,,,,,,,,,,
1725618256.635099,1725618256.635612,165.0,0.0,4246.025879,4235.641113,4278.205078,4278.333496,4211.922852,4221.410156,4121.538574,4200.0,4203.077148,4201.410156,4506.922852,4523.717773,4347.307617,4435.512695,3901.0,2.0,35.0,,,,0.0,4.0,4.0,4.0,4.0,4.0,4.0,4.0,4.0,4.0,4.0,4.0,4.0,4.0,4.0,100.0,,,,,,,,,,,,,,,,,,,,,,,,,,,,,,,,,,,,,,,,,,,,,,,,,,,,,,,,,,,,,,,,,,,,,,,,,,,,,,,,,,,,,,,,,,,,,,,,,,,,,,,,,,,,,,,,,,,,,,,,,,,,,,,,,,,
1725618256.639003,1725618256.639516,166.0,0.0,4242.820313,4235.512695,4275.769043,4276.282227,4210.641113,4220.0,4120.512695,4203.077148,4202.820313,4201.025879,4511.410156,4521.666504,4343.974121,4431.282227,2889.0,2.0,35.0,,,,0.0,4.0,4.0,4.0,4.0,4.0,4.0,4.0,4.0,4.0,4.0,4.0,4.0,4.0,4.0,100.0,,,,,,,,,,,,,,,,,,,,,,,,,,,,,,,,,,,,,,,,,,,,,,,,,,,,,,,,,,,,,,,,,,,,,,,,,,,,,,,,,,,,,,,,,,,,,,,,,,,,,,,,,,,,,,,,,,,,,,,,,,,,,,,,,,,
