Timestamp,OriginalTimestamp,EEG.Counter,EEG.Interpolated,EEG.AF3,EEG.F7,EEG.F3,EEG.FC5,EEG.T7,EEG.P7,EEG.O1,EEG.O2,EEG.P8,EEG.T8,EEG.FC6,EEG.F4,EEG.F8,EEG.AF4,EEG.RawCq,EEG.Battery,EEG.BatteryPercent,MarkerIndex,MarkerType,MarkerValueInt,EEG.MarkerHardware,CQ.AF3,CQ.F7,CQ.F3,CQ.FC5,CQ.T7,CQ.P7,CQ.O1,CQ.O2,CQ.P8,CQ.T8,CQ.FC6,CQ.F4,CQ.F8,CQ.AF4,CQ.Overall,EQ.SampleRateQuality,EQ.OVERALL,EQ.AF3,EQ.F7,EQ.F3,EQ.FC5,EQ.T7,EQ.P7,EQ.O1,EQ.O2,EQ.P8,EQ.T8,EQ.FC6,EQ.F4,EQ.F8,EQ.AF4,MC.Action,MC.ActionPower,MC.IsActive,PM.Attention.IsActive,PM.Attention.Scaled,PM.Attention.Raw,PM.Attention.Min,PM.Attention.Max,PM.Engagement.IsActive,PM.Engagement.Scaled,PM.Engagement.Raw,PM.Engagement.Min,PM.Engagement.Max,PM.Excitement.IsActive,PM.Excitement.Scaled,PM.Excitement.Raw,PM.Excitement.Min,PM.Excitement.Max,PM.LongTermExcitement,PM.Stress.IsActive,PM.Stress.Scaled,PM.Stress.Raw,PM.Stress.Min,PM.Stress.Max,PM.Relaxation.IsActive,PM.Relaxation.Scaled,PM.Relaxation.Raw,PM.Relaxation.Min,PM.Relaxation.Max,PM.Interest.IsActive,PM.Interest.Scaled,PM.Interest.Raw,PM.Interest.Min,PM.Interest.Max,PM.Focus.IsActive,PM.Focus.Scaled,PM.Focus.Raw,PM.Focus.Min,PM.Focus.Max,FE.BlinkWink,FE.HorizontalEyesDirection,FE.UpperFaceAction,FE.UpperFaceActionPower,FE.LowerFaceAction,FE.LowerFaceActionPower,POW.AF3.Theta,POW.AF3.Alpha,POW.AF3.BetaL,POW.AF3.BetaH,POW.AF3.Gamma,POW.F7.Theta,POW.F7.Alpha,POW.F7.BetaL,POW.F7.BetaH,POW.F7.Gamma,POW.F3.Theta,POW.F3.Alpha,POW.F3.BetaL,POW.F3.BetaH,POW.F3.Gamma,POW.FC5.Theta,POW.FC5.Alpha,POW.FC5.BetaL,POW.FC5.BetaH,POW.FC5.Gamma,POW.T7.Theta,POW.T7.Alpha,POW.T7.BetaL,POW.T7.BetaH,POW.T7.Gamma,POW.P7.Theta,POW.P7.Alpha,POW.P7.BetaL,POW.P7.BetaH,POW.P7.Gamma,POW.O1.Theta,POW.O1.Alpha,POW.O1.BetaL,POW.O1.BetaH,POW.O1.Gamma,POW.O2.Theta,POW.O2.Alpha,POW.O2.BetaL,POW.O2.BetaH,POW.O2.Gamma,POW.P8.Theta,POW.P8.Alpha,POW.P8.BetaL,POW.P8.BetaH,POW.P8.Gamma,POW.T8.Theta,POW.T8.Alpha,POW.T8.BetaL,POW.T8.BetaH,POW.T8.Gamma,POW.FC6.Theta,POW.FC6.Alpha,POW.FC6.BetaL,POW.FC6.BetaH,POW.FC6.Gamma,POW.F4.Theta,POW.F4.Alpha,POW.F4.BetaL,POW.F4.BetaH,POW.F4.Gamma,POW.F8.Theta,POW.F8.Alpha,POW.F8.BetaL,POW.F8.BetaH,POW.F8.Gamma,POW.AF4.Theta,POW.AF4.Alpha,POW.AF4.BetaL,POW.AF4.BetaH,POW.AF4.Gamma
1725717264.76321,1725717264.765091,218.0,0.0,4310.897461,4310.256348,4303.974121,4319.487305,4246.538574,4092.05127,4124.102539,4250.256348,4258.333496,4232.179688,4491.025879,4526.538574,4375.384766,4433.205078,2889.0,0.0,11.0,3.0,1.0,1.0,0.0,4.0,4.0,4.0,4.0,4.0,4.0,4.0,4.0,4.0,4.0,4.0,4.0,4.0,4.0,100.0,,,,,,,,,,,,,,,,,,,,,,,,,,,,,,,,,,,,,,,,,,,,,,,,,,,,,,,,,,,,,,,,,,,,,,,,,,,,,,,,,,,,,,,,,,,,,,,,,,,,,,,,,,,,,,,,,,,,,,,,,,,,,,,,,,,
1725717264.767115,1725717264.768995,219.0,0.0,4307.94873,4310.128418,4305.128418,4318.717773,4246.538574,4091.538574,4126.282227,4248.077148,4257.436035,4233.846191,4496.666504,4525.641113,4374.230957,4433.974121,3126.0,0.0,11.0,,,,0.0,4.0,4.0,4.0,4.0,4.0,4.0,4.0,4.0,4.0,4.0,4.0,4.0,4.0,4.0,100.0,,,,,,,,,,,,,,,,,,,,,,,,,,,,,,,,,,,,,,,,,,,,,,,,,,,,,,,,,,,,,,,,,,,,,,,,,,,,,,,,,,,,,,,,,,,,,,,,,,,,,,,,,,,,,,,,,,,,,,,,,,,,,,,,,,,
1725717264.771019,1725717264.772899,220.0,0.0,4305.128418,4309.743652,4305.128418,4317.820313,4246.794922,4090.384521,4127.820313,4246.922852,4258.205078,4235.384766,4500.641113,4524.615234,4371.153809,4433.589844,3450.0,0.0,11.0,,,,0.0,4.0,4.0,4.0,4.0,4.0,4.0,4.0,4.0,4.0,4.0,4.0,4.0,4.0,4.0,100.0,,,,,,,,,,,,,,,,,,,,,,,,,,,,,,,,,,,,,,,,,,,,,,,,,,,,,,,,0.0,0.0,1.0,0.0,1024.0,0.000791,,,,,,,,,,,,,,,,,,,,,,,,,,,,,,,,,,,,,,,,,,,,,,,,,,,,,,,,,,,,,,,,,,,,,,
1725717264.774923,1725717264.776703,221.0,0.0,4304.102539,4309.487305,4303.333496,4317.05127,4246.794922,4089.230713,4128.205078,4247.692383,4259.871582,4235.641113,4500.0,4523.974121,4367.307617,4431.922852,3866.0,0.0,11.0,,,,0.0,4.0,4.0,4.0,4.0,4.0,4.0,4.0,4.0,4.0,4.0,4.0,4.0,4.0,4.0,100.0,,,,,,,,,,,,,,,,,,,,,,,,,,,,,,,,,,,,,,,,,,,,,,,,,,,,,,,,,,,,,,,,,,,,,,,,,,,,,,,,,,,,,,,,,,,,,,,,,,,,,,,,,,,,,,,,,,,,,,,,,,,,,,,,,,,
1725717264.778827,1725717264.780607,222.0,0.0,4305.0,4309.487305,4300.512695,4317.307617,4246.282227,4088.846191,4127.179688,4249.871582,4261.025879,4233.589844,4495.897461,4524.358887,4364.615234,4429.615234,2889.0,0.0,11.0,,,,0.0,4.0,4.0,4.0,4.0,4.0,4.0,4.0,4.0,4.0,4.0,4.0,4.0,4.0,4.0,100.0,,,,,,,,,,,,,,,,,,,,,,,,,,,,,,,,,,,,,,,,,,,,,,,,,,,,,,,,,,,,,,,,,,,,,,,,,,,,,,,,,,,,,,,,,,,,,,,,,,,,,,,,,,,,,,,,,,,,,,,,,,,,,,,,,,,
1725717264.782731,1725717264.784511,223.0,0.0,4306.410156,4309.487305,4298.717773,4318.717773,4245.384766,4089.487061,4125.384766,4251.794922,4260.897461,4230.512695,4492.820313,4525.897461,4364.487305,4428.077148,3126.0,0.0,11.0,,,,0.0,4.0,4.0,4.0,4.0,4.0,4.0,4.0,4.0,4.0,4.0,4.0,4.0,4.0,4.0,100.0,,,,,,,,,,,,,,,,,,,,,,,,,,,,,,,,,,,,,,,,,,,,,,,,,,,,,,,,,,,,,,,,,,,,,,,,,,,,,,,,,,,,,,,,,,,,,,,,,,,,,,,,,,,,,,,,,,,,,,,,,,,,,,,,,,,
1725717264.786635,1725717264.788415,224.0,0.0,4307.436035,4309.743652,4298.717773,4320.897461,4244.871582,4090.384521,4123.974121,4252.436035,4260.769043,4229.615234,4494.230957,4528.589844,4366.922852,4428.589844,3450.0,0.0,11.0,,,,0.0,4.0,4.0,4.0,4.0,4.0,4.0,4.0,4.0,4.0,4.0,4.0,4.0,4.0,4.0,100.0,,,,,,,,,,,,,,,,,,,,,,,,,,,,,,,,,,,,,,,,,,,,,,,,,,,,,,,,,,,,,,,,,,,,,,,,,,,,,,,,,,,,,,,,,,,,,,,,,,,,,,,,,,,,,,,,,,,,,,,,,,,,,,,,,,,
1725717264.790539,1725717264.79222,225.0,0.0,4307.692383,4310.0,4300.512695,4322.307617,4245.256348,4090.128174,4123.461426,4251.538574,4261.794922,4233.077148,4499.487305,4532.179688,4370.256348,4431.025879,3866.0,0.0,11.0,,,,0.0,4.0,4.0,4.0,4.0,4.0,4.0,4.0,4.0,4.0,4.0,4.0,4.0,4.0,4.0,100.0,,,,,,,,,,,,,,,,,,,,,,,,,,,,,,,,,,,,,,,,,,,,,,,,,,,,,,,,,,,,,,,,,,,,,,,,,,,,,,,,,,,,,,,,,,,,,,,,,,,,,,,,,,,,,,,,,,,,,,,,,,,,,,,,,,,
1725717264.794443,1725717264.796124,226.0,0.0,4307.307617,4310.641113,4302.820313,4322.307617,4246.282227,4088.076904,4123.846191,4250.256348,4263.846191,4240.128418,4504.102539,4535.769043,4372.563965,4433.846191,2889.0,0.0,11.0,,,,0.0,4.0,4.0,4.0,4.0,4.0,4.0,4.0,4.0,4.0,4.0,4.0,4.0,4.0,4.0,100.0,,,,,,,,,,,,,,,,,,,,,,,,,,,,,,,,,,,,,,,,,,,,,,,,,,,,,,,,,,,,,,,,,,,,,,,,,,,,,,,,,,,,,,,,,,,,,,,,,,,,,,,,,,,,,,,,,,,,,,,,,,,,,,,,,,,
1725717264.798347,1725717264.800028,227.0,0.0,4306.025879,4311.153809,4303.974121,4320.256348,4246.922852,4084.743652,4124.358887,4249.487305,4265.512695,4246.666504,4503.974121,4538.333496,4372.307617,4435.128418,3126.0,0.0,11.0,,,,0.0,4.0,4.0,4.0,4.0,4.0,4.0,4.0,4.0,4.0,4.0,4.0,4.0,4.0,4.0,100.0,,,,,,,,,,,,,,,,,,,,,,,,,,,,,,,,,,,,,,,,,,,,,,,,,,,,,,,,,,,,,,,,,,,,,,,,,,,,,,,,,,,,,,,,,,,,,,,,,,,,,,,,,,,,,,,,,,,,,,,,,,,,,,,,,,,
1725717264.802251,1725717264.803932,228.0,0.0,4303.461426,4311.410156,4303.333496,4317.179688,4246.538574,4081.666748,4124.487305,4249.743652,4265.384766,4248.333496,4499.358887,4538.846191,4369.743652,4434.615234,3450.0,0.0,11.0,,,,0.0,4.0,4.0,4.0,4.0,4.0,4.0,4.0,4.0,4.0,4.0,4.0,4.0,4.0,4.0,100.0,,,,,,,,,,,,,,,,,,,,,,,,,,,,,,,,,,,,,,,,,,,,,,,,,,,,,,,,0.0,0.0,1.0,0.0,1024.0,0.000791,,,,,,,,,,,,,,,,,,,,,,,,,,,,,,,,,,,,,,,,,,,,,,,,,,,,,,,,,,,,,,,,,,,,,,
1725717264.806156,1725717264.807736,229.0,0.0,4300.512695,4311.282227,4301.410156,4314.615234,4245.769043,4080.384521,4124.871582,4250.769043,4263.974121,4244.230957,4493.717773,4537.179688,4366.666504,4432.820313,3866.0,0.0,11.0,,,,0.0,4.0,4.0,4.0,4.0,4.0,4.0,4.0,4.0,4.0,4.0,4.0,4.0,4.0,4.0,100.0,,,,,,,,,,,,,,,,,,,,,,,,,,,,,,,,,,,,,,,,,,,,,,,,,,,,,,,,,,,,,,,,,,,,,,,,,,,,,,,,,,,,,,,,,,,,,,,,,,,,,,,,,,,,,,,,,,,,,,,,,,,,,,,,,,,
1725717264.81006,1725717264.81164,230.0,0.0,4298.589844,4311.410156,4299.871582,4314.615234,4245.641113,4081.281982,4125.769043,4253.205078,4263.077148,4237.563965,4491.538574,4534.743652,4365.128418,4431.282227,2889.0,0.0,11.0,,,,0.0,4.0,4.0,4.0,4.0,4.0,4.0,4.0,4.0,4.0,4.0,4.0,4.0,4.0,4.0,100.0,,,,,,,,,,,,,,,,,,,,,,,,,,,,,,,,,,,,,,,,,,,,,,,,,,,,,,,,,,,,,,,,,,,,,,,,,,,,,,,,,,,,,,,,,,,,,,,,,,,,,,,,,,,,,,,,,,,,,,,,,,,,,,,,,,,
1725717264.813964,1725717264.815544,231.0,0.0,4299.102539,4312.179688,4300.512695,4317.05127,4246.666504,4083.205078,4127.436035,4256.922852,4263.717773,4232.563965,4494.487305,4533.717773,4366.025879,4431.282227,3126.0,0.0,11.0,,,,0.0,4.0,4.0,4.0,4.0,4.0,4.0,4.0,4.0,4.0,4.0,4.0,4.0,4.0,4.0,100.0,,,,,,,,,,,,,,,,,,,,,,,,,,,,,,,,,,,,,,,,,,,,,,,,,,,,,,,,,,,,,,,,,,,,,,,,,,,,,,,,,,,,,,,,,,,,,,,,,,,,,,,,,,,,,,,,,,,,,,,,,,,,,,,,,,,
1725717264.817868,1725717264.819548,232.0,0.0,4301.666504,4313.461426,4303.077148,4320.128418,4247.692383,4084.230713,4128.974121,4261.538574,4265.897461,4232.692383,4500.0,4535.641113,4367.820313,4432.820313,3450.0,0.0,11.0,,,,0.0,4.0,4.0,4.0,4.0,4.0,4.0,4.0,4.0,4.0,4.0,4.0,4.0,4.0,4.0,100.0,,,,,,,,,,,,,,,,,,,,,,,,,,,,,,,,,,,,,,,,,,,,,,,,,,,,,,,,,,,,,,,,,,,,,,,,,,,,,,,,,,,,,,,,,,,,,,,,,,,,,,,,,,,,,,,,,,,,,,,,,,,,,,,,,,,
1725717264.821772,1725717264.823453,233.0,0.0,4304.871582,4314.358887,4305.641113,4321.794922,4247.307617,4083.333252,4129.102539,4265.512695,4268.077148,4237.820313,4503.333496,4539.615234,4369.102539,4435.0,3866.0,0.0,11.0,,,,0.0,4.0,4.0,4.0,4.0,4.0,4.0,4.0,4.0,4.0,4.0,4.0,4.0,4.0,4.0,100.0,,,,,,,,,,,,,,,,,,,,,,,,,,,,,,,,,,,,,,,,,,,,,,,,,,,,,,,,,,,,,,,,,,,,,,,,,,,,,,,,,,,,,,,,,,,,,,,,,,,,,,,,,,,,,,,,,,,,,,,,,,,,,,,,,,,
1725717264.825676,1725717264.827357,234.0,0.0,4306.153809,4314.487305,4305.512695,4320.897461,4245.641113,4081.666748,4127.563965,4267.307617,4268.846191,4245.128418,4502.307617,4543.077148,4369.102539,4436.410156,2889.0,0.0,11.0,,,,0.0,4.0,4.0,4.0,4.0,4.0,4.0,4.0,4.0,4.0,4.0,4.0,4.0,4.0,4.0,100.0,,,,,,,,,,,,,,,,,,,,,,,,,,,,,,,,,,,,,,,,,,,,,,,,,,,,,,,,,,,,,,,,,,,,,,,,,,,,,,,,,,,,,,,,,,,,,,,,,,,,,,,,,,,,,,,,,,,,,,,,,,,,,,,,,,,
1725717264.82958,1725717264.831261,235.0,0.0,4304.230957,4314.358887,4302.307617,4318.333496,4244.487305,4081.153809,4125.384766,4266.538574,4267.94873,4250.256348,4499.102539,4543.717773,4369.102539,4436.025879,3126.0,0.0,11.0,,,,0.0,4.0,4.0,4.0,4.0,4.0,4.0,4.0,4.0,4.0,4.0,4.0,4.0,4.0,4.0,100.0,,,,,,,,,,,,,,,,,,,,,,,,,,,,,,,,,,,,,,,,,,,,,,,,,,,,,,,,,,,,,,,,,,,,,,,,,,,,,,,,,,,,,,,,,,,,,,,,,,,,,,,,,,,,,,,,,,,,,,,,,,,,,,,,,,,
1725717264.833484,1725717264.835165,236.0,0.0,4300.256348,4314.743652,4297.94873,4315.641113,4245.384766,4083.076904,4123.846191,4264.358887,4266.538574,4250.769043,4498.333496,4541.794922,4370.128418,4434.230957,3450.0,0.0,11.0,,,,0.0,4.0,4.0,4.0,4.0,4.0,4.0,4.0,4.0,4.0,4.0,4.0,4.0,4.0,4.0,100.0,,,,,,,,,,,,,,,,,,,,,,,,,,,,,,,,,,,,,,,,,,,,,,,,,,,,,,,,0.0,0.0,1.0,0.0,1024.0,0.000791,,,,,,,,,,,,,,,,,,,,,,,,,,,,,,,,,,,,,,,,,,,,,,,,,,,,,,,,,,,,,,,,,,,,,,
1725717264.837388,1725717264.838969,237.0,0.0,4296.922852,4315.769043,4295.256348,4313.846191,4247.94873,4086.666748,4123.846191,4262.820313,4265.769043,4247.436035,4502.436035,4539.358887,4372.307617,4432.436035,3866.0,0.0,11.0,,,,0.0,4.0,4.0,4.0,4.0,4.0,4.0,4.0,4.0,4.0,4.0,4.0,4.0,4.0,4.0,100.0,,,,,,,,,,,,,,,,,,,,,,,,,,,,,,,,,,,,,,,,,,,,,,,,,,,,,,,,,,,,,,,,,,,,,,,,,,,,,,,,,,,,,,,,,,,,,,,,,,,,,,,,,,,,,,,,,,,,,,,,,,,,,,,,,,,
1725717264.841292,1725717264.842873,238.0,0.0,4296.282227,4316.282227,4295.641113,4313.077148,4249.743652,4089.871826,4124.615234,4262.94873,4265.769043,4242.820313,4508.717773,4538.205078,4373.974121,4431.666504,2889.0,0.0,11.0,,,,0.0,4.0,4.0,4.0,4.0,4.0,4.0,4.0,4.0,4.0,4.0,4.0,4.0,4.0,4.0,100.0,,,,,,,,,,,,,,,,,,,,,,,,,,,,,,,,,,,,,,,,,,,,,,,,,,,,,,,,,,,,,,,,,,,,,,,,,,,,,,,,,,,,,,,,,,,,,,,,,,,,,,,,,,,,,,,,,,,,,,,,,,,,,,,,,,,
1725717264.845196,1725717264.846777,239.0,0.0,4297.820313,4314.615234,4297.820313,4313.077148,4248.333496,4090.512939,4125.0,4264.230957,4265.256348,4238.846191,4511.410156,4538.589844,4372.820313,4431.666504,3126.0,0.0,11.0,,,,0.0,4.0,4.0,4.0,4.0,4.0,4.0,4.0,4.0,4.0,4.0,4.0,4.0,4.0,4.0,100.0,,,,,,,,,,,,,,,,,,,,,,,,,,,,,,,,,,,,,,,,,,,,,,,,,,,,,,,,,,,,,,,,,,,,,,,,,,,,,,,,,,,,,,,,,,,,,,,,,,,,,,,,,,,,,,,,,,,,,,,,,,,,,,,,,,,
1725717264.8491,1725717264.850781,240.0,0.0,4298.974121,4310.0,4299.230957,4313.077148,4243.205078,4088.076904,4124.358887,4264.871582,4263.461426,4235.512695,4507.563965,4538.333496,4367.94873,4431.025879,3450.0,0.0,11.0,,,,0.0,4.0,4.0,4.0,4.0,4.0,4.0,4.0,4.0,4.0,4.0,4.0,4.0,4.0,4.0,100.0,,,,,,,,,,,,,,,,,,,,,,,,,,,,,,,,,,,,,,,,,,,,,,,,,,,,,,,,,,,,,,,,,,,,,,,,,,,,,,,,,,,,,,,,,,,,,,,,,,,,,,,,,,,,,,,,,,,,,,,,,,,,,,,,,,,
1725717264.853005,1725717264.854685,241.0,0.0,4297.05127,4303.461426,4298.461426,4312.05127,4237.05127,4083.589844,4123.461426,4263.077148,4260.128418,4231.538574,4499.102539,4535.128418,4361.025879,4429.102539,3866.0,0.0,11.0,,,,0.0,4.0,4.0,4.0,4.0,4.0,4.0,4.0,4.0,4.0,4.0,4.0,4.0,4.0,4.0,100.0,,,,,,,,,,,,,,,,,,,,,,,,,,,,,,,,,,,,,,,,,,,,,,,,,,,,,,,,,,,,,,,,,,,,,,,,,,,,,,,,,,,,,,,,,,,,,,,,,,,,,,,,,,,,,,,,,,,,,,,,,,,,,,,,,,,
1725717264.856909,1725717264.858589,242.0,0.0,4291.538574,4297.307617,4294.743652,4309.230957,4232.94873,4079.358887,4122.94873,4258.205078,4255.641113,4226.025879,4490.769043,4528.205078,4354.487305,4425.897461,2889.0,0.0,11.0,,,,0.0,4.0,4.0,4.0,4.0,4.0,4.0,4.0,4.0,4.0,4.0,4.0,4.0,4.0,4.0,100.0,,,,,,,,,,,,,,,,,,,,,,,,,,,,,,,,,,,,,,,,,,,,,,,,,,,,,,,,,,,,,,,,,,,,,,,,,,,,,,,,,,,,,,,,,,,,,,,,,,,,,,,,,,,,,,,,,,,,,,,,,,,,,,,,,,,
1725717264.860813,1725717264.862494,243.0,0.0,4284.871582,4292.692383,4288.461426,4303.717773,4232.307617,4076.923096,4122.692383,4251.410156,4250.897461,4219.743652,4484.358887,4518.461426,4349.743652,4421.538574,3126.0,0.0,11.0,,,,0.0,4.0,4.0,4.0,4.0,4.0,4.0,4.0,4.0,4.0,4.0,4.0,4.0,4.0,4.0,100.0,,,,,,,,,,,,,,,,,,,,,,,,,,,,,,,,,,,,,,,,,,,,,,,,,,,,,,,,,,,,,,,,,,,,,,,,,,,,,,,,,,,,,,,,,,,,,,,,,,,,,,,,,,,,,,,,,,,,,,,,,,,,,,,,,,,
1725717264.864717,1725717264.866298,244.0,0.0,4279.102539,4288.461426,4280.512695,4295.769043,4233.461426,4076.281982,4121.538574,4243.846191,4246.538574,4213.717773,4478.205078,4508.077148,4345.384766,4414.743652,3450.0,0.0,11.0,,,,0.0,4.0,4.0,4.0,4.0,4.0,4.0,4.0,4.0,4.0,4.0,4.0,4.0,4.0,4.0,100.0,,,,,,,,,,,,,,,,,1.0,0.0,0.0,,,,,,,,,,,,,,,,,,,,,,,,,,,,,,,,,,,,,0.0,0.0,1.0,0.0,1024.0,0.005551,1.716702,2.100519,0.734253,0.245259,0.050155,1.584429,1.422988,0.668819,0.23563,0.076709,1.311602,1.459011,0.608222,0.203762,0.060186,1.190998,1.126438,0.3601,0.313308,0.077051,0.531084,0.444061,0.306991,0.07969,0.045161,0.588664,0.174733,0.040832,0.07573,0.036793,1.967829,0.255277,0.237941,0.112191,0.066846,0.462644,0.767735,1.303527,0.325358,0.144039,0.693724,1.195002,1.156357,0.194344,0.086215,1.37117,1.905341,1.117818,0.263165,0.17169,2.709632,4.147082,1.867272,0.93187,0.309868,3.29448,3.543669,1.950964,0.628012,0.230302,4.703187,3.780548,1.890701,0.683964,0.146639,2.84163,2.854287,1.599985,0.392251,0.122927
1725717264.868621,1725717264.870202,245.0,0.0,4274.230957,4282.307617,4272.436035,4286.922852,4232.94873,4076.410156,4118.461426,4236.922852,4243.205078,4208.333496,4469.358887,4498.333496,4339.230957,4404.871582,3866.0,0.0,11.0,,,,0.0,4.0,4.0,4.0,4.0,4.0,4.0,4.0,4.0,4.0,4.0,4.0,4.0,4.0,4.0,100.0,,,,,,,,,,,,,,,,,,,,,,,,,,,,,,,,,,,,,,,,,,,,,,,,,,,,,,,,,,,,,,,,,,,,,,,,,,,,,,,,,,,,,,,,,,,,,,,,,,,,,,,,,,,,,,,,,,,,,,,,,,,,,,,,,,,
1725717264.872525,1725717264.874106,246.0,0.0,4268.974121,4273.717773,4265.897461,4279.230957,4228.589844,4076.025635,4113.974121,4231.410156,4240.641113,4202.820313,4457.692383,4489.615234,4330.384766,4392.820313,2889.0,0.0,11.0,,,,0.0,4.0,4.0,4.0,4.0,4.0,4.0,4.0,4.0,4.0,4.0,4.0,4.0,4.0,4.0,100.0,,,,,,,,,,,,,,,,,,,,,,,,,,,,,,,,,,,,,,,,,,,,,,,,,,,,,,,,,,,,,,,,,,,,,,,,,,,,,,,,,,,,,,,,,,,,,,,,,,,,,,,,,,,,,,,,,,,,,,,,,,,,,,,,,,,
1725717264.876429,1725717264.87801,247.0,0.0,4263.333496,4264.871582,4261.794922,4274.358887,4221.666504,4074.615479,4109.871582,4228.974121,4239.102539,4198.077148,4447.692383,4483.077148,4321.153809,4381.922852,3126.0,0.0,11.0,,,,0.0,4.0,4.0,4.0,4.0,4.0,4.0,4.0,4.0,4.0,4.0,4.0,4.0,4.0,4.0,100.0,,,,,,,,,,,,,,,,,,,,,,,,,,,,,,,,,,,,,,,,,,,,,,,,,,,,,,,,,,,,,,,,,,,,,,,,,,,,,,,,,,,,,,,,,,,,,,,,,,,,,,,,,,,,,,,,,,,,,,,,,,,,,,,,,,,
1725717264.880333,1725717264.881814,248.0,0.0,4259.743652,4260.0,4260.256348,4273.461426,4216.538574,4072.564209,4108.077148,4231.153809,4239.102539,4196.922852,4445.0,4481.538574,4315.769043,4376.922852,3450.0,0.0,11.0,,,,0.0,4.0,4.0,4.0,4.0,4.0,4.0,4.0,4.0,4.0,4.0,4.0,4.0,4.0,4.0,100.0,,,,,,,,,,,,,,,,,,,,,,,,,,,,,,,,,,,,,,,,,,,,,,,,,,,,,,,,,,,,,,,,,,,,,,,,,,,,,,,,,,,,,,,,,,,,,,,,,,,,,,,,,,,,,,,,,,,,,,,,,,,,,,,,,,,
1725717264.884237,1725717264.885718,249.0,0.0,4261.025879,4262.179688,4261.922852,4276.538574,4216.282227,4071.538574,4109.487305,4238.205078,4242.563965,4202.307617,4452.05127,4488.077148,4318.205078,4380.897461,3866.0,0.0,11.0,,,,0.0,4.0,4.0,4.0,4.0,4.0,4.0,4.0,4.0,4.0,4.0,4.0,4.0,4.0,4.0,100.0,,,,,,,,,,,,,,,,,,,,,,,,,,,,,,,,,,,,,,,,,,,,,,,,,,,,,,,,,,,,,,,,,,,,,,,,,,,,,,,,,,,,,,,,,,,,,,,,,,,,,,,,,,,,,,,,,,,,,,,,,,,,,,,,,,,
1725717264.888142,1725717264.889622,250.0,0.0,4268.333496,4270.897461,4267.179688,4283.205078,4221.153809,4073.205078,4113.589844,4248.846191,4250.512695,4214.615234,4466.794922,4502.692383,4328.974121,4393.974121,2889.0,0.0,11.0,,,,0.0,4.0,4.0,4.0,4.0,4.0,4.0,4.0,4.0,4.0,4.0,4.0,4.0,4.0,4.0,100.0,,,,,,,,,,,,,,,,,,,,,,,,,,,,,,,,,,,,,,,,,,,,,,,,,,,,,,,,,,,,,,,,,,,,,,,,,,,,,,,,,,,,,,,,,,,,,,,,,,,,,,,,,,,,,,,,,,,,,,,,,,,,,,,,,,,
1725717264.892046,1725717264.893627,251.0,0.0,4278.974121,4282.307617,4275.512695,4291.538574,4228.077148,4077.692383,4118.589844,4259.743652,4262.179688,4230.256348,4484.358887,4520.512695,4345.0,4412.05127,3126.0,0.0,11.0,,,,0.0,4.0,4.0,4.0,4.0,4.0,4.0,4.0,4.0,4.0,4.0,4.0,4.0,4.0,4.0,100.0,,,,,,,,,,,,,,,,,,,,,,,,,,,,,,,,,,,,,,,,,,,,,,,,,,,,,,,,,,,,,,,,,,,,,,,,,,,,,,,,,,,,,,,,,,,,,,,,,,,,,,,,,,,,,,,,,,,,,,,,,,,,,,,,,,,
1725717264.89595,1725717264.897531,252.0,0.0,4289.358887,4292.692383,4284.615234,4299.358887,4233.846191,4083.461426,4123.717773,4267.307617,4273.846191,4244.358887,4500.769043,4534.358887,4361.410156,4428.974121,3450.0,0.0,11.0,,,,0.0,4.0,4.0,4.0,4.0,4.0,4.0,4.0,4.0,4.0,4.0,4.0,4.0,4.0,4.0,100.0,,,,,,,,,,,,,,,,,,,,,,,,,,,,,,,,,,,,,,,,,,,,,,,,,,,,,,,,0.0,0.0,1.0,0.0,1024.0,0.005551,,,,,,,,,,,,,,,,,,,,,,,,,,,,,,,,,,,,,,,,,,,,,,,,,,,,,,,,,,,,,,,,,,,,,,
1725717264.899854,1725717264.901435,253.0,0.0,4296.666504,4300.0,4292.307617,4305.641113,4237.05127,4088.333252,4128.589844,4270.0,4281.025879,4253.077148,4513.589844,4539.743652,4374.487305,4440.512695,3866.0,0.0,11.0,,,,0.0,4.0,4.0,4.0,4.0,4.0,4.0,4.0,4.0,4.0,4.0,4.0,4.0,4.0,4.0,100.0,,,,,,,,,,,,,,,,,,,,,,,,,,,,,,,,,,,,,,,,,,,,,,,,,,,,,,,,,,,,,,,,,,,,,,,,,,,,,,,,,,,,,,,,,,,,,,,,,,,,,,,,,,,,,,,,,,,,,,,,,,,,,,,,,,,
1725717264.903758,1725717264.905339,254.0,0.0,4300.641113,4305.256348,4297.436035,4310.384766,4239.358887,4090.769287,4133.205078,4269.102539,4281.666504,4255.384766,4521.282227,4538.717773,4382.307617,4445.512695,2889.0,0.0,11.0,,,,0.0,4.0,4.0,4.0,4.0,4.0,4.0,4.0,4.0,4.0,4.0,4.0,4.0,4.0,4.0,100.0,,,,,,,,,,,,,,,,,,,,,,,,,,,,,,,,,,,,,,,,,,,,,,,,,,,,,,,,,,,,,,,,,,,,,,,,,,,,,,,,,,,,,,,,,,,,,,,,,,,,,,,,,,,,,,,,,,,,,,,,,,,,,,,,,,,
1725717264.907662,1725717264.909343,255.0,0.0,4302.436035,4309.230957,4300.0,4314.102539,4242.563965,4090.256348,4137.436035,4266.922852,4277.05127,4253.077148,4522.94873,4537.94873,4384.487305,4446.025879,11.0,0.0,11.0,,,,0.0,4.0,4.0,4.0,4.0,4.0,4.0,4.0,4.0,4.0,4.0,4.0,4.0,4.0,4.0,100.0,,,,,,,,,,,,,,,,,,,,,,,,,,,,,,,,,,,,,,,,,,,,,,,,,,,,,,,,,,,,,,,,,,,,,,,,,,,,,,,,,,,,,,,,,,,,,,,,,,,,,,,,,,,,,,,,,,,,,,,,,,,,,,,,,,,
1725717264.911566,1725717264.913247,0.0,0.0,4303.717773,4311.922852,4300.769043,4316.666504,4246.666504,4087.564209,4140.256348,4265.897461,4270.769043,4249.615234,4518.205078,4542.179688,4381.922852,4445.256348,2693.0,0.0,11.0,,,,0.0,4.0,4.0,4.0,4.0,4.0,4.0,4.0,4.0,4.0,4.0,4.0,4.0,4.0,4.0,100.0,,,,,,,,,,,,,,,,,,,,,,,,,,,,,,,,,,,,,,,,,,,,,,,,,,,,,,,,,,,,,,,,,,,,,,,,,,,,,,,,,,,,,,,,,,,,,,,,,,,,,,,,,,,,,,,,,,,,,,,,,,,,,,,,,,,
1725717264.91547,1725717264.917151,1.0,0.0,4305.0,4312.563965,4300.128418,4317.307617,4249.871582,4083.974365,4141.153809,4266.153809,4266.410156,4247.563965,4509.358887,4549.615234,4376.922852,4444.871582,2578.0,0.0,11.0,,,,0.0,4.0,4.0,4.0,4.0,4.0,4.0,4.0,4.0,4.0,4.0,4.0,4.0,4.0,4.0,100.0,,,,,,,,,,,,,,,,,,,,,,,,,,,,,,,,,,,,,,,,,,,,,,,,,,,,,,,,,,,,,,,,,,,,,,,,,,,,,,,,,,,,,,,,,,,,,,,,,,,,,,,,,,,,,,,,,,,,,,,,,,,,,,,,,,,
1725717264.919374,1725717264.921055,2.0,0.0,4305.769043,4311.153809,4298.846191,4315.512695,4251.025879,4081.281982,4140.512695,4266.410156,4264.871582,4247.179688,4501.922852,4554.615234,4372.692383,4444.487305,2505.0,0.0,11.0,,,,0.0,4.0,4.0,4.0,4.0,4.0,4.0,4.0,4.0,4.0,4.0,4.0,4.0,4.0,4.0,100.0,,,,,,,,,,,,,,,,,,,,,,,,,,,,,,,,,,,,,,,,,,,,,,,,,,,,,,,,,,,,,,,,,,,,,,,,,,,,,,,,,,,,,,,,,,,,,,,,,,,,,,,,,,,,,,,,,,,,,,,,,,,,,,,,,,,
1725717264.923278,1725717264.925059,3.0,0.0,4305.769043,4309.743652,4297.692383,4312.436035,4250.256348,4080.0,4139.615234,4265.256348,4265.0,4247.436035,4501.410156,4552.692383,4373.333496,4443.846191,2471.0,0.0,11.0,,,,0.0,4.0,4.0,4.0,4.0,4.0,4.0,4.0,4.0,4.0,4.0,4.0,4.0,4.0,4.0,100.0,,,,,,,,,,,,,,,,,,,,,,,,,,,,,,,,,,,,,,,,,,,,,,,,,,,,,,,,,,,,,,,,,,,,,,,,,,,,,,,,,,,,,,,,,,,,,,,,,,,,,,,,,,,,,,,,,,,,,,,,,,,,,,,,,,,
1725717264.927183,1725717264.928963,4.0,0.0,4306.025879,4310.769043,4297.94873,4310.769043,4248.717773,4080.512939,4140.0,4262.692383,4265.641113,4247.820313,4508.717773,4545.0,4380.256348,4443.077148,2441.0,0.0,11.0,,,,0.0,4.0,4.0,4.0,4.0,4.0,4.0,4.0,4.0,4.0,4.0,4.0,4.0,4.0,4.0,100.0,,,,,,,,,,,,,,,,,,,,,,,,,,,,,,,,,,,,,,,,,,,,,,,,,,,,,,,,0.0,0.0,1.0,0.0,1024.0,0.005551,,,,,,,,,,,,,,,,,,,,,,,,,,,,,,,,,,,,,,,,,,,,,,,,,,,,,,,,,,,,,,,,,,,,,,
1725717264.931087,1725717264.932867,5.0,0.0,4307.692383,4315.256348,4300.384766,4312.692383,4247.820313,4081.923096,4141.538574,4260.512695,4265.512695,4247.692383,4519.102539,4538.077148,4390.512695,4443.846191,2386.0,0.0,11.0,,,,0.0,4.0,4.0,4.0,4.0,4.0,4.0,4.0,4.0,4.0,4.0,4.0,4.0,4.0,4.0,100.0,,,,,,,,,,,,,,,,,,,,,,,,,,,,,,,,,,,,,,,,,,,,,,,,,,,,,,,,,,,,,,,,,,,,,,,,,,,,,,,,,,,,,,,,,,,,,,,,,,,,,,,,,,,,,,,,,,,,,,,,,,,,,,,,,,,
1725717264.934991,1725717264.936771,6.0,0.0,4311.025879,4321.025879,4304.743652,4317.94873,4247.94873,4083.333252,4142.820313,4260.384766,4265.0,4247.307617,4525.897461,4537.436035,4398.461426,4446.538574,2436.0,0.0,11.0,,,,0.0,4.0,4.0,4.0,4.0,4.0,4.0,4.0,4.0,4.0,4.0,4.0,4.0,4.0,4.0,100.0,,,,,,,,,,,,,,,,,,,,,,,,,,,,,,,,,,,,,,,,,,,,,,,,,,,,,,,,,,,,,,,,,,,,,,,,,,,,,,,,,,,,,,,,,,,,,,,,,,,,,,,,,,,,,,,,,,,,,,,,,,,,,,,,,,,
1725717264.938895,1725717264.940676,7.0,0.0,4314.230957,4324.487305,4309.102539,4323.461426,4248.846191,4083.846191,4142.692383,4262.179688,4264.743652,4246.538574,4525.641113,4543.077148,4399.358887,4449.871582,2494.0,0.0,11.0,,,,0.0,4.0,4.0,4.0,4.0,4.0,4.0,4.0,4.0,4.0,4.0,4.0,4.0,4.0,4.0,100.0,,,,,,,,,,,,,,,,,,,,,,,,,,,,,,,,,,,,,,,,,,,,,,,,,,,,,,,,,,,,,,,,,,,,,,,,,,,,,,,,,,,,,,,,,,,,,,,,,,,,,,,,,,,,,,,,,,,,,,,,,,,,,,,,,,,
1725717264.942799,1725717264.94448,8.0,0.0,4314.743652,4322.94873,4310.512695,4325.897461,4249.487305,4083.718018,4140.897461,4264.487305,4265.512695,4245.897461,4519.230957,4549.487305,4392.307617,4450.769043,2476.0,0.0,11.0,,,,0.0,4.0,4.0,4.0,4.0,4.0,4.0,4.0,4.0,4.0,4.0,4.0,4.0,4.0,4.0,100.0,,,,,,,,,,,,,,,,,,,,,,,,,,,,,,,,,,,,,,,,,,,,,,,,,,,,,,,,,,,,,,,,,,,,,,,,,,,,,,,,,,,,,,,,,,,,,,,,,,,,,,,,,,,,,,,,,,,,,,,,,,,,,,,,,,,
1725717264.946703,1725717264.948384,9.0,0.0,4311.666504,4317.307617,4307.307617,4323.717773,4248.846191,4083.461426,4138.974121,4265.0,4266.538574,4245.641113,4510.384766,4550.128418,4381.025879,4447.563965,2570.0,0.0,11.0,,,,0.0,4.0,4.0,4.0,4.0,4.0,4.0,4.0,4.0,4.0,4.0,4.0,4.0,4.0,4.0,100.0,,,,,,,,,,,,,,,,,,,,,,,,,,,,,,,,,,,,,,,,,,,,,,,,,,,,,,,,,,,,,,,,,,,,,,,,,,,,,,,,,,,,,,,,,,,,,,,,,,,,,,,,,,,,,,,,,,,,,,,,,,,,,,,,,,,
1725717264.950607,1725717264.952388,10.0,0.0,4305.512695,4311.025879,4300.0,4317.820313,4247.05127,4083.718018,4138.333496,4262.436035,4266.538574,4246.153809,4502.820313,4542.692383,4371.025879,4440.769043,2889.0,0.0,11.0,,,,0.0,4.0,4.0,4.0,4.0,4.0,4.0,4.0,4.0,4.0,4.0,4.0,4.0,4.0,4.0,100.0,,,,,,,,,,,,,,,,,,,,,,,,,,,,,,,,,,,,,,,,,,,,,,,,,,,,,,,,,,,,,,,,,,,,,,,,,,,,,,,,,,,,,,,,,,,,,,,,,,,,,,,,,,,,,,,,,,,,,,,,,,,,,,,,,,,
1725717264.954511,1725717264.956292,11.0,0.0,4299.102539,4307.436035,4291.025879,4311.153809,4243.974121,4083.846191,4138.717773,4257.563965,4264.743652,4246.538574,4498.589844,4530.769043,4365.897461,4432.692383,3117.0,0.0,11.0,,,,0.0,4.0,4.0,4.0,4.0,4.0,4.0,4.0,4.0,4.0,4.0,4.0,4.0,4.0,4.0,100.0,,,,,,,,,,,,,,,,,,,,,,,,,,,,,,,,,,,,,,,,,,,,,,,,,,,,,,,,,,,,,,,,,,,,,,,,,,,,,,,,,,,,,,,,,,,,,,,,,,,,,,,,,,,,,,,,,,,,,,,,,,,,,,,,,,,
1725717264.958415,1725717264.960196,12.0,0.0,4294.487305,4307.307617,4282.820313,4306.410156,4240.256348,4083.461426,4139.102539,4252.307617,4262.436035,4246.025879,4497.05127,4520.641113,4365.512695,4426.025879,3410.0,0.0,11.0,,,,0.0,4.0,4.0,4.0,4.0,4.0,4.0,4.0,4.0,4.0,4.0,4.0,4.0,4.0,4.0,100.0,,,,,,,,,,,,,,,,,,,,,,,,,,,,,,,,,,,,,,,,,,,,,,,,,,,,,,,,0.0,0.0,1.0,0.0,1024.0,0.005551,,,,,,,,,,,,,,,,,,,,,,,,,,,,,,,,,,,,,,,,,,,,,,,,,,,,,,,,,,,,,,,,,,,,,,
1725717264.962319,1725717264.9641,13.0,0.0,4292.563965,4308.974121,4277.436035,4304.871582,4236.922852,4082.179443,4138.589844,4248.846191,4261.153809,4243.846191,4495.769043,4517.05127,4366.794922,4422.307617,3846.0,0.0,11.0,,,,0.0,4.0,4.0,4.0,4.0,4.0,4.0,4.0,4.0,4.0,4.0,4.0,4.0,4.0,4.0,100.0,,,,,,,,,,,,,,,,,,,,,,,,,,,,,,,,,,,,,,,,,,,,,,,,,,,,,,,,,,,,,,,,,,,,,,,,,,,,,,,,,,,,,,,,,,,,,,,,,,,,,,,,,,,,,,,,,,,,,,,,,,,,,,,,,,,
1725717264.966224,1725717264.968004,14.0,0.0,4292.692383,4310.256348,4274.871582,4305.512695,4235.128418,4080.384521,4137.436035,4248.589844,4261.410156,4239.871582,4492.820313,4518.974121,4366.666504,4421.410156,2889.0,0.0,11.0,,,,0.0,4.0,4.0,4.0,4.0,4.0,4.0,4.0,4.0,4.0,4.0,4.0,4.0,4.0,4.0,100.0,,,,,,,,,,,,,,,,,,,,,,,,,,,,,,,,,,,,,,,,,,,,,,,,,,,,,,,,,,,,,,,,,,,,,,,,,,,,,,,,,,,,,,,,,,,,,,,,,,,,,,,,,,,,,,,,,,,,,,,,,,,,,,,,,,,
1725717264.970128,1725717264.971808,15.0,0.0,4293.461426,4310.0,4274.358887,4306.666504,4235.256348,4078.974365,4136.410156,4251.538574,4262.563965,4235.897461,4489.102539,4522.436035,4364.743652,4422.05127,3117.0,0.0,11.0,,,,0.0,4.0,4.0,4.0,4.0,4.0,4.0,4.0,4.0,4.0,4.0,4.0,4.0,4.0,4.0,100.0,,,,,,,,,,,,,,,,,,,,,,,,,,,,,,,,,,,,,,,,,,,,,,,,,,,,,,,,,,,,,,,,,,,,,,,,,,,,,,,,,,,,,,,,,,,,,,,,,,,,,,,,,,,,,,,,,,,,,,,,,,,,,,,,,,,
1725717264.974032,1725717264.975713,16.0,0.0,4293.846191,4308.846191,4274.615234,4306.794922,4236.025879,4078.205078,4135.769043,4256.666504,4263.717773,4233.974121,4487.436035,4523.717773,4362.94873,4423.205078,3410.0,0.0,11.0,,,,0.0,4.0,4.0,4.0,4.0,4.0,4.0,4.0,4.0,4.0,4.0,4.0,4.0,4.0,4.0,100.0,,,,,,,,,,,,,,,,,,,,,,,,,,,,,,,,,,,,,,,,,,,,,,,,,,,,,,,,,,,,,,,,,,,,,,,,,,,,,,,,,,,,,,,,,,,,,,,,,,,,,,,,,,,,,,,,,,,,,,,,,,,,,,,,,,,
1725717264.977936,1725717264.979617,17.0,0.0,4293.333496,4308.205078,4275.0,4305.641113,4236.153809,4078.076904,4135.769043,4261.410156,4264.615234,4235.512695,4490.0,4522.692383,4363.077148,4424.487305,3846.0,0.0,11.0,,,,0.0,4.0,4.0,4.0,4.0,4.0,4.0,4.0,4.0,4.0,4.0,4.0,4.0,4.0,4.0,100.0,,,,,,,,,,,,,,,,,,,,,,,,,,,,,,,,,,,,,,,,,,,,,,,,,,,,,,,,,,,,,,,,,,,,,,,,,,,,,,,,,,,,,,,,,,,,,,,,,,,,,,,,,,,,,,,,,,,,,,,,,,,,,,,,,,,
1725717264.98184,1725717264.983521,18.0,0.0,4292.692383,4308.461426,4275.256348,4304.102539,4235.128418,4077.94873,4136.794922,4262.820313,4265.512695,4239.743652,4495.512695,4521.025879,4364.743652,4425.897461,2889.0,0.0,11.0,,,,0.0,4.0,4.0,4.0,4.0,4.0,4.0,4.0,4.0,4.0,4.0,4.0,4.0,4.0,4.0,100.0,,,,,,,,,,,,,,,,,,,,,,,,,,,,,,,,,,,,,,,,,,,,,,,,,,,,,,,,,,,,,,,,,,,,,,,,,,,,,,,,,,,,,,,,,,,,,,,,,,,,,,,,,,,,,,,,,,,,,,,,,,,,,,,,,,,
1725717264.985744,1725717264.987325,19.0,0.0,4292.820313,4309.230957,4275.384766,4303.461426,4234.358887,4077.307617,4138.846191,4260.0,4266.410156,4243.846191,4500.641113,4519.743652,4366.538574,4427.179688,3117.0,0.0,11.0,,,,0.0,4.0,4.0,4.0,4.0,4.0,4.0,4.0,4.0,4.0,4.0,4.0,4.0,4.0,4.0,100.0,,,,,,,,,,,,,,,,,,,,,,,,,,,,,,,,,,,,,,,,,,,,,,,,,,,,,,,,,,,,,,,,,,,,,,,,,,,,,,,,,,,,,,,,,,,,,,,,,,,,,,,,,,,,,,,,,,,,,,,,,,,,,,,,,,,
1725717264.989648,1725717264.991229,20.0,0.0,4294.358887,4309.358887,4275.641113,4304.615234,4234.871582,4076.281982,4141.922852,4254.615234,4267.05127,4245.641113,4502.436035,4519.743652,4367.179688,4428.333496,3410.0,0.0,11.0,,,,0.0,4.0,4.0,4.0,4.0,4.0,4.0,4.0,4.0,4.0,4.0,4.0,4.0,4.0,4.0,100.0,,,,,,,,,,,,,,,,,1.0,0.0,0.0,,,,,,,,,,,,,,,,,,,,,,,,,,,,,,,,,,,,,0.0,0.0,1.0,0.0,1024.0,0.022505,1.564145,1.864841,0.689388,0.230871,0.051257,1.627095,1.293189,0.650944,0.22902,0.078445,1.217259,1.35061,0.524378,0.179108,0.062794,1.159383,1.033054,0.315144,0.296339,0.083524,0.528054,0.428187,0.27499,0.073798,0.041669,0.652116,0.175547,0.039015,0.073431,0.034837,2.313662,0.239057,0.204876,0.128018,0.062956,0.467017,0.77124,1.208503,0.285092,0.16305,0.684157,1.11661,1.014672,0.183294,0.094201,1.251633,1.641718,0.995161,0.27398,0.19764,2.33729,3.660043,1.629334,0.815368,0.32203,3.147279,3.203935,1.572672,0.544305,0.233756,4.075157,3.259067,1.624097,0.609899,0.148868,2.598168,2.525348,1.394959,0.349983,0.143336
1725717264.993552,1725717264.995133,21.0,0.0,4296.794922,4308.974121,4276.538574,4307.307617,4236.922852,4075.512939,4145.641113,4250.256348,4267.179688,4245.384766,4501.153809,4521.922852,4366.794922,4429.871582,3846.0,0.0,11.0,,,,0.0,4.0,4.0,4.0,4.0,4.0,4.0,4.0,4.0,4.0,4.0,4.0,4.0,4.0,4.0,100.0,,,,,,,,,,,,,,,,,,,,,,,,,,,,,,,,,,,,,,,,,,,,,,,,,,,,,,,,,,,,,,,,,,,,,,,,,,,,,,,,,,,,,,,,,,,,,,,,,,,,,,,,,,,,,,,,,,,,,,,,,,,,,,,,,,,
1725717264.997456,1725717264.999137,22.0,0.0,4298.974121,4308.333496,4277.94873,4310.256348,4239.487305,4076.025635,4149.102539,4249.743652,4266.794922,4245.384766,4498.974121,4526.410156,4366.410156,4432.179688,2889.0,0.0,11.0,,,,0.0,4.0,4.0,4.0,4.0,4.0,4.0,4.0,4.0,4.0,4.0,4.0,4.0,4.0,4.0,100.0,,,,,,,,,,,,,,,,,,,,,,,,,,,,,,,,,,,,,,,,,,,,,,,,,,,,,,,,,,,,,,,,,,,,,,,,,,,,,,,,,,,,,,,,,,,,,,,,,,,,,,,,,,,,,,,,,,,,,,,,,,,,,,,,,,,
1725717265.00136,1725717265.003041,23.0,0.0,4300.256348,4308.717773,4279.358887,4312.307617,4241.666504,4077.435791,4151.410156,4253.333496,4266.410156,4246.794922,4498.461426,4532.307617,4367.05127,4435.641113,3117.0,0.0,11.0,,,,0.0,4.0,4.0,4.0,4.0,4.0,4.0,4.0,4.0,4.0,4.0,4.0,4.0,4.0,4.0,100.0,,,,,,,,,,,,,,,,,,,,,,,,,,,,,,,,,,,,,,,,,,,,,,,,,,,,,,,,,,,,,,,,,,,,,,,,,,,,,,,,,,,,,,,,,,,,,,,,,,,,,,,,,,,,,,,,,,,,,,,,,,,,,,,,,,,
1725717265.005264,1725717265.006945,24.0,0.0,4300.128418,4310.256348,4280.256348,4312.820313,4242.820313,4078.974365,4152.307617,4258.717773,4266.025879,4248.205078,4500.769043,4537.05127,4369.230957,4439.358887,3410.0,0.0,11.0,,,,0.0,4.0,4.0,4.0,4.0,4.0,4.0,4.0,4.0,4.0,4.0,4.0,4.0,4.0,4.0,100.0,,,,,,,,,,,,,,,,,,,,,,,,,,,,,,,,,,,,,,,,,,,,,,,,,,,,,,,,,,,,,,,,,,,,,,,,,,,,,,,,,,,,,,,,,,,,,,,,,,,,,,,,,,,,,,,,,,,,,,,,,,,,,,,,,,,
1725717265.009169,1725717265.01085,25.0,0.0,4298.974121,4312.563965,4281.025879,4311.794922,4243.589844,4079.743652,4151.922852,4262.820313,4266.025879,4247.179688,4504.743652,4538.205078,4371.922852,4441.922852,3846.0,0.0,11.0,,,,0.0,4.0,4.0,4.0,4.0,4.0,4.0,4.0,4.0,4.0,4.0,4.0,4.0,4.0,4.0,100.0,,,,,,,,,,,,,,,,,,,,,,,,,,,,,,,,,,,,,,,,,,,,,,,,,,,,,,,,,,,,,,,,,,,,,,,,,,,,,,,,,,,,,,,,,,,,,,,,,,,,,,,,,,,,,,,,,,,,,,,,,,,,,,,,,,,
1725717265.013073,1725717265.014854,26.0,0.0,4297.179688,4314.615234,4281.282227,4310.384766,4245.128418,4079.615479,4151.153809,4263.974121,4266.025879,4243.077148,4508.077148,4535.256348,4374.102539,4441.538574,2889.0,0.0,11.0,,,,0.0,4.0,4.0,4.0,4.0,4.0,4.0,4.0,4.0,4.0,4.0,4.0,4.0,4.0,4.0,100.0,,,,,,,,,,,,,,,,,,,,,,,,,,,,,,,,,,,,,,,,,,,,,,,,,,,,,,,,,,,,,,,,,,,,,,,,,,,,,,,,,,,,,,,,,,,,,,,,,,,,,,,,,,,,,,,,,,,,,,,,,,,,,,,,,,,
1725717265.016977,1725717265.018758,27.0,0.0,4295.256348,4315.256348,4280.897461,4309.615234,4247.436035,4079.615479,4151.153809,4262.563965,4266.025879,4238.205078,4507.692383,4530.0,4374.871582,4438.077148,3117.0,0.0,11.0,,,,0.0,4.0,4.0,4.0,4.0,4.0,4.0,4.0,4.0,4.0,4.0,4.0,4.0,4.0,4.0,100.0,,,,,,,,,,,,,,,,,,,,,,,,,,,,,,,,,,,,,,,,,,,,,,,,,,,,,,,,,,,,,,,,,,,,,,,,,,,,,,,,,,,,,,,,,,,,,,,,,,,,,,,,,,,,,,,,,,,,,,,,,,,,,,,,,,,
1725717265.020881,1725717265.022662,28.0,0.0,4293.846191,4313.974121,4279.102539,4310.128418,4249.615234,4080.641113,4152.307617,4261.153809,4266.153809,4235.512695,4502.05127,4525.256348,4373.974121,4432.94873,3410.0,0.0,11.0,,,,0.0,4.0,4.0,4.0,4.0,4.0,4.0,4.0,4.0,4.0,4.0,4.0,4.0,4.0,4.0,100.0,,,,,,,,,,,,,,,,,,,,,,,,,,,,,,,,,,,,,,,,,,,,,,,,,,,,,,,,0.0,0.0,1.0,0.0,1024.0,0.022505,,,,,,,,,,,,,,,,,,,,,,,,,,,,,,,,,,,,,,,,,,,,,,,,,,,,,,,,,,,,,,,,,,,,,,
1725717265.024785,1725717265.026566,29.0,0.0,4293.461426,4312.05127,4276.025879,4311.410156,4250.512695,4082.692383,4154.102539,4261.794922,4266.153809,4236.538574,4493.846191,4523.205078,4371.922852,4428.974121,3846.0,0.0,11.0,,,,0.0,4.0,4.0,4.0,4.0,4.0,4.0,4.0,4.0,4.0,4.0,4.0,4.0,4.0,4.0,100.0,,,,,,,,,,,,,,,,,,,,,,,,,,,,,,,,,,,,,,,,,,,,,,,,,,,,,,,,,,,,,,,,,,,,,,,,,,,,,,,,,,,,,,,,,,,,,,,,,,,,,,,,,,,,,,,,,,,,,,,,,,,,,,,,,,,
1725717265.028689,1725717265.03057,30.0,0.0,4293.846191,4311.153809,4272.692383,4312.179688,4250.256348,4084.487061,4155.384766,4263.974121,4265.897461,4239.487305,4487.820313,4524.102539,4369.358887,4427.820313,2889.0,0.0,11.0,,,,0.0,4.0,4.0,4.0,4.0,4.0,4.0,4.0,4.0,4.0,4.0,4.0,4.0,4.0,4.0,100.0,,,,,,,,,,,,,,,,,,,,,,,,,,,,,,,,,,,,,,,,,,,,,,,,,,,,,,,,,,,,,,,,,,,,,,,,,,,,,,,,,,,,,,,,,,,,,,,,,,,,,,,,,,,,,,,,,,,,,,,,,,,,,,,,,,,
1725717265.032593,1725717265.034474,31.0,0.0,4293.974121,4311.794922,4269.487305,4311.922852,4249.230957,4084.615479,4155.769043,4265.641113,4265.128418,4241.410156,4487.179688,4526.538574,4366.794922,4428.589844,3117.0,0.0,11.0,,,,0.0,4.0,4.0,4.0,4.0,4.0,4.0,4.0,4.0,4.0,4.0,4.0,4.0,4.0,4.0,100.0,,,,,,,,,,,,,,,,,,,,,,,,,,,,,,,,,,,,,,,,,,,,,,,,,,,,,,,,,,,,,,,,,,,,,,,,,,,,,,,,,,,,,,,,,,,,,,,,,,,,,,,,,,,,,,,,,,,,,,,,,,,,,,,,,,,
1725717265.036497,1725717265.038378,32.0,0.0,4292.436035,4312.436035,4266.666504,4310.641113,4248.333496,4083.205078,4155.512695,4264.871582,4264.230957,4240.256348,4490.897461,4527.692383,4364.487305,4428.333496,0.0,0.0,11.0,,,,0.0,4.0,4.0,4.0,4.0,4.0,4.0,4.0,4.0,4.0,4.0,4.0,4.0,4.0,4.0,100.0,,,,,,,,,,,,,,,,,,,,,,,,,,,,,,,,,,,,,,,,,,,,,,,,,,,,,,,,,,,,,,,,,,,,,,,,,,,,,,,,,,,,,,,,,,,,,,,,,,,,,,,,,,,,,,,,,,,,,,,,,,,,,,,,,,,
1725717265.040401,1725717265.042282,33.0,0.0,4289.102539,4311.410156,4264.871582,4308.974121,4248.205078,4081.666748,4155.256348,4262.05127,4262.820313,4236.794922,4494.871582,4525.897461,4362.307617,4425.641113,0.0,0.0,11.0,,,,0.0,4.0,4.0,4.0,4.0,4.0,4.0,4.0,4.0,4.0,4.0,4.0,4.0,4.0,4.0,100.0,,,,,,,,,,,,,,,,,,,,,,,,,,,,,,,,,,,,,,,,,,,,,,,,,,,,,,,,,,,,,,,,,,,,,,,,,,,,,,,,,,,,,,,,,,,,,,,,,,,,,,,,,,,,,,,,,,,,,,,,,,,,,,,,,,,
1725717265.044305,1725717265.046186,34.0,0.0,4285.0,4307.94873,4263.974121,4306.922852,4249.230957,4081.281982,4155.512695,4258.717773,4261.282227,4232.94873,4496.025879,4521.666504,4360.256348,4421.025879,0.0,0.0,11.0,,,,0.0,4.0,4.0,4.0,4.0,4.0,4.0,4.0,4.0,4.0,4.0,4.0,4.0,4.0,4.0,100.0,,,,,,,,,,,,,,,,,,,,,,,,,,,,,,,,,,,,,,,,,,,,,,,,,,,,,,,,,,,,,,,,,,,,,,,,,,,,,,,,,,,,,,,,,,,,,,,,,,,,,,,,,,,,,,,,,,,,,,,,,,,,,,,,,,,
1725717265.04821,1725717265.04999,35.0,0.0,4281.666504,4303.333496,4264.230957,4304.102539,4251.410156,4082.05127,4156.538574,4256.666504,4260.512695,4230.897461,4494.102539,4517.179688,4358.846191,4417.179688,0.0,0.0,11.0,,,,0.0,4.0,4.0,4.0,4.0,4.0,4.0,4.0,4.0,4.0,4.0,4.0,4.0,4.0,4.0,100.0,,,,,,,,,,,,,,,,,,,,,,,,,,,,,,,,,,,,,,,,,,,,,,,,,,,,,,,,,,,,,,,,,,,,,,,,,,,,,,,,,,,,,,,,,,,,,,,,,,,,,,,,,,,,,,,,,,,,,,,,,,,,,,,,,,,
1725717265.052114,1725717265.053895,36.0,0.0,4280.512695,4299.487305,4264.358887,4300.897461,4253.974121,4082.820557,4158.205078,4256.025879,4261.282227,4231.282227,4490.641113,4513.589844,4358.205078,4415.769043,0.0,0.0,11.0,,,,0.0,4.0,4.0,4.0,4.0,4.0,4.0,4.0,4.0,4.0,4.0,4.0,4.0,4.0,4.0,100.0,,,,,,,,,,,,,,,,,,,,,,,,,,,,,,,,,,,,,,,,,,,,,,,,,,,,,,,,0.0,0.0,1.0,0.0,1024.0,0.022505,,,,,,,,,,,,,,,,,,,,,,,,,,,,,,,,,,,,,,,,,,,,,,,,,,,,,,,,,,,,,,,,,,,,,,
1725717265.056018,1725717265.057799,37.0,0.0,4281.025879,4297.94873,4263.846191,4298.205078,4256.410156,4082.179443,4160.641113,4255.512695,4262.436035,4232.692383,4487.05127,4510.384766,4358.333496,4416.282227,0.0,0.0,11.0,,,,0.0,4.0,4.0,4.0,4.0,4.0,4.0,4.0,4.0,4.0,4.0,4.0,4.0,4.0,4.0,100.0,,,,,,,,,,,,,,,,,,,,,,,,,,,,,,,,,,,,,,,,,,,,,,,,,,,,,,,,,,,,,,,,,,,,,,,,,,,,,,,,,,,,,,,,,,,,,,,,,,,,,,,,,,,,,,,,,,,,,,,,,,,,,,,,,,,
1725717265.059922,1725717265.061603,38.0,0.0,4281.794922,4298.333496,4262.05127,4296.922852,4258.589844,4080.256348,4163.333496,4253.974121,4262.563965,4233.333496,4483.589844,4506.538574,4358.205078,4416.794922,0.0,0.0,11.0,,,,0.0,4.0,4.0,4.0,4.0,4.0,4.0,4.0,4.0,4.0,4.0,4.0,4.0,4.0,4.0,100.0,,,,,,,,,,,,,,,,,,,,,,,,,,,,,,,,,,,,,,,,,,,,,,,,,,,,,,,,,,,,,,,,,,,,,,,,,,,,,,,,,,,,,,,,,,,,,,,,,,,,,,,,,,,,,,,,,,,,,,,,,,,,,,,,,,,
1725717265.063826,1725717265.065507,39.0,0.0,4281.538574,4299.230957,4260.0,4297.179688,4259.743652,4077.564209,4165.897461,4251.282227,4260.897461,4232.436035,4480.512695,4502.179688,4357.05127,4415.641113,0.0,0.0,11.0,,,,0.0,4.0,4.0,4.0,4.0,4.0,4.0,4.0,4.0,4.0,4.0,4.0,4.0,4.0,4.0,100.0,,,,,,,,,,,,,,,,,,,,,,,,,,,,,,,,,,,,,,,,,,,,,,,,,,,,,,,,,,,,,,,,,,,,,,,,,,,,,,,,,,,,,,,,,,,,,,,,,,,,,,,,,,,,,,,,,,,,,,,,,,,,,,,,,,,
1725717265.06773,1725717265.069411,40.0,0.0,4279.871582,4299.102539,4258.589844,4297.820313,4259.871582,4075.641113,4167.692383,4248.589844,4258.333496,4231.538574,4478.589844,4499.230957,4354.615234,4413.205078,0.0,0.0,11.0,,,,0.0,4.0,4.0,4.0,4.0,4.0,4.0,4.0,4.0,4.0,4.0,4.0,4.0,4.0,4.0,100.0,,,,,,,,,,,,,,,,,,,,,,,,,,,,,,,,,,,,,,,,,,,,,,,,,,,,,,,,,,,,,,,,,,,,,,,,,,,,,,,,,,,,,,,,,,,,,,,,,,,,,,,,,,,,,,,,,,,,,,,,,,,,,,,,,,,
1725717265.071634,1725717265.073415,41.0,0.0,4278.077148,4298.077148,4258.461426,4298.077148,4259.743652,4075.641113,4168.846191,4246.794922,4256.410156,4232.179688,4477.820313,4498.589844,4351.794922,4410.897461,0.0,0.0,11.0,,,,0.0,4.0,4.0,4.0,4.0,4.0,4.0,4.0,4.0,4.0,4.0,4.0,4.0,4.0,4.0,100.0,,,,,,,,,,,,,,,,,,,,,,,,,,,,,,,,,,,,,,,,,,,,,,,,,,,,,,,,,,,,,,,,,,,,,,,,,,,,,,,,,,,,,,,,,,,,,,,,,,,,,,,,,,,,,,,,,,,,,,,,,,,,,,,,,,,
1725717265.075538,1725717265.077319,42.0,0.0,4277.692383,4296.922852,4259.230957,4297.820313,4260.128418,4077.564209,4169.102539,4246.282227,4255.512695,4233.846191,4477.692383,4500.256348,4349.743652,4410.0,0.0,0.0,11.0,,,,0.0,4.0,4.0,4.0,4.0,4.0,4.0,4.0,4.0,4.0,4.0,4.0,4.0,4.0,4.0,100.0,,,,,,,,,,,,,,,,,,,,,,,,,,,,,,,,,,,,,,,,,,,,,,,,,,,,,,,,,,,,,,,,,,,,,,,,,,,,,,,,,,,,,,,,,,,,,,,,,,,,,,,,,,,,,,,,,,,,,,,,,,,,,,,,,,,
1725717265.079442,1725717265.081223,43.0,0.0,4278.846191,4296.666504,4259.615234,4297.307617,4261.282227,4080.256348,4168.717773,4246.410156,4255.0,4234.487305,4477.563965,4502.436035,4349.358887,4410.512695,0.0,0.0,11.0,,,,0.0,4.0,4.0,4.0,4.0,4.0,4.0,4.0,4.0,4.0,4.0,4.0,4.0,4.0,4.0,100.0,,,,,,,,,,,,,,,,,,,,,,,,,,,,,,,,,,,,,,,,,,,,,,,,,,,,,,,,,,,,,,,,,,,,,,,,,,,,,,,,,,,,,,,,,,,,,,,,,,,,,,,,,,,,,,,,,,,,,,,,,,,,,,,,,,,
1725717265.083346,1725717265.085127,44.0,0.0,4279.743652,4297.05127,4259.358887,4296.666504,4262.436035,4082.307617,4168.077148,4246.666504,4254.358887,4232.307617,4477.307617,4503.974121,4350.0,4411.153809,0.0,0.0,11.0,,,,0.0,4.0,4.0,4.0,4.0,4.0,4.0,4.0,4.0,4.0,4.0,4.0,4.0,4.0,4.0,100.0,,,,,,,,,,,,,,,,,,,,,,,,,,,,,,,,,,,,,,,,,,,,,,,,,,,,,,,,0.0,0.0,1.0,0.0,1024.0,0.022505,,,,,,,,,,,,,,,,,,,,,,,,,,,,,,,,,,,,,,,,,,,,,,,,,,,,,,,,,,,,,,,,,,,,,,
1725717265.087251,1725717265.089032,45.0,0.0,4279.102539,4297.94873,4258.333496,4296.025879,4262.692383,4082.94873,4168.333496,4246.922852,4253.461426,4228.589844,4477.563965,4504.358887,4350.384766,4411.153809,0.0,0.0,11.0,,,,0.0,4.0,4.0,4.0,4.0,4.0,4.0,4.0,4.0,4.0,4.0,4.0,4.0,4.0,4.0,100.0,,,,,,,,,,,,,,,,,,,,,,,,,,,,,,,,,,,,,,,,,,,,,,,,,,,,,,,,,,,,,,,,,,,,,,,,,,,,,,,,,,,,,,,,,,,,,,,,,,,,,,,,,,,,,,,,,,,,,,,,,,,,,,,,,,,
1725717265.091155,1725717265.092836,46.0,0.0,4277.307617,4298.589844,4257.05127,4295.641113,4262.05127,4082.435791,4170.512695,4247.307617,4253.205078,4226.025879,4478.717773,4503.846191,4349.743652,4410.897461,0.0,0.0,11.0,,,,0.0,4.0,4.0,4.0,4.0,4.0,4.0,4.0,4.0,4.0,4.0,4.0,4.0,4.0,4.0,100.0,,,,,,,,,,,,,,,,,,,,,,,,,,,,,,,,,,,,,,,,,,,,,,,,,,,,,,,,,,,,,,,,,,,,,,,,,,,,,,,,,,,,,,,,,,,,,,,,,,,,,,,,,,,,,,,,,,,,,,,,,,,,,,,,,,,
1725717265.095059,1725717265.09674,47.0,0.0,4276.538574,4298.846191,4256.666504,4295.897461,4261.410156,4082.05127,4174.615234,4248.205078,4254.102539,4226.666504,4481.282227,4503.461426,4348.974121,4411.025879,0.0,0.0,11.0,,,,0.0,4.0,4.0,4.0,4.0,4.0,4.0,4.0,4.0,4.0,4.0,4.0,4.0,4.0,4.0,100.0,,,,,,,,,,,,,,,,,,,,,,,,,,,,,,,,,,,,,,,,,,,,,,,,,,,,,,,,,,,,,,,,,,,,,,,,,,,,,,,,,,,,,,,,,,,,,,,,,,,,,,,,,,,,,,,,,,,,,,,,,,,,,,,,,,,
1725717265.098963,1725717265.100644,48.0,0.0,4278.589844,4299.230957,4257.94873,4297.436035,4261.410156,4082.94873,4179.358887,4249.615234,4256.153809,4229.615234,4484.615234,4504.487305,4349.743652,4412.05127,0.0,0.0,11.0,,,,0.0,4.0,4.0,4.0,4.0,4.0,4.0,4.0,4.0,4.0,4.0,4.0,4.0,4.0,4.0,100.0,,,,,,,,,,,,,,,,,,,,,,,,,,,,,,,,,,,,,,,,,,,,,,,,,,,,,,,,,,,,,,,,,,,,,,,,,,,,,,,,,,,,,,,,,,,,,,,,,,,,,,,,,,,,,,,,,,,,,,,,,,,,,,,,,,,
1725717265.102867,1725717265.104648,49.0,0.0,4283.077148,4300.512695,4261.025879,4299.871582,4262.05127,4085.0,4183.205078,4251.282227,4258.205078,4232.820313,4487.94873,4507.692383,4352.307617,4413.589844,0.0,0.0,11.0,,,,0.0,4.0,4.0,4.0,4.0,4.0,4.0,4.0,4.0,4.0,4.0,4.0,4.0,4.0,4.0,100.0,,,,,,,,,,,,,,,,,,,,,,,,,,,,,,,,,,,,,,,,,,,,,,,,,,,,,,,,,,,,,,,,,,,,,,,,,,,,,,,,,,,,,,,,,,,,,,,,,,,,,,,,,,,,,,,,,,,,,,,,,,,,,,,,,,,
1725717265.106771,1725717265.108552,50.0,0.0,4287.436035,4302.94873,4264.487305,4302.692383,4262.692383,4087.435791,4184.743652,4251.794922,4258.974121,4234.615234,4490.512695,4512.179688,4355.769043,4414.871582,0.0,0.0,11.0,,,,0.0,4.0,4.0,4.0,4.0,4.0,4.0,4.0,4.0,4.0,4.0,4.0,4.0,4.0,4.0,100.0,,,,,,,,,,,,,,,,,,,,,,,,,,,,,,,,,,,,,,,,,,,,,,,,,,,,,,,,,,,,,,,,,,,,,,,,,,,,,,,,,,,,,,,,,,,,,,,,,,,,,,,,,,,,,,,,,,,,,,,,,,,,,,,,,,,
1725717265.110675,1725717265.112456,51.0,0.0,4289.102539,4305.0,4266.410156,4304.871582,4262.692383,4089.358887,4184.743652,4250.769043,4258.589844,4234.487305,4492.05127,4516.666504,4358.717773,4415.512695,0.0,0.0,11.0,,,,0.0,4.0,4.0,4.0,4.0,4.0,4.0,4.0,4.0,4.0,4.0,4.0,4.0,4.0,4.0,100.0,,,,,,,,,,,,,,,,,,,,,,,,,,,,,,,,,,,,,,,,,,,,,,,,,,,,,,,,,,,,,,,,,,,,,,,,,,,,,,,,,,,,,,,,,,,,,,,,,,,,,,,,,,,,,,,,,,,,,,,,,,,,,,,,,,,
1725717265.114579,1725717265.11636,52.0,0.0,4287.563965,4305.384766,4266.410156,4305.512695,4262.563965,4090.128174,4184.487305,4249.358887,4258.205078,4233.589844,4492.820313,4520.384766,4360.0,4416.025879,0.0,0.0,11.0,,,,0.0,4.0,4.0,4.0,4.0,4.0,4.0,4.0,4.0,4.0,4.0,4.0,4.0,4.0,4.0,100.0,1.0,75.0,4.0,4.0,4.0,4.0,4.0,4.0,1.0,4.0,4.0,4.0,4.0,4.0,4.0,4.0,1.0,0.0,0.0,,,,,,,,,,,,,,,,,,,,,,,,,,,,,,,,,,,,,0.0,0.0,1.0,0.0,1.0,0.0,1.277515,1.513607,0.614678,0.20648,0.053594,1.805317,1.174077,0.653032,0.222584,0.089964,1.016957,1.175529,0.421338,0.152217,0.067216,1.032951,0.884077,0.262507,0.250794,0.087691,0.4891,0.442761,0.228666,0.067006,0.04012,0.705974,0.193984,0.041458,0.072799,0.033566,2.408991,0.209362,0.172901,0.147685,0.060815,0.488513,0.805056,1.010005,0.240347,0.176913,0.682427,0.986778,0.790379,0.172316,0.101557,1.083944,1.292859,0.80233,0.278968,0.217848,1.848578,2.913386,1.277116,0.692119,0.361354,2.850887,2.715479,1.137243,0.447056,0.224011,3.149553,2.468414,1.25902,0.502791,0.150358,2.174623,2.041822,1.110797,0.292114,0.158608
1725717265.118483,1725717265.120364,53.0,0.0,4284.358887,4303.974121,4265.384766,4304.358887,4262.563965,4090.0,4185.128418,4249.102539,4258.974121,4233.077148,4492.563965,4523.461426,4359.743652,4417.179688,0.0,0.0,11.0,,,,0.0,4.0,4.0,4.0,4.0,4.0,4.0,4.0,4.0,4.0,4.0,4.0,4.0,4.0,4.0,100.0,,,,,,,,,,,,,,,,,,,,,,,,,,,,,,,,,,,,,,,,,,,,,,,,,,,,,,,,,,,,,,,,,,,,,,,,,,,,,,,,,,,,,,,,,,,,,,,,,,,,,,,,,,,,,,,,,,,,,,,,,,,,,,,,,,,
1725717265.122388,1725717265.124268,54.0,0.0,4281.666504,4301.538574,4265.128418,4301.794922,4262.436035,4089.487061,4186.282227,4250.897461,4260.769043,4233.205078,4491.282227,4526.410156,4358.077148,4418.589844,0.0,0.0,11.0,,,,0.0,4.0,4.0,4.0,4.0,4.0,4.0,4.0,4.0,4.0,4.0,4.0,4.0,4.0,4.0,100.0,,,,,,,,,,,,,,,,,,,,,,,,,,,,,,,,,,,,,,,,,,,,,,,,,,,,,,,,,,,,,,,,,,,,,,,,,,,,,,,,,,,,,,,,,,,,,,,,,,,,,,,,,,,,,,,,,,,,,,,,,,,,,,,,,,,
1725717265.126292,1725717265.128172,55.0,0.0,4280.256348,4299.102539,4266.153809,4298.974121,4261.794922,4088.974365,4187.05127,4253.461426,4261.538574,4233.461426,4489.358887,4528.974121,4355.384766,4419.487305,0.0,0.0,11.0,,,,0.0,4.0,4.0,4.0,4.0,4.0,4.0,4.0,4.0,4.0,4.0,4.0,4.0,4.0,4.0,100.0,,,,,,,,,,,,,,,,,,,,,,,,,,,,,,,,,,,,,,,,,,,,,,,,,,,,,,,,,,,,,,,,,,,,,,,,,,,,,,,,,,,,,,,,,,,,,,,,,,,,,,,,,,,,,,,,,,,,,,,,,,,,,,,,,,,
1725717265.130196,1725717265.132077,56.0,0.0,4280.256348,4297.436035,4267.563965,4296.794922,4259.871582,4088.846191,4187.436035,4255.384766,4259.487305,4233.205078,4488.077148,4530.128418,4352.820313,4419.102539,0.0,0.0,11.0,,,,0.0,4.0,4.0,4.0,4.0,4.0,4.0,4.0,4.0,4.0,4.0,4.0,4.0,4.0,4.0,100.0,,,,,,,,,,,,,,,,,,,,,,,,,,,,,,,,,,,,,,,,,,,,,,,,,,,,,,,,,,,,,,,,,,,,,,,,,,,,,,,,,,,,,,,,,,,,,,,,,,,,,,,,,,,,,,,,,,,,,,,,,,,,,,,,,,,
1725717265.1341,1725717265.135881,57.0,0.0,4280.384766,4296.794922,4267.436035,4296.282227,4256.666504,4088.846191,4188.077148,4255.128418,4254.358887,4232.692383,4489.102539,4528.846191,4351.794922,4417.94873,0.0,0.0,11.0,,,,0.0,4.0,4.0,4.0,4.0,4.0,4.0,4.0,4.0,4.0,4.0,4.0,4.0,4.0,4.0,100.0,,,,,,,,,,,,,,,,,,,,,,,,,,,,,,,,,,,,,,,,,,,,,,,,,,,,,,,,,,,,,,,,,,,,,,,,,,,,,,,,,,,,,,,,,,,,,,,,,,,,,,,,,,,,,,,,,,,,,,,,,,,,,,,,,,,
1725717265.138004,1725717265.139785,58.0,0.0,4280.512695,4297.05127,4266.025879,4297.307617,4252.94873,4088.718018,4189.871582,4253.333496,4248.974121,4232.692383,4492.820313,4525.384766,4353.333496,4417.820313,0.0,0.0,11.0,,,,0.0,4.0,4.0,4.0,4.0,4.0,4.0,4.0,4.0,4.0,4.0,4.0,4.0,4.0,4.0,100.0,,,,,,,,,,,,,,,,,,,,,,,,,,,,,,,,,,,,,,,,,,,,,,,,,,,,,,,,,,,,,,,,,,,,,,,,,,,,,,,,,,,,,,,,,,,,,,,,,,,,,,,,,,,,,,,,,,,,,,,,,,,,,,,,,,,
1725717265.141908,1725717265.143689,59.0,0.0,4280.897461,4297.692383,4265.0,4299.871582,4249.871582,4088.589844,4193.205078,4251.410156,4246.922852,4233.589844,4498.205078,4521.794922,4357.563965,4420.128418,0.0,0.0,11.0,,,,0.0,4.0,4.0,4.0,4.0,4.0,4.0,4.0,4.0,4.0,4.0,4.0,4.0,4.0,4.0,100.0,,,,,,,,,,,,,,,,,,,,,,,,,,,,,,,,,,,,,,,,,,,,,,,,,,,,,,,,,,,,,,,,,,,,,,,,,,,,,,,,,,,,,,,,,,,,,,,,,,,,,,,,,,,,,,,,,,,,,,,,,,,,,,,,,,,
1725717265.145812,1725717265.147593,60.0,0.0,4282.436035,4298.077148,4266.153809,4302.94873,4248.333496,4088.205078,4197.05127,4251.025879,4249.871582,4234.230957,4502.94873,4520.512695,4363.077148,4424.358887,0.0,0.0,11.0,,,,0.0,4.0,4.0,4.0,4.0,4.0,4.0,4.0,4.0,4.0,4.0,4.0,4.0,4.0,4.0,100.0,,,,,,,,,,,,,,,,,,,,,,,,,,,,,,,,,,,,,,,,,,,,,,,,,,,,,,,,0.0,0.0,1.0,0.0,1.0,0.0,,,,,,,,,,,,,,,,,,,,,,,,,,,,,,,,,,,,,,,,,,,,,,,,,,,,,,,,,,,,,,,,,,,,,,
1725717265.149716,1725717265.151397,61.0,0.0,4285.384766,4298.205078,4268.974121,4305.384766,4248.205078,4087.94873,4200.384766,4253.205078,4256.282227,4233.846191,4505.384766,4522.436035,4367.692383,4428.461426,0.0,0.0,11.0,,,,0.0,4.0,4.0,4.0,4.0,4.0,4.0,4.0,4.0,4.0,4.0,4.0,4.0,4.0,4.0,100.0,,,,,,,,,,,,,,,,,,,,,,,,,,,,,,,,,,,,,,,,,,,,,,,,,,,,,,,,,,,,,,,,,,,,,,,,,,,,,,,,,,,,,,,,,,,,,,,,,,,,,,,,,,,,,,,,,,,,,,,,,,,,,,,,,,,
1725717265.15362,1725717265.155301,62.0,0.0,4289.358887,4298.589844,4271.794922,4305.897461,4248.974121,4087.820557,4202.05127,4257.179688,4262.563965,4232.94873,4505.256348,4526.282227,4369.615234,4430.384766,0.0,0.0,11.0,,,,0.0,4.0,4.0,4.0,4.0,4.0,4.0,4.0,4.0,4.0,4.0,4.0,4.0,4.0,4.0,100.0,,,,,,,,,,,,,,,,,,,,,,,,,,,,,,,,,,,,,,,,,,,,,,,,,,,,,,,,,,,,,,,,,,,,,,,,,,,,,,,,,,,,,,,,,,,,,,,,,,,,,,,,,,,,,,,,,,,,,,,,,,,,,,,,,,,
1725717265.157524,1725717265.159205,63.0,0.0,4293.205078,4299.743652,4272.436035,4304.358887,4250.256348,4087.820557,4201.538574,4260.128418,4266.025879,4233.461426,4504.102539,4530.384766,4368.333496,4429.871582,0.0,0.0,11.0,,,,0.0,4.0,4.0,4.0,4.0,4.0,4.0,4.0,4.0,4.0,4.0,4.0,4.0,4.0,4.0,100.0,,,,,,,,,,,,,,,,,,,,,,,,,,,,,,,,,,,,,,,,,,,,,,,,,,,,,,,,,,,,,,,,,,,,,,,,,,,,,,,,,,,,,,,,,,,,,,,,,,,,,,,,,,,,,,,,,,,,,,,,,,,,,,,,,,,
1725717265.161428,1725717265.163209,64.0,0.0,4295.641113,4302.307617,4270.641113,4302.179688,4251.282227,4087.820557,4200.128418,4260.0,4266.538574,4236.922852,4503.974121,4532.692383,4365.897461,4428.974121,0.0,0.0,11.0,,,,0.0,4.0,4.0,4.0,4.0,4.0,4.0,4.0,4.0,4.0,4.0,4.0,4.0,4.0,4.0,100.0,,,,,,,,,,,,,,,,,,,,,,,,,,,,,,,,,,,,,,,,,,,,,,,,,,,,,,,,,,,,,,,,,,,,,,,,,,,,,,,,,,,,,,,,,,,,,,,,,,,,,,,,,,,,,,,,,,,,,,,,,,,,,,,,,,,
1725717265.165332,1725717265.167114,65.0,0.0,4295.897461,4305.897461,4268.077148,4301.025879,4251.794922,4088.589844,4199.487305,4256.538574,4265.769043,4242.436035,4506.025879,4532.436035,4364.615234,4429.615234,0.0,0.0,11.0,,,,0.0,4.0,4.0,4.0,4.0,4.0,4.0,4.0,4.0,4.0,4.0,4.0,4.0,4.0,4.0,100.0,,,,,,,,,,,,,,,,,,,,,,,,,,,,,,,,,,,,,,,,,,,,,,,,,,,,,,,,,,,,,,,,,,,,,,,,,,,,,,,,,,,,,,,,,,,,,,,,,,,,,,,,,,,,,,,,,,,,,,,,,,,,,,,,,,,
1725717265.169237,1725717265.171018,66.0,0.0,4294.743652,4309.615234,4267.692383,4301.538574,4251.538574,4090.256348,4200.641113,4252.179688,4265.128418,4247.179688,4508.717773,4530.128418,4365.641113,4432.05127,0.0,0.0,11.0,,,,0.0,4.0,4.0,4.0,4.0,4.0,4.0,4.0,4.0,4.0,4.0,4.0,4.0,4.0,4.0,100.0,,,,,,,,,,,,,,,,,,,,,,,,,,,,,,,,,,,,,,,,,,,,,,,,,,,,,,,,,,,,,,,,,,,,,,,,,,,,,,,,,,,,,,,,,,,,,,,,,,,,,,,,,,,,,,,,,,,,,,,,,,,,,,,,,,,
1725717265.173141,1725717265.174922,67.0,0.0,4293.461426,4312.307617,4270.769043,4303.846191,4251.153809,4092.435791,4203.717773,4250.0,4265.512695,4247.94873,4509.230957,4527.820313,4368.205078,4434.871582,0.0,0.0,11.0,,,,0.0,4.0,4.0,4.0,4.0,4.0,4.0,4.0,4.0,4.0,4.0,4.0,4.0,4.0,4.0,100.0,,,,,,,,,,,,,,,,,,,,,,,,,,,,,,,,,,,,,,,,,,,,,,,,,,,,,,,,,,,,,,,,,,,,,,,,,,,,,,,,,,,,,,,,,,,,,,,,,,,,,,,,,,,,,,,,,,,,,,,,,,,,,,,,,,,
1725717265.177045,1725717265.178926,68.0,0.0,4293.333496,4313.205078,4276.025879,4306.922852,4251.538574,4093.974365,4207.563965,4251.025879,4266.025879,4244.102539,4505.897461,4528.205078,4370.128418,4435.769043,0.0,0.0,11.0,,,,0.0,4.0,4.0,4.0,4.0,4.0,4.0,4.0,4.0,4.0,4.0,4.0,4.0,4.0,4.0,100.0,,,,,,,,,,,,,,,,,,,,,,,,,,,,,,,,,,,,,,,,,,,,,,,,,,,,,,,,0.0,0.0,1.0,0.0,1.0,0.0,,,,,,,,,,,,,,,,,,,,,,,,,,,,,,,,,,,,,,,,,,,,,,,,,,,,,,,,,,,,,,,,,,,,,,
1725717265.180949,1725717265.18283,69.0,0.0,4293.974121,4312.692383,4279.615234,4309.615234,4252.820313,4094.358887,4210.0,4254.230957,4266.025879,4237.94873,4499.871582,4530.897461,4370.256348,4434.487305,0.0,0.0,11.0,,,,0.0,4.0,4.0,4.0,4.0,4.0,4.0,4.0,4.0,4.0,4.0,4.0,4.0,4.0,4.0,100.0,,,,,,,,,,,,,,,,,,,,,,,,,,,,,,,,,,,,,,,,,,,,,,,,,,,,,,,,,,,,,,,,,,,,,,,,,,,,,,,,,,,,,,,,,,,,,,,,,,,,,,,,,,,,,,,,,,,,,,,,,,,,,,,,,,,
1725717265.184853,1725717265.186734,70.0,0.0,4294.615234,4311.410156,4278.974121,4310.641113,4253.974121,4093.718018,4209.487305,4257.05127,4265.0,4233.077148,4494.743652,4533.333496,4368.974121,4432.05127,0.0,0.0,11.0,,,,0.0,4.0,4.0,4.0,4.0,4.0,4.0,4.0,4.0,4.0,4.0,4.0,4.0,4.0,4.0,100.0,,,,,,,,,,,,,,,,,,,,,,,,,,,,,,,,,,,,,,,,,,,,,,,,,,,,,,,,,,,,,,,,,,,,,,,,,,,,,,,,,,,,,,,,,,,,,,,,,,,,,,,,,,,,,,,,,,,,,,,,,,,,,,,,,,,
1725717265.188757,1725717265.190638,71.0,0.0,4294.102539,4310.384766,4274.102539,4309.615234,4254.487305,4092.435791,4206.153809,4257.820313,4264.102539,4232.436035,4492.563965,4532.563965,4367.307617,4430.0,0.0,0.0,11.0,,,,0.0,4.0,4.0,4.0,4.0,4.0,4.0,4.0,4.0,4.0,4.0,4.0,4.0,4.0,4.0,100.0,,,,,,,,,,,,,,,,,,,,,,,,,,,,,,,,,,,,,,,,,,,,,,,,,,,,,,,,,,,,,,,,,,,,,,,,,,,,,,,,,,,,,,,,,,,,,,,,,,,,,,,,,,,,,,,,,,,,,,,,,,,,,,,,,,,
1725717265.192661,1725717265.194542,72.0,0.0,4291.282227,4310.128418,4268.461426,4306.922852,4253.974121,4091.281982,4202.307617,4256.153809,4263.974121,4235.128418,4492.820313,4529.230957,4365.641113,4429.230957,0.0,0.0,11.0,,,,0.0,4.0,4.0,4.0,4.0,4.0,4.0,4.0,4.0,4.0,4.0,4.0,4.0,4.0,4.0,100.0,,,,,,,,,,,,,,,,,,,,,,,,,,,,,,,,,,,,,,,,,,,,,,,,,,,,,,,,,,,,,,,,,,,,,,,,,,,,,,,,,,,,,,,,,,,,,,,,,,,,,,,,,,,,,,,,,,,,,,,,,,,,,,,,,,,
1725717265.196565,1725717265.198346,73.0,0.0,4286.025879,4310.384766,4265.641113,4303.846191,4252.94873,4090.512939,4200.769043,4252.94873,4264.487305,4238.333496,4492.692383,4525.897461,4363.717773,4429.230957,0.0,0.0,11.0,,,,0.0,4.0,4.0,4.0,4.0,4.0,4.0,4.0,4.0,4.0,4.0,4.0,4.0,4.0,4.0,100.0,,,,,,,,,,,,,,,,,,,,,,,,,,,,,,,,,,,,,,,,,,,,,,,,,,,,,,,,,,,,,,,,,,,,,,,,,,,,,,,,,,,,,,,,,,,,,,,,,,,,,,,,,,,,,,,,,,,,,,,,,,,,,,,,,,,
1725717265.200469,1725717265.202251,74.0,0.0,4279.871582,4310.256348,4267.307617,4302.179688,4252.820313,4090.512939,4203.461426,4249.487305,4264.230957,4238.717773,4490.897461,4525.769043,4361.153809,4429.358887,0.0,0.0,11.0,,,,0.0,4.0,4.0,4.0,4.0,4.0,4.0,4.0,4.0,4.0,4.0,4.0,4.0,4.0,4.0,100.0,,,,,,,,,,,,,,,,,,,,,,,,,,,,,,,,,,,,,,,,,,,,,,,,,,,,,,,,,,,,,,,,,,,,,,,,,,,,,,,,,,,,,,,,,,,,,,,,,,,,,,,,,,,,,,,,,,,,,,,,,,,,,,,,,,,
1725717265.204373,1725717265.206155,75.0,0.0,4275.0,4310.0,4271.666504,4302.692383,4254.487305,4091.281982,4209.358887,4247.307617,4262.05127,4235.512695,4488.717773,4528.974121,4359.230957,4429.102539,0.0,0.0,11.0,,,,0.0,4.0,4.0,4.0,4.0,4.0,4.0,4.0,4.0,4.0,4.0,4.0,4.0,4.0,4.0,100.0,,,,,,,,,,,,,,,,,,,,,,,,,,,,,,,,,,,,,,,,,,,,,,,,,,,,,,,,,,,,,,,,,,,,,,,,,,,,,,,,,,,,,,,,,,,,,,,,,,,,,,,,,,,,,,,,,,,,,,,,,,,,,,,,,,,
1725717265.208278,1725717265.210159,76.0,0.0,4272.94873,4310.128418,4275.769043,4305.0,4257.94873,4092.435791,4215.641113,4247.820313,4258.077148,4231.025879,4488.717773,4533.333496,4359.871582,4428.589844,0.0,0.0,11.0,,,,0.0,4.0,4.0,4.0,4.0,4.0,4.0,4.0,4.0,4.0,4.0,4.0,4.0,4.0,4.0,100.0,,,,,,,,,,,,,,,,,,,,,,,,,,,,,,,,,,,,,,,,,,,,,,,,,,,,,,,,0.0,0.0,1.0,0.0,1.0,0.0,,,,,,,,,,,,,,,,,,,,,,,,,,,,,,,,,,,,,,,,,,,,,,,,,,,,,,,,,,,,,,,,,,,,,,
1725717265.212182,1725717265.214063,77.0,0.0,4273.974121,4311.025879,4277.563965,4307.563965,4261.410156,4093.846191,4219.358887,4251.922852,4255.0,4228.461426,4492.436035,4535.769043,4363.077148,4428.589844,0.0,0.0,11.0,,,,0.0,4.0,4.0,4.0,4.0,4.0,4.0,4.0,4.0,4.0,4.0,4.0,4.0,4.0,4.0,100.0,,,,,,,,,,,,,,,,,,,,,,,,,,,,,,,,,,,,,,,,,,,,,,,,,,,,,,,,,,,,,,,,,,,,,,,,,,,,,,,,,,,,,,,,,,,,,,,,,,,,,,,,,,,,,,,,,,,,,,,,,,,,,,,,,,,
1725717265.216086,1725717265.217967,78.0,0.0,4276.153809,4312.05127,4277.179688,4308.974121,4262.94873,4095.256348,4219.743652,4258.205078,4255.512695,4229.487305,4499.230957,4535.384766,4366.922852,4429.487305,0.0,0.0,11.0,,,,0.0,4.0,4.0,4.0,4.0,4.0,4.0,4.0,4.0,4.0,4.0,4.0,4.0,4.0,4.0,100.0,,,,,,,,,,,,,,,,,,,,,,,,,,,,,,,,,,,,,,,,,,,,,,,,,,,,,,,,,,,,,,,,,,,,,,,,,,,,,,,,,,,,,,,,,,,,,,,,,,,,,,,,,,,,,,,,,,,,,,,,,,,,,,,,,,,
1725717265.21999,1725717265.221871,79.0,0.0,4277.820313,4312.307617,4276.153809,4308.846191,4261.794922,4096.666504,4217.94873,4263.589844,4259.487305,4233.077148,4506.282227,4533.589844,4368.461426,4430.897461,0.0,0.0,11.0,,,,0.0,4.0,4.0,4.0,4.0,4.0,4.0,4.0,4.0,4.0,4.0,4.0,4.0,4.0,4.0,100.0,,,,,,,,,,,,,,,,,,,,,,,,,,,,,,,,,,,,,,,,,,,,,,,,,,,,,,,,,,,,,,,,,,,,,,,,,,,,,,,,,,,,,,,,,,,,,,,,,,,,,,,,,,,,,,,,,,,,,,,,,,,,,,,,,,,
1725717265.223894,1725717265.225675,80.0,0.0,4278.077148,4311.282227,4276.025879,4307.820313,4259.230957,4097.94873,4216.538574,4265.384766,4263.589844,4236.538574,4510.128418,4532.436035,4366.538574,4432.05127,0.0,0.0,11.0,,,,0.0,4.0,4.0,4.0,4.0,4.0,4.0,4.0,4.0,4.0,4.0,4.0,4.0,4.0,4.0,100.0,,,,,,,,,,,,,,,,,,,,,,,,,,,,,,,,,,,,,,,,,,,,,,,,,,,,,,,,,,,,,,,,,,,,,,,,,,,,,,,,,,,,,,,,,,,,,,,,,,,,,,,,,,,,,,,,,,,,,,,,,,,,,,,,,,,
1725717265.227798,1725717265.229579,81.0,0.0,4277.05127,4309.743652,4277.05127,4307.179688,4257.563965,4098.846191,4216.922852,4262.563965,4264.102539,4237.820313,4509.230957,4532.05127,4362.307617,4432.179688,0.0,0.0,11.0,,,,0.0,4.0,4.0,4.0,4.0,4.0,4.0,4.0,4.0,4.0,4.0,4.0,4.0,4.0,4.0,100.0,,,,,,,,,,,,,,,,,,,,,,,,,,,,,,,,,,,,,,,,,,,,,,,,,,,,,,,,,,,,,,,,,,,,,,,,,,,,,,,,,,,,,,,,,,,,,,,,,,,,,,,,,,,,,,,,,,,,,,,,,,,,,,,,,,,
1725717265.231702,1725717265.233483,82.0,0.0,4276.025879,4309.102539,4278.846191,4307.820313,4257.94873,4099.102539,4218.846191,4256.922852,4259.743652,4236.410156,4504.871582,4531.794922,4358.974121,4431.025879,0.0,0.0,11.0,,,,0.0,4.0,4.0,4.0,4.0,4.0,4.0,4.0,4.0,4.0,4.0,4.0,4.0,4.0,4.0,100.0,,,,,,,,,,,,,,,,,,,,,,,,,,,,,,,,,,,,,,,,,,,,,,,,,,,,,,,,,,,,,,,,,,,,,,,,,,,,,,,,,,,,,,,,,,,,,,,,,,,,,,,,,,,,,,,,,,,,,,,,,,,,,,,,,,,
1725717265.235606,1725717265.237387,83.0,0.0,4275.897461,4310.128418,4280.769043,4309.615234,4260.128418,4098.589844,4221.153809,4250.769043,4253.461426,4233.461426,4500.897461,4531.282227,4358.846191,4429.615234,0.0,0.0,11.0,,,,0.0,4.0,4.0,4.0,4.0,4.0,4.0,4.0,4.0,4.0,4.0,4.0,4.0,4.0,4.0,100.0,,,,,,,,,,,,,,,,,,,,,,,,,,,,,,,,,,,,,,,,,,,,,,,,,,,,,,,,,,,,,,,,,,,,,,,,,,,,,,,,,,,,,,,,,,,,,,,,,,,,,,,,,,,,,,,,,,,,,,,,,,,,,,,,,,,
1725717265.23951,1725717265.241192,84.0,0.0,4276.666504,4311.922852,4281.922852,4311.538574,4261.922852,4097.820313,4222.94873,4246.922852,4249.871582,4230.897461,4500.0,4531.282227,4362.307617,4428.717773,0.0,0.0,11.0,,,,0.0,4.0,4.0,4.0,4.0,4.0,4.0,4.0,4.0,4.0,4.0,4.0,4.0,4.0,4.0,100.0,,,,,,,,,,,,,,,,,1.0,0.0,0.0,,,,,,,,,,,,,,,,,,,,,,,,,,,,,,,,,,,,,0.0,0.0,1.0,0.0,1.0,0.0,1.011618,1.249262,0.56924,0.185291,0.057032,2.319882,1.227019,0.704069,0.229937,0.110517,0.833322,1.0807,0.349404,0.139162,0.074014,0.911698,0.799637,0.235959,0.201635,0.089787,0.45523,0.528821,0.186602,0.059842,0.039816,0.762353,0.227535,0.053173,0.07796,0.033284,2.430707,0.192046,0.156877,0.171739,0.060149,0.501994,0.885492,0.790219,0.207201,0.183146,0.707823,0.870015,0.566141,0.173782,0.107249,0.999353,1.051419,0.622772,0.291882,0.228135,1.443699,2.287768,0.992301,0.626677,0.414413,2.507189,2.409818,0.794642,0.375787,0.207393,2.312583,1.80707,0.971603,0.405382,0.152942,1.769963,1.731862,0.894955,0.258721,0.166055
1725717265.243415,1725717265.245096,85.0,0.0,4277.820313,4313.205078,4282.179688,4312.307617,4261.666504,4097.05127,4224.487305,4246.922852,4251.666504,4230.0,4502.436035,4532.307617,4367.05127,4429.102539,0.0,0.0,11.0,,,,0.0,4.0,4.0,4.0,4.0,4.0,4.0,4.0,4.0,4.0,4.0,4.0,4.0,4.0,4.0,100.0,,,,,,,,,,,,,,,,,,,,,,,,,,,,,,,,,,,,,,,,,,,,,,,,,,,,,,,,,,,,,,,,,,,,,,,,,,,,,,,,,,,,,,,,,,,,,,,,,,,,,,,,,,,,,,,,,,,,,,,,,,,,,,,,,,,
1725717265.247319,1725717265.249,86.0,0.0,4278.846191,4313.333496,4281.922852,4311.666504,4259.871582,4096.410156,4226.025879,4250.0,4256.922852,4231.282227,4505.897461,4534.743652,4370.128418,4430.641113,0.0,0.0,11.0,,,,0.0,4.0,4.0,4.0,4.0,4.0,4.0,4.0,4.0,4.0,4.0,4.0,4.0,4.0,4.0,100.0,,,,,,,,,,,,,,,,,,,,,,,,,,,,,,,,,,,,,,,,,,,,,,,,,,,,,,,,,,,,,,,,,,,,,,,,,,,,,,,,,,,,,,,,,,,,,,,,,,,,,,,,,,,,,,,,,,,,,,,,,,,,,,,,,,,
1725717265.251223,1725717265.252904,87.0,0.0,4279.487305,4312.307617,4281.794922,4310.769043,4257.94873,4095.384521,4227.179688,4253.461426,4261.410156,4233.589844,4507.820313,4537.692383,4370.128418,4432.820313,0.0,0.0,11.0,,,,0.0,4.0,4.0,4.0,4.0,4.0,4.0,4.0,4.0,4.0,4.0,4.0,4.0,4.0,4.0,100.0,,,,,,,,,,,,,,,,,,,,,,,,,,,,,,,,,,,,,,,,,,,,,,,,,,,,,,,,,,,,,,,,,,,,,,,,,,,,,,,,,,,,,,,,,,,,,,,,,,,,,,,,,,,,,,,,,,,,,,,,,,,,,,,,,,,
1725717265.255127,1725717265.256708,88.0,0.0,4279.615234,4311.538574,4281.794922,4310.769043,4257.307617,4093.718018,4228.205078,4254.487305,4261.025879,4235.512695,4507.820313,4539.230957,4367.94873,4435.0,0.0,0.0,11.0,,,,0.0,4.0,4.0,4.0,4.0,4.0,4.0,4.0,4.0,4.0,4.0,4.0,4.0,4.0,4.0,100.0,,,,,,,,,,,,,,,,,,,,,,,,,,,,,,,,,,,,,,,,,,,,,,,,,,,,,,,,,,,,,,,,,,,,,,,,,,,,,,,,,,,,,,,,,,,,,,,,,,,,,,,,,,,,,,,,,,,,,,,,,,,,,,,,,,,
1725717265.259031,1725717265.260612,89.0,0.0,4278.974121,4311.922852,4281.794922,4311.410156,4258.333496,4092.179443,4228.974121,4252.436035,4256.410156,4235.897461,4506.794922,4537.94873,4365.769043,4436.410156,0.0,0.0,11.0,,,,0.0,4.0,4.0,4.0,4.0,4.0,4.0,4.0,4.0,4.0,4.0,4.0,4.0,4.0,4.0,100.0,,,,,,,,,,,,,,,,,,,,,,,,,,,,,,,,,,,,,,,,,,,,,,,,,,,,,,,,,,,,,,,,,,,,,,,,,,,,,,,,,,,,,,,,,,,,,,,,,,,,,,,,,,,,,,,,,,,,,,,,,,,,,,,,,,,
1725717265.262935,1725717265.264516,90.0,0.0,4278.205078,4313.077148,4281.666504,4312.179688,4260.128418,4092.05127,4230.0,4249.358887,4251.410156,4235.256348,4505.384766,4534.487305,4365.0,4436.282227,0.0,0.0,11.0,,,,0.0,4.0,4.0,4.0,4.0,4.0,4.0,4.0,4.0,4.0,4.0,4.0,4.0,4.0,4.0,100.0,,,,,,,,,,,,,,,,,,,,,,,,,,,,,,,,,,,,,,,,,,,,,,,,,,,,,,,,,,,,,,,,,,,,,,,,,,,,,,,,,,,,,,,,,,,,,,,,,,,,,,,,,,,,,,,,,,,,,,,,,,,,,,,,,,,
1725717265.266839,1725717265.26852,91.0,0.0,4277.436035,4313.717773,4281.666504,4311.922852,4261.538574,4094.102539,4230.897461,4248.077148,4250.384766,4234.230957,4503.077148,4531.922852,4366.025879,4434.358887,0.0,0.0,11.0,,,,0.0,4.0,4.0,4.0,4.0,4.0,4.0,4.0,4.0,4.0,4.0,4.0,4.0,4.0,4.0,100.0,,,,,,,,,,,,,,,,,,,,,,,,,,,,,,,,,,,,,,,,,,,,,,,,,,,,,,,,,,,,,,,,,,,,,,,,,,,,,,,,,,,,,,,,,,,,,,,,,,,,,,,,,,,,,,,,,,,,,,,,,,,,,,,,,,,
1725717265.270743,1725717265.272425,92.0,0.0,4276.922852,4312.692383,4281.538574,4310.384766,4261.794922,4097.94873,4231.538574,4250.512695,4253.974121,4233.333496,4500.128418,4532.692383,4367.94873,4431.538574,0.0,0.0,11.0,,,,0.0,4.0,4.0,4.0,4.0,4.0,4.0,4.0,4.0,4.0,4.0,4.0,4.0,4.0,4.0,100.0,,,,,,,,,,,,,,,,,,,,,,,,,,,,,,,,,,,,,,,,,,,,,,,,,,,,,,,,0.0,0.0,1.0,0.0,1.0,0.0,,,,,,,,,,,,,,,,,,,,,,,,,,,,,,,,,,,,,,,,,,,,,,,,,,,,,,,,,,,,,,,,,,,,,,
1725717265.274647,1725717265.276329,93.0,0.0,4276.922852,4310.512695,4281.153809,4308.589844,4260.512695,4102.307617,4231.922852,4255.769043,4259.358887,4232.820313,4497.307617,4536.282227,4369.230957,4429.871582,0.0,0.0,11.0,,,,0.0,4.0,4.0,4.0,4.0,4.0,4.0,4.0,4.0,4.0,4.0,4.0,4.0,4.0,4.0,100.0,,,,,,,,,,,,,,,,,,,,,,,,,,,,,,,,,,,,,,,,,,,,,,,,,,,,,,,,,,,,,,,,,,,,,,,,,,,,,,,,,,,,,,,,,,,,,,,,,,,,,,,,,,,,,,,,,,,,,,,,,,,,,,,,,,,
1725717265.278551,1725717265.280233,94.0,0.0,4277.436035,4309.102539,4280.641113,4307.692383,4258.589844,4105.641113,4231.794922,4261.153809,4263.205078,4232.692383,4495.512695,4540.128418,4369.102539,4431.410156,0.0,0.0,11.0,,,,0.0,4.0,4.0,4.0,4.0,4.0,4.0,4.0,4.0,4.0,4.0,4.0,4.0,4.0,4.0,100.0,,,,,,,,,,,,,,,,,,,,,,,,,,,,,,,,,,,,,,,,,,,,,,,,,,,,,,,,,,,,,,,,,,,,,,,,,,,,,,,,,,,,,,,,,,,,,,,,,,,,,,,,,,,,,,,,,,,,,,,,,,,,,,,,,,,
1725717265.282456,1725717265.284237,95.0,0.0,4278.205078,4310.0,4280.512695,4307.820313,4256.922852,4106.666504,4231.410156,4263.717773,4263.205078,4232.692383,4493.974121,4541.538574,4368.077148,4435.897461,0.0,0.0,11.0,,,,0.0,4.0,4.0,4.0,4.0,4.0,4.0,4.0,4.0,4.0,4.0,4.0,4.0,4.0,4.0,100.0,,,,,,,,,,,,,,,,,,,,,,,,,,,,,,,,,,,,,,,,,,,,,,,,,,,,,,,,,,,,,,,,,,,,,,,,,,,,,,,,,,,,,,,,,,,,,,,,,,,,,,,,,,,,,,,,,,,,,,,,,,,,,,,,,,,
1725717265.28636,1725717265.288141,96.0,0.0,4278.846191,4312.820313,4281.025879,4308.205078,4255.897461,4105.769043,4231.666504,4262.05127,4259.871582,4232.94873,4491.410156,4539.871582,4366.922852,4440.641113,0.0,0.0,11.0,,,,0.0,4.0,4.0,4.0,4.0,4.0,4.0,4.0,4.0,4.0,4.0,4.0,4.0,4.0,4.0,100.0,,,,,,,,,,,,,,,,,,,,,,,,,,,,,,,,,,,,,,,,,,,,,,,,,,,,,,,,,,,,,,,,,,,,,,,,,,,,,,,,,,,,,,,,,,,,,,,,,,,,,,,,,,,,,,,,,,,,,,,,,,,,,,,,,,,
1725717265.290264,1725717265.292045,97.0,0.0,4278.846191,4315.384766,4281.794922,4307.563965,4255.769043,4104.743652,4232.820313,4256.666504,4255.384766,4233.333496,4488.717773,4536.538574,4365.512695,4442.563965,0.0,0.0,11.0,,,,0.0,4.0,4.0,4.0,4.0,4.0,4.0,4.0,4.0,4.0,4.0,4.0,4.0,4.0,4.0,100.0,,,,,,,,,,,,,,,,,,,,,,,,,,,,,,,,,,,,,,,,,,,,,,,,,,,,,,,,,,,,,,,,,,,,,,,,,,,,,,,,,,,,,,,,,,,,,,,,,,,,,,,,,,,,,,,,,,,,,,,,,,,,,,,,,,,
1725717265.294168,1725717265.295949,98.0,0.0,4278.077148,4316.025879,4282.307617,4305.769043,4256.153809,4105.0,4234.230957,4250.128418,4252.05127,4233.461426,4487.94873,4533.077148,4364.102539,4441.025879,0.0,0.0,11.0,,,,0.0,4.0,4.0,4.0,4.0,4.0,4.0,4.0,4.0,4.0,4.0,4.0,4.0,4.0,4.0,100.0,,,,,,,,,,,,,,,,,,,,,,,,,,,,,,,,,,,,,,,,,,,,,,,,,,,,,,,,,,,,,,,,,,,,,,,,,,,,,,,,,,,,,,,,,,,,,,,,,,,,,,,,,,,,,,,,,,,,,,,,,,,,,,,,,,,
1725717265.298072,1725717265.299853,99.0,0.0,4277.179688,4314.871582,4281.794922,4303.717773,4257.179688,4106.666504,4234.743652,4245.897461,4251.025879,4233.205078,4491.025879,4530.641113,4363.333496,4438.077148,0.0,0.0,11.0,,,,0.0,4.0,4.0,4.0,4.0,4.0,4.0,4.0,4.0,4.0,4.0,4.0,4.0,4.0,4.0,100.0,,,,,,,,,,,,,,,,,,,,,,,,,,,,,,,,,,,,,,,,,,,,,,,,,,,,,,,,,,,,,,,,,,,,,,,,,,,,,,,,,,,,,,,,,,,,,,,,,,,,,,,,,,,,,,,,,,,,,,,,,,,,,,,,,,,
1725717265.301976,1725717265.303657,100.0,0.0,4276.794922,4313.077148,4280.512695,4302.692383,4258.589844,4108.205078,4233.974121,4246.025879,4252.179688,4232.692383,4497.179688,4530.0,4364.358887,4436.538574,0.0,0.0,11.0,,,,0.0,4.0,4.0,4.0,4.0,4.0,4.0,4.0,4.0,4.0,4.0,4.0,4.0,4.0,4.0,100.0,,,,,,,,,,,,,,,,,,,,,,,,,,,,,,,,,,,,,,,,,,,,,,,,,,,,,,,,0.0,0.0,1.0,0.0,1.0,0.0,,,,,,,,,,,,,,,,,,,,,,,,,,,,,,,,,,,,,,,,,,,,,,,,,,,,,,,,,,,,,,,,,,,,,,
1725717265.30588,1725717265.307561,101.0,0.0,4277.05127,4312.05127,4279.487305,4302.820313,4260.128418,4108.461426,4233.077148,4250.897461,4255.0,4232.307617,4503.846191,4531.794922,4367.436035,4437.692383,0.0,0.0,11.0,,,,0.0,4.0,4.0,4.0,4.0,4.0,4.0,4.0,4.0,4.0,4.0,4.0,4.0,4.0,4.0,100.0,,,,,,,,,,,,,,,,,,,,,,,,,,,,,,,,,,,,,,,,,,,,,,,,,,,,,,,,,,,,,,,,,,,,,,,,,,,,,,,,,,,,,,,,,,,,,,,,,,,,,,,,,,,,,,,,,,,,,,,,,,,,,,,,,,,
1725717265.309784,1725717265.311466,102.0,0.0,4277.94873,4312.05127,4280.0,4303.461426,4261.282227,4107.307617,4233.461426,4258.077148,4258.461426,4232.307617,4508.461426,4535.512695,4372.179688,4440.769043,0.0,0.0,11.0,,,,0.0,4.0,4.0,4.0,4.0,4.0,4.0,4.0,4.0,4.0,4.0,4.0,4.0,4.0,4.0,100.0,,,,,,,,,,,,,,,,,,,,,,,,,,,,,,,,,,,,,,,,,,,,,,,,,,,,,,,,,,,,,,,,,,,,,,,,,,,,,,,,,,,,,,,,,,,,,,,,,,,,,,,,,,,,,,,,,,,,,,,,,,,,,,,,,,,
1725717265.313688,1725717265.31547,103.0,0.0,4278.717773,4312.436035,4282.692383,4303.717773,4261.666504,4105.769043,4235.769043,4264.230957,4261.153809,4233.205078,4510.641113,4539.615234,4376.794922,4444.358887,0.0,0.0,11.0,,,,0.0,4.0,4.0,4.0,4.0,4.0,4.0,4.0,4.0,4.0,4.0,4.0,4.0,4.0,4.0,100.0,,,,,,,,,,,,,,,,,,,,,,,,,,,,,,,,,,,,,,,,,,,,,,,,,,,,,,,,,,,,,,,,,,,,,,,,,,,,,,,,,,,,,,,,,,,,,,,,,,,,,,,,,,,,,,,,,,,,,,,,,,,,,,,,,,,
1725717265.317593,1725717265.319374,104.0,0.0,4279.102539,4312.436035,4286.922852,4303.077148,4261.282227,4105.128418,4239.615234,4266.538574,4262.05127,4234.743652,4510.512695,4542.179688,4379.102539,4446.666504,0.0,0.0,11.0,,,,0.0,4.0,4.0,4.0,4.0,4.0,4.0,4.0,4.0,4.0,4.0,4.0,4.0,4.0,4.0,100.0,,,,,,,,,,,,,,,,,,,,,,,,,,,,,,,,,,,,,,,,,,,,,,,,,,,,,,,,,,,,,,,,,,,,,,,,,,,,,,,,,,,,,,,,,,,,,,,,,,,,,,,,,,,,,,,,,,,,,,,,,,,,,,,,,,,
1725717265.321497,1725717265.323278,105.0,0.0,4278.589844,4311.794922,4290.897461,4302.307617,4260.769043,4105.641113,4244.102539,4265.0,4261.153809,4236.282227,4508.205078,4542.307617,4377.820313,4446.794922,0.0,0.0,11.0,,,,0.0,4.0,4.0,4.0,4.0,4.0,4.0,4.0,4.0,4.0,4.0,4.0,4.0,4.0,4.0,100.0,,,,,,,,,,,,,,,,,,,,,,,,,,,,,,,,,,,,,,,,,,,,,,,,,,,,,,,,,,,,,,,,,,,,,,,,,,,,,,,,,,,,,,,,,,,,,,,,,,,,,,,,,,,,,,,,,,,,,,,,,,,,,,,,,,,
1725717265.325401,1725717265.327182,106.0,0.0,4277.179688,4310.769043,4292.820313,4302.307617,4260.641113,4106.794922,4247.563965,4261.794922,4259.487305,4236.922852,4504.358887,4540.512695,4373.461426,4444.358887,0.0,0.0,11.0,,,,0.0,4.0,4.0,4.0,4.0,4.0,4.0,4.0,4.0,4.0,4.0,4.0,4.0,4.0,4.0,100.0,,,,,,,,,,,,,,,,,,,,,,,,,,,,,,,,,,,,,,,,,,,,,,,,,,,,,,,,,,,,,,,,,,,,,,,,,,,,,,,,,,,,,,,,,,,,,,,,,,,,,,,,,,,,,,,,,,,,,,,,,,,,,,,,,,,
1725717265.329305,1725717265.330986,107.0,0.0,4276.153809,4310.0,4291.794922,4303.205078,4261.153809,4107.563965,4249.102539,4259.487305,4258.589844,4236.410156,4500.512695,4538.589844,4368.077148,4440.128418,0.0,0.0,11.0,,,,0.0,4.0,4.0,4.0,4.0,4.0,4.0,4.0,4.0,4.0,4.0,4.0,4.0,4.0,4.0,100.0,,,,,,,,,,,,,,,,,,,,,,,,,,,,,,,,,,,,,,,,,,,,,,,,,,,,,,,,,,,,,,,,,,,,,,,,,,,,,,,,,,,,,,,,,,,,,,,,,,,,,,,,,,,,,,,,,,,,,,,,,,,,,,,,,,,
1725717265.333209,1725717265.33489,108.0,0.0,4276.153809,4309.871582,4288.846191,4304.102539,4261.794922,4107.563965,4249.102539,4259.230957,4259.230957,4235.384766,4498.077148,4537.563965,4364.487305,4436.538574,0.0,0.0,11.0,,,,0.0,4.0,4.0,4.0,4.0,4.0,4.0,4.0,4.0,4.0,4.0,4.0,4.0,4.0,4.0,100.0,,,,,,,,,,,,,,,,,,,,,,,,,,,,,,,,,,,,,,,,,,,,,,,,,,,,,,,,0.0,0.0,1.0,0.0,1.0,0.0,,,,,,,,,,,,,,,,,,,,,,,,,,,,,,,,,,,,,,,,,,,,,,,,,,,,,,,,,,,,,,,,,,,,,,
1725717265.337113,1725717265.338794,109.0,0.0,4277.436035,4310.384766,4285.897461,4303.589844,4262.307617,4107.179688,4248.461426,4260.384766,4260.641113,4234.871582,4498.333496,4538.077148,4363.717773,4435.512695,0.0,0.0,11.0,,,,0.0,4.0,4.0,4.0,4.0,4.0,4.0,4.0,4.0,4.0,4.0,4.0,4.0,4.0,4.0,100.0,,,,,,,,,,,,,,,,,,,,,,,,,,,,,,,,,,,,,,,,,,,,,,,,,,,,,,,,,,,,,,,,,,,,,,,,,,,,,,,,,,,,,,,,,,,,,,,,,,,,,,,,,,,,,,,,,,,,,,,,,,,,,,,,,,,
1725717265.341017,1725717265.342698,110.0,0.0,4278.846191,4311.025879,4284.102539,4301.282227,4262.563965,4106.794922,4248.846191,4261.922852,4261.794922,4235.128418,4501.025879,4539.358887,4365.384766,4437.179688,0.0,0.0,11.0,,,,0.0,4.0,4.0,4.0,4.0,4.0,4.0,4.0,4.0,4.0,4.0,4.0,4.0,4.0,4.0,100.0,,,,,,,,,,,,,,,,,,,,,,,,,,,,,,,,,,,,,,,,,,,,,,,,,,,,,,,,,,,,,,,,,,,,,,,,,,,,,,,,,,,,,,,,,,,,,,,,,,,,,,,,,,,,,,,,,,,,,,,,,,,,,,,,,,,
1725717265.344921,1725717265.346503,111.0,0.0,4278.974121,4311.153809,4283.333496,4297.436035,4262.692383,4107.05127,4250.897461,4262.820313,4262.05127,4236.153809,4504.230957,4540.512695,4367.436035,4439.487305,0.0,0.0,11.0,,,,0.0,4.0,4.0,4.0,4.0,4.0,4.0,4.0,4.0,4.0,4.0,4.0,4.0,4.0,4.0,100.0,,,,,,,,,,,,,,,,,,,,,,,,,,,,,,,,,,,,,,,,,,,,,,,,,,,,,,,,,,,,,,,,,,,,,,,,,,,,,,,,,,,,,,,,,,,,,,,,,,,,,,,,,,,,,,,,,,,,,,,,,,,,,,,,,,,
1725717265.348825,1725717265.350407,112.0,0.0,4277.05127,4310.897461,4282.563965,4293.205078,4262.820313,4107.692383,4254.230957,4262.692383,4261.666504,4237.820313,4504.871582,4540.641113,4368.205078,4440.0,0.0,0.0,11.0,,,,0.0,4.0,4.0,4.0,4.0,4.0,4.0,4.0,4.0,4.0,4.0,4.0,4.0,4.0,4.0,100.0,,,,,,,,,,,,,,,,,,,,,,,,,,,,,,,,,,,,,,,,,,,,,,,,,,,,,,,,,,,,,,,,,,,,,,,,,,,,,,,,,,,,,,,,,,,,,,,,,,,,,,,,,,,,,,,,,,,,,,,,,,,,,,,,,,,
1725717265.352729,1725717265.354311,113.0,0.0,4273.461426,4310.384766,4281.282227,4289.230957,4262.436035,4108.589844,4257.563965,4262.05127,4261.153809,4239.358887,4500.512695,4539.871582,4367.179688,4437.820313,0.0,0.0,11.0,,,,0.0,4.0,4.0,4.0,4.0,4.0,4.0,4.0,4.0,4.0,4.0,4.0,4.0,4.0,4.0,100.0,,,,,,,,,,,,,,,,,,,,,,,,,,,,,,,,,,,,,,,,,,,,,,,,,,,,,,,,,,,,,,,,,,,,,,,,,,,,,,,,,,,,,,,,,,,,,,,,,,,,,,,,,,,,,,,,,,,,,,,,,,,,,,,,,,,
1725717265.356633,1725717265.358315,114.0,0.0,4269.615234,4309.743652,4280.512695,4286.538574,4261.666504,4108.846191,4260.0,4261.153809,4260.512695,4240.0,4492.436035,4538.846191,4365.512695,4434.230957,0.0,0.0,11.0,,,,0.0,4.0,4.0,4.0,4.0,4.0,4.0,4.0,4.0,4.0,4.0,4.0,4.0,4.0,4.0,100.0,,,,,,,,,,,,,,,,,,,,,,,,,,,,,,,,,,,,,,,,,,,,,,,,,,,,,,,,,,,,,,,,,,,,,,,,,,,,,,,,,,,,,,,,,,,,,,,,,,,,,,,,,,,,,,,,,,,,,,,,,,,,,,,,,,,
1725717265.360537,1725717265.362219,115.0,0.0,4268.205078,4309.615234,4281.153809,4285.769043,4260.769043,4108.077148,4261.025879,4260.256348,4258.717773,4239.230957,4486.666504,4538.077148,4364.743652,4431.922852,0.0,0.0,11.0,,,,0.0,4.0,4.0,4.0,4.0,4.0,4.0,4.0,4.0,4.0,4.0,4.0,4.0,4.0,4.0,100.0,,,,,,,,,,,,,,,,,,,,,,,,,,,,,,,,,,,,,,,,,,,,,,,,,,,,,,,,,,,,,,,,,,,,,,,,,,,,,,,,,,,,,,,,,,,,,,,,,,,,,,,,,,,,,,,,,,,,,,,,,,,,,,,,,,,
1725717265.364442,1725717265.366123,116.0,0.0,4270.0,4310.769043,4283.205078,4287.179688,4260.0,4106.538574,4261.410156,4258.589844,4255.769043,4237.179688,4489.102539,4537.692383,4365.512695,4432.820313,0.0,0.0,11.0,,,,0.0,4.0,4.0,4.0,4.0,4.0,4.0,4.0,4.0,4.0,4.0,4.0,4.0,4.0,4.0,100.0,,,,,,,,,,,,,,,,,1.0,0.0,0.0,,,,,,,,,,,,,,,,,,,,,,,,,,,,,,,,,,,,,0.0,0.0,1.0,0.0,1.0,0.0,0.921968,1.230672,0.598781,0.178018,0.0616,3.176675,1.54348,0.803092,0.256208,0.134846,0.785026,1.189213,0.343971,0.151857,0.082485,0.900651,0.882443,0.25883,0.174025,0.091056,0.479417,0.701772,0.163309,0.054045,0.040389,0.741736,0.269856,0.076774,0.090452,0.033893,2.209391,0.218322,0.164713,0.197764,0.059712,0.50238,1.03898,0.632534,0.196989,0.182869,0.771641,0.82655,0.415169,0.194824,0.110156,1.093547,1.068069,0.531522,0.324572,0.227656,1.29265,2.108601,0.925114,0.65545,0.464813,2.257279,2.574985,0.631245,0.356616,0.19289,1.88195,1.624908,0.888482,0.354752,0.16032,1.573753,1.859863,0.851165,0.280183,0.166434
1725717265.368346,1725717265.370027,117.0,0.0,4273.974121,4312.563965,4285.256348,4289.487305,4260.128418,4105.769043,4262.179688,4255.512695,4252.692383,4235.128418,4499.358887,4537.179688,4367.179688,4436.666504,0.0,0.0,11.0,,,,0.0,4.0,4.0,4.0,4.0,4.0,4.0,4.0,4.0,4.0,4.0,4.0,4.0,4.0,4.0,100.0,,,,,,,,,,,,,,,,,,,,,,,,,,,,,,,,,,,,,,,,,,,,,,,,,,,,,,,,,,,,,,,,,,,,,,,,,,,,,,,,,,,,,,,,,,,,,,,,,,,,,,,,,,,,,,,,,,,,,,,,,,,,,,,,,,,
1725717265.37225,1725717265.374031,118.0,0.0,4277.436035,4312.692383,4286.025879,4291.153809,4260.769043,4107.179688,4263.717773,4251.794922,4251.794922,4233.846191,4510.128418,4536.922852,4369.102539,4440.897461,0.0,0.0,11.0,,,,0.0,4.0,4.0,4.0,4.0,4.0,4.0,4.0,4.0,4.0,4.0,4.0,4.0,4.0,4.0,100.0,,,,,,,,,,,,,,,,,,,,,,,,,,,,,,,,,,,,,,,,,,,,,,,,,,,,,,,,,,,,,,,,,,,,,,,,,,,,,,,,,,,,,,,,,,,,,,,,,,,,,,,,,,,,,,,,,,,,,,,,,,,,,,,,,,,
1725717265.376154,1725717265.377935,119.0,0.0,4278.077148,4309.743652,4285.128418,4291.153809,4261.282227,4110.897461,4265.384766,4249.230957,4254.358887,4234.230957,4513.077148,4537.307617,4370.128418,4441.794922,0.0,0.0,11.0,,,,0.0,4.0,4.0,4.0,4.0,4.0,4.0,4.0,4.0,4.0,4.0,4.0,4.0,4.0,4.0,100.0,,,,,,,,,,,,,,,,,,,,,,,,,,,,,,,,,,,,,,,,,,,,,,,,,,,,,,,,,,,,,,,,,,,,,,,,,,,,,,,,,,,,,,,,,,,,,,,,,,,,,,,,,,,,,,,,,,,,,,,,,,,,,,,,,,,
1725717265.380058,1725717265.381839,120.0,0.0,4275.641113,4304.230957,4283.333496,4289.487305,4260.769043,4115.769043,4266.153809,4249.615234,4258.846191,4235.769043,4506.025879,4538.974121,4370.0,4438.077148,0.0,0.0,11.0,,,,0.0,4.0,4.0,4.0,4.0,4.0,4.0,4.0,4.0,4.0,4.0,4.0,4.0,4.0,4.0,100.0,,,,,,,,,,,,,,,,,,,,,,,,,,,,,,,,,,,,,,,,,,,,,,,,,,,,,,,,,,,,,,,,,,,,,,,,,,,,,,,,,,,,,,,,,,,,,,,,,,,,,,,,,,,,,,,,,,,,,,,,,,,,,,,,,,,
1725717265.383962,1725717265.385743,121.0,0.0,4271.794922,4298.974121,4282.05127,4287.307617,4258.974121,4119.743652,4265.512695,4252.820313,4262.820313,4237.563965,4494.743652,4541.025879,4368.846191,4432.179688,0.0,0.0,11.0,,,,0.0,4.0,4.0,4.0,4.0,4.0,4.0,4.0,4.0,4.0,4.0,4.0,4.0,4.0,4.0,100.0,,,,,,,,,,,,,,,,,,,,,,,,,,,,,,,,,,,,,,,,,,,,,,,,,,,,,,,,,,,,,,,,,,,,,,,,,,,,,,,,,,,,,,,,,,,,,,,,,,,,,,,,,,,,,,,,,,,,,,,,,,,,,,,,,,,
1725717265.387866,1725717265.389747,122.0,0.0,4268.717773,4296.922852,4281.794922,4285.769043,4256.538574,4121.025879,4264.358887,4256.538574,4264.230957,4237.94873,4488.205078,4542.179688,4366.922852,4427.563965,0.0,0.0,11.0,,,,0.0,4.0,4.0,4.0,4.0,4.0,4.0,4.0,4.0,4.0,4.0,4.0,4.0,4.0,4.0,100.0,,,,,,,,,,,,,,,,,,,,,,,,,,,,,,,,,,,,,,,,,,,,,,,,,,,,,,,,,,,,,,,,,,,,,,,,,,,,,,,,,,,,,,,,,,,,,,,,,,,,,,,,,,,,,,,,,,,,,,,,,,,,,,,,,,,
1725717265.39177,1725717265.393652,123.0,0.0,4267.436035,4298.717773,4282.307617,4285.256348,4255.769043,4119.230957,4263.589844,4258.589844,4262.820313,4236.538574,4491.025879,4541.153809,4365.384766,4426.410156,0.0,0.0,11.0,,,,0.0,4.0,4.0,4.0,4.0,4.0,4.0,4.0,4.0,4.0,4.0,4.0,4.0,4.0,4.0,100.0,,,,,,,,,,,,,,,,,,,,,,,,,,,,,,,,,,,,,,,,,,,,,,,,,,,,,,,,,,,,,,,,,,,,,,,,,,,,,,,,,,,,,,,,,,,,,,,,,,,,,,,,,,,,,,,,,,,,,,,,,,,,,,,,,,,
1725717265.395674,1725717265.397556,124.0,0.0,4267.436035,4301.794922,4282.436035,4285.0,4257.94873,4115.512695,4264.358887,4257.563965,4260.641113,4234.358887,4500.641113,4537.820313,4364.743652,4427.820313,0.0,0.0,11.0,,,,0.0,4.0,4.0,4.0,4.0,4.0,4.0,4.0,4.0,4.0,4.0,4.0,4.0,4.0,4.0,100.0,,,,,,,,,,,,,,,,,,,,,,,,,,,,,,,,,,,,,,,,,,,,,,,,,,,,,,,,0.0,0.0,1.0,0.0,1.0,0.0,,,,,,,,,,,,,,,,,,,,,,,,,,,,,,,,,,,,,,,,,,,,,,,,,,,,,,,,,,,,,,,,,,,,,,
1725717265.399578,1725717265.40146,125.0,0.0,4267.563965,4303.333496,4281.794922,4284.102539,4262.179688,4112.563965,4266.282227,4254.615234,4259.743652,4232.94873,4509.487305,4533.333496,4365.128418,4429.487305,0.0,0.0,11.0,,,,0.0,4.0,4.0,4.0,4.0,4.0,4.0,4.0,4.0,4.0,4.0,4.0,4.0,4.0,4.0,100.0,,,,,,,,,,,,,,,,,,,,,,,,,,,,,,,,,,,,,,,,,,,,,,,,,,,,,,,,,,,,,,,,,,,,,,,,,,,,,,,,,,,,,,,,,,,,,,,,,,,,,,,,,,,,,,,,,,,,,,,,,,,,,,,,,,,
1725717265.403483,1725717265.405364,126.0,0.0,4266.794922,4302.05127,4280.384766,4281.922852,4265.128418,4111.922852,4268.589844,4251.922852,4260.769043,4233.461426,4511.153809,4528.589844,4366.153809,4429.743652,0.0,0.0,11.0,,,,0.0,4.0,4.0,4.0,4.0,4.0,4.0,4.0,4.0,4.0,4.0,4.0,4.0,4.0,4.0,100.0,,,,,,,,,,,,,,,,,,,,,,,,,,,,,,,,,,,,,,,,,,,,,,,,,,,,,,,,,,,,,,,,,,,,,,,,,,,,,,,,,,,,,,,,,,,,,,,,,,,,,,,,,,,,,,,,,,,,,,,,,,,,,,,,,,,
1725717265.407387,1725717265.409168,127.0,0.0,4265.256348,4298.974121,4278.846191,4279.102539,4264.487305,4113.846191,4270.128418,4250.641113,4262.436035,4235.384766,4505.0,4524.487305,4366.922852,4428.717773,0.0,0.0,11.0,,,,0.0,4.0,4.0,4.0,4.0,4.0,4.0,4.0,4.0,4.0,4.0,4.0,4.0,4.0,4.0,100.0,,,,,,,,,,,,,,,,,,,,,,,,,,,,,,,,,,,,,,,,,,,,,,,,,,,,,,,,,,,,,,,,,,,,,,,,,,,,,,,,,,,,,,,,,,,,,,,,,,,,,,,,,,,,,,,,,,,,,,,,,,,,,,,,,,,
1725717265.411291,1725717265.413072,128.0,0.0,4263.717773,4296.538574,4277.692383,4276.922852,4259.743652,4116.666504,4270.641113,4250.769043,4262.692383,4237.179688,4495.256348,4521.794922,4366.282227,4427.563965,2693.0,0.0,11.0,,,,0.0,4.0,4.0,4.0,4.0,4.0,4.0,4.0,4.0,4.0,4.0,4.0,4.0,4.0,4.0,100.0,,,,,,,,,,,,,,,,,,,,,,,,,,,,,,,,,,,,,,,,,,,,,,,,,,,,,,,,,,,,,,,,,,,,,,,,,,,,,,,,,,,,,,,,,,,,,,,,,,,,,,,,,,,,,,,,,,,,,,,,,,,,,,,,,,,
1725717265.415195,1725717265.416976,129.0,0.0,4262.820313,4296.410156,4277.05127,4276.025879,4253.461426,4119.230957,4271.282227,4251.410156,4261.025879,4236.922852,4487.94873,4521.025879,4363.717773,4426.282227,2578.0,0.0,11.0,,,,0.0,4.0,4.0,4.0,4.0,4.0,4.0,4.0,4.0,4.0,4.0,4.0,4.0,4.0,4.0,100.0,,,,,,,,,,,,,,,,,,,,,,,,,,,,,,,,,,,,,,,,,,,,,,,,,,,,,,,,,,,,,,,,,,,,,,,,,,,,,,,,,,,,,,,,,,,,,,,,,,,,,,,,,,,,,,,,,,,,,,,,,,,,,,,,,,,
1725717265.419099,1725717265.42078,130.0,0.0,4262.307617,4298.589844,4276.538574,4276.666504,4250.0,4120.512695,4272.94873,4251.666504,4258.589844,4234.615234,4486.538574,4521.410156,4360.384766,4424.102539,2505.0,0.0,11.0,,,,0.0,4.0,4.0,4.0,4.0,4.0,4.0,4.0,4.0,4.0,4.0,4.0,4.0,4.0,4.0,100.0,,,,,,,,,,,,,,,,,,,,,,,,,,,,,,,,,,,,,,,,,,,,,,,,,,,,,,,,,,,,,,,,,,,,,,,,,,,,,,,,,,,,,,,,,,,,,,,,,,,,,,,,,,,,,,,,,,,,,,,,,,,,,,,,,,,
1725717265.423003,1725717265.424685,131.0,0.0,4262.05127,4302.05127,4275.897461,4277.94873,4251.794922,4120.512695,4275.384766,4251.282227,4257.692383,4231.410156,4489.743652,4521.153809,4357.94873,4420.769043,2469.0,0.0,11.0,,,,0.0,4.0,4.0,4.0,4.0,4.0,4.0,4.0,4.0,4.0,4.0,4.0,4.0,4.0,4.0,100.0,,,,,,,,,,,,,,,,,,,,,,,,,,,,,,,,,,,,,,,,,,,,,,,,,,,,,,,,,,,,,,,,,,,,,,,,,,,,,,,,,,,,,,,,,,,,,,,,,,,,,,,,,,,,,,,,,,,,,,,,,,,,,,,,,,,
1725717265.426907,1725717265.428589,132.0,0.0,4261.538574,4305.256348,4275.641113,4278.974121,4257.436035,4120.0,4277.820313,4250.384766,4258.589844,4229.358887,4492.692383,4519.487305,4356.922852,4417.436035,2443.0,0.0,11.0,,,,0.0,4.0,4.0,4.0,4.0,4.0,4.0,4.0,4.0,4.0,4.0,4.0,4.0,4.0,4.0,100.0,,,,,,,,,,,,,,,,,,,,,,,,,,,,,,,,,,,,,,,,,,,,,,,,,,,,,,,,0.0,0.0,1.0,0.0,1.0,0.0,,,,,,,,,,,,,,,,,,,,,,,,,,,,,,,,,,,,,,,,,,,,,,,,,,,,,,,,,,,,,,,,,,,,,,
1725717265.430811,1725717265.432593,133.0,0.0,4261.153809,4307.05127,4276.666504,4278.589844,4262.692383,4119.487305,4279.102539,4249.743652,4259.487305,4229.102539,4492.05127,4517.179688,4356.922852,4416.538574,2386.0,0.0,11.0,,,,0.0,4.0,4.0,4.0,4.0,4.0,4.0,4.0,4.0,4.0,4.0,4.0,4.0,4.0,4.0,100.0,,,,,,,,,,,,,,,,,,,,,,,,,,,,,,,,,,,,,,,,,,,,,,,,,,,,,,,,,,,,,,,,,,,,,,,,,,,,,,,,,,,,,,,,,,,,,,,,,,,,,,,,,,,,,,,,,,,,,,,,,,,,,,,,,,,
1725717265.434715,1725717265.436497,134.0,0.0,4261.282227,4308.077148,4278.846191,4277.05127,4264.102539,4119.615234,4278.974121,4249.743652,4258.205078,4230.512695,4489.358887,4516.025879,4356.922852,4418.717773,2438.0,0.0,11.0,,,,0.0,4.0,4.0,4.0,4.0,4.0,4.0,4.0,4.0,4.0,4.0,4.0,4.0,4.0,4.0,100.0,,,,,,,,,,,,,,,,,,,,,,,,,,,,,,,,,,,,,,,,,,,,,,,,,,,,,,,,,,,,,,,,,,,,,,,,,,,,,,,,,,,,,,,,,,,,,,,,,,,,,,,,,,,,,,,,,,,,,,,,,,,,,,,,,,,
1725717265.43862,1725717265.440401,135.0,0.0,4262.179688,4309.102539,4281.025879,4275.641113,4261.666504,4120.256348,4278.205078,4249.615234,4254.487305,4232.436035,4488.333496,4516.153809,4356.922852,4422.692383,2494.0,0.0,11.0,,,,0.0,4.0,4.0,4.0,4.0,4.0,4.0,4.0,4.0,4.0,4.0,4.0,4.0,4.0,4.0,100.0,,,,,,,,,,,,,,,,,,,,,,,,,,,,,,,,,,,,,,,,,,,,,,,,,,,,,,,,,,,,,,,,,,,,,,,,,,,,,,,,,,,,,,,,,,,,,,,,,,,,,,,,,,,,,,,,,,,,,,,,,,,,,,,,,,,
1725717265.442524,1725717265.444305,136.0,0.0,4263.717773,4310.512695,4281.922852,4275.641113,4258.205078,4121.025879,4277.692383,4248.205078,4249.871582,4233.846191,4490.769043,4516.922852,4357.692383,4426.282227,2476.0,0.0,11.0,,,,0.0,4.0,4.0,4.0,4.0,4.0,4.0,4.0,4.0,4.0,4.0,4.0,4.0,4.0,4.0,100.0,,,,,,,,,,,,,,,,,,,,,,,,,,,,,,,,,,,,,,,,,,,,,,,,,,,,,,,,,,,,,,,,,,,,,,,,,,,,,,,,,,,,,,,,,,,,,,,,,,,,,,,,,,,,,,,,,,,,,,,,,,,,,,,,,,,
1725717265.446428,1725717265.448209,137.0,0.0,4265.128418,4311.666504,4281.410156,4276.794922,4256.666504,4121.794922,4277.94873,4245.897461,4247.05127,4234.358887,4493.974121,4517.820313,4359.487305,4428.333496,2568.0,0.0,11.0,,,,0.0,4.0,4.0,4.0,4.0,4.0,4.0,4.0,4.0,4.0,4.0,4.0,4.0,4.0,4.0,100.0,,,,,,,,,,,,,,,,,,,,,,,,,,,,,,,,,,,,,,,,,,,,,,,,,,,,,,,,,,,,,,,,,,,,,,,,,,,,,,,,,,,,,,,,,,,,,,,,,,,,,,,,,,,,,,,,,,,,,,,,,,,,,,,,,,,
1725717265.450332,1725717265.452013,138.0,0.0,4266.025879,4312.05127,4281.025879,4278.077148,4257.307617,4121.922852,4278.589844,4244.743652,4247.94873,4233.974121,4494.230957,4519.487305,4361.153809,4428.589844,2899.0,0.0,11.0,,,,0.0,4.0,4.0,4.0,4.0,4.0,4.0,4.0,4.0,4.0,4.0,4.0,4.0,4.0,4.0,100.0,,,,,,,,,,,,,,,,,,,,,,,,,,,,,,,,,,,,,,,,,,,,,,,,,,,,,,,,,,,,,,,,,,,,,,,,,,,,,,,,,,,,,,,,,,,,,,,,,,,,,,,,,,,,,,,,,,,,,,,,,,,,,,,,,,,
1725717265.454236,1725717265.455917,139.0,0.0,4266.538574,4311.794922,4282.307617,4278.077148,4258.205078,4121.666504,4278.846191,4247.307617,4252.692383,4233.333496,4490.512695,4523.077148,4362.05127,4428.077148,3107.0,0.0,11.0,,,,0.0,4.0,4.0,4.0,4.0,4.0,4.0,4.0,4.0,4.0,4.0,4.0,4.0,4.0,4.0,100.0,,,,,,,,,,,,,,,,,,,,,,,,,,,,,,,,,,,,,,,,,,,,,,,,,,,,,,,,,,,,,,,,,,,,,,,,,,,,,,,,,,,,,,,,,,,,,,,,,,,,,,,,,,,,,,,,,,,,,,,,,,,,,,,,,,,
1725717265.45814,1725717265.459822,140.0,0.0,4267.05127,4311.410156,4285.384766,4275.769043,4257.307617,4121.153809,4277.94873,4253.205078,4259.230957,4232.94873,4485.641113,4527.692383,4361.538574,4427.563965,3435.0,0.0,11.0,,,,0.0,4.0,4.0,4.0,4.0,4.0,4.0,4.0,4.0,4.0,4.0,4.0,4.0,4.0,4.0,100.0,,,,,,,,,,,,,,,,,,,,,,,,,,,,,,,,,,,,,,,,,,,,,,,,,,,,,,,,0.0,0.0,1.0,0.0,1.0,0.0,,,,,,,,,,,,,,,,,,,,,,,,,,,,,,,,,,,,,,,,,,,,,,,,,,,,,,,,,,,,,,,,,,,,,,
1725717265.462044,1725717265.463826,141.0,0.0,4267.179688,4311.282227,4288.461426,4271.922852,4255.0,4121.025879,4276.538574,4259.358887,4263.974121,4233.205078,4483.205078,4530.897461,4360.384766,4427.692383,3844.0,0.0,11.0,,,,0.0,4.0,4.0,4.0,4.0,4.0,4.0,4.0,4.0,4.0,4.0,4.0,4.0,4.0,4.0,100.0,,,,,,,,,,,,,,,,,,,,,,,,,,,,,,,,,,,,,,,,,,,,,,,,,,,,,,,,,,,,,,,,,,,,,,,,,,,,,,,,,,,,,,,,,,,,,,,,,,,,,,,,,,,,,,,,,,,,,,,,,,,,,,,,,,,
1725717265.465948,1725717265.46773,142.0,0.0,4266.922852,4311.153809,4289.743652,4267.692383,4253.461426,4121.282227,4275.641113,4261.922852,4264.230957,4233.717773,4485.128418,4530.769043,4360.0,4428.717773,2899.0,0.0,11.0,,,,0.0,4.0,4.0,4.0,4.0,4.0,4.0,4.0,4.0,4.0,4.0,4.0,4.0,4.0,4.0,100.0,,,,,,,,,,,,,,,,,,,,,,,,,,,,,,,,,,,,,,,,,,,,,,,,,,,,,,,,,,,,,,,,,,,,,,,,,,,,,,,,,,,,,,,,,,,,,,,,,,,,,,,,,,,,,,,,,,,,,,,,,,,,,,,,,,,
1725717265.469852,1725717265.471634,143.0,0.0,4266.410156,4310.384766,4288.077148,4265.0,4254.102539,4121.922852,4275.512695,4259.487305,4260.384766,4233.846191,4490.256348,4528.333496,4361.794922,4430.0,3107.0,0.0,11.0,,,,0.0,4.0,4.0,4.0,4.0,4.0,4.0,4.0,4.0,4.0,4.0,4.0,4.0,4.0,4.0,100.0,,,,,,,,,,,,,,,,,,,,,,,,,,,,,,,,,,,,,,,,,,,,,,,,,,,,,,,,,,,,,,,,,,,,,,,,,,,,,,,,,,,,,,,,,,,,,,,,,,,,,,,,,,,,,,,,,,,,,,,,,,,,,,,,,,,
1725717265.473756,1725717265.475538,144.0,0.0,4265.641113,4308.974121,4284.615234,4264.230957,4255.897461,4122.436035,4276.153809,4253.461426,4255.512695,4233.461426,4495.128418,4525.512695,4365.512695,4431.025879,3435.0,0.0,11.0,,,,0.0,4.0,4.0,4.0,4.0,4.0,4.0,4.0,4.0,4.0,4.0,4.0,4.0,4.0,4.0,100.0,,,,,,,,,,,,,,,,,,,,,,,,,,,,,,,,,,,,,,,,,,,,,,,,,,,,,,,,,,,,,,,,,,,,,,,,,,,,,,,,,,,,,,,,,,,,,,,,,,,,,,,,,,,,,,,,,,,,,,,,,,,,,,,,,,,
1725717265.477661,1725717265.479542,145.0,0.0,4264.615234,4308.205078,4281.282227,4264.615234,4256.538574,4122.436035,4277.307617,4247.692383,4252.179688,4233.077148,4496.666504,4523.461426,4369.358887,4430.897461,3844.0,0.0,11.0,,,,0.0,4.0,4.0,4.0,4.0,4.0,4.0,4.0,4.0,4.0,4.0,4.0,4.0,4.0,4.0,100.0,,,,,,,,,,,,,,,,,,,,,,,,,,,,,,,,,,,,,,,,,,,,,,,,,,,,,,,,,,,,,,,,,,,,,,,,,,,,,,,,,,,,,,,,,,,,,,,,,,,,,,,,,,,,,,,,,,,,,,,,,,,,,,,,,,,
1725717265.481565,1725717265.483446,146.0,0.0,4263.205078,4309.102539,4279.487305,4264.871582,4254.487305,4121.538574,4278.717773,4245.256348,4251.153809,4232.820313,4494.358887,4521.794922,4370.384766,4428.589844,2899.0,0.0,11.0,,,,0.0,4.0,4.0,4.0,4.0,4.0,4.0,4.0,4.0,4.0,4.0,4.0,4.0,4.0,4.0,100.0,,,,,,,,,,,,,,,,,,,,,,,,,,,,,,,,,,,,,,,,,,,,,,,,,,,,,,,,,,,,,,,,,,,,,,,,,,,,,,,,,,,,,,,,,,,,,,,,,,,,,,,,,,,,,,,,,,,,,,,,,,,,,,,,,,,
1725717265.485469,1725717265.48735,147.0,0.0,4261.794922,4311.794922,4279.487305,4264.358887,4251.410156,4120.384766,4280.384766,4246.922852,4251.410156,4232.563965,4490.384766,4519.871582,4367.05127,4424.743652,3107.0,0.0,11.0,,,,0.0,4.0,4.0,4.0,4.0,4.0,4.0,4.0,4.0,4.0,4.0,4.0,4.0,4.0,4.0,100.0,,,,,,,,,,,,,,,,,,,,,,,,,,,,,,,,,,,,,,,,,,,,,,,,,,,,,,,,,,,,,,,,,,,,,,,,,,,,,,,,,,,,,,,,,,,,,,,,,,,,,,,,,,,,,,,,,,,,,,,,,,,,,,,,,,,
1725717265.489373,1725717265.491254,148.0,0.0,4261.538574,4315.641113,4280.384766,4263.461426,4249.871582,4119.615234,4281.666504,4250.769043,4252.307617,4232.179688,4487.94873,4517.563965,4361.282227,4420.769043,3435.0,0.0,11.0,,,,0.0,4.0,4.0,4.0,4.0,4.0,4.0,4.0,4.0,4.0,4.0,4.0,4.0,4.0,4.0,100.0,,,,,,,,,,,,,,,,,1.0,0.0,0.0,,,,,,,,,,,,,,,,,,,,,,,,,,,,,,,,,,,,,0.0,0.0,1.0,0.0,1.0,0.0,1.106069,1.48624,0.709336,0.187521,0.066996,4.224858,2.077107,0.918318,0.293202,0.154941,0.931508,1.51605,0.411196,0.190725,0.090977,1.055934,1.147158,0.330944,0.179375,0.0925,0.599645,0.930096,0.16386,0.051552,0.041584,0.71391,0.309933,0.109668,0.1081,0.035002,1.923571,0.298629,0.192546,0.219725,0.058629,0.488344,1.252368,0.582485,0.212505,0.17923,0.862253,0.868034,0.368467,0.233694,0.109964,1.368083,1.354422,0.554494,0.378105,0.218671,1.44267,2.450813,1.124754,0.768825,0.498064,2.175746,3.265164,0.651871,0.39036,0.187286,1.959839,2.023474,1.024563,0.36261,0.174172,1.669034,2.462132,0.990193,0.358377,0.162522
1725717265.493277,1725717265.495258,149.0,0.0,4262.563965,4318.717773,4281.025879,4262.820313,4251.282227,4119.871582,4282.307617,4253.974121,4253.846191,4231.538574,4488.205078,4514.871582,4357.307617,4418.077148,3844.0,0.0,11.0,,,,0.0,4.0,4.0,4.0,4.0,4.0,4.0,4.0,4.0,4.0,4.0,4.0,4.0,4.0,4.0,100.0,,,,,,,,,,,,,,,,,,,,,,,,,,,,,,,,,,,,,,,,,,,,,,,,,,,,,,,,,,,,,,,,,,,,,,,,,,,,,,,,,,,,,,,,,,,,,,,,,,,,,,,,,,,,,,,,,,,,,,,,,,,,,,,,,,,
1725717265.497181,1725717265.499162,150.0,0.0,4263.717773,4319.871582,4281.025879,4262.692383,4254.358887,4120.897461,4282.05127,4254.615234,4256.025879,4231.410156,4489.871582,4512.05127,4357.820313,4417.179688,2899.0,0.0,11.0,,,,0.0,4.0,4.0,4.0,4.0,4.0,4.0,4.0,4.0,4.0,4.0,4.0,4.0,4.0,4.0,100.0,,,,,,,,,,,,,,,,,,,,,,,,,,,,,,,,,,,,,,,,,,,,,,,,,,,,,,,,,,,,,,,,,,,,,,,,,,,,,,,,,,,,,,,,,,,,,,,,,,,,,,,,,,,,,,,,,,,,,,,,,,,,,,,,,,,
1725717265.501085,1725717265.503066,151.0,0.0,4263.333496,4318.077148,4280.384766,4263.077148,4256.282227,4121.922852,4281.153809,4253.077148,4258.333496,4232.179688,4490.641113,4509.871582,4361.282227,4417.692383,3107.0,0.0,11.0,,,,0.0,4.0,4.0,4.0,4.0,4.0,4.0,4.0,4.0,4.0,4.0,4.0,4.0,4.0,4.0,100.0,,,,,,,,,,,,,,,,,,,,,,,,,,,,,,,,,,,,,,,,,,,,,,,,,,,,,,,,,,,,,,,,,,,,,,,,,,,,,,,,,,,,,,,,,,,,,,,,,,,,,,,,,,,,,,,,,,,,,,,,,,,,,,,,,,,
1725717265.504989,1725717265.50697,152.0,0.0,4260.512695,4314.102539,4279.615234,4263.205078,4255.128418,4122.563965,4280.256348,4251.153809,4259.487305,4233.589844,4489.358887,4509.230957,4362.820313,4417.820313,3435.0,0.0,11.0,,,,0.0,4.0,4.0,4.0,4.0,4.0,4.0,4.0,4.0,4.0,4.0,4.0,4.0,4.0,4.0,100.0,,,,,,,,,,,,,,,,,,,,,,,,,,,,,,,,,,,,,,,,,,,,,,,,,,,,,,,,,,,,,,,,,,,,,,,,,,,,,,,,,,,,,,,,,,,,,,,,,,,,,,,,,,,,,,,,,,,,,,,,,,,,,,,,,,,
1725717265.508893,1725717265.510875,153.0,0.0,4256.282227,4310.384766,4278.846191,4262.820313,4251.794922,4122.563965,4279.743652,4250.256348,4258.974121,4234.615234,4486.666504,4510.256348,4358.974121,4416.538574,3844.0,0.0,11.0,,,,0.0,4.0,4.0,4.0,4.0,4.0,4.0,4.0,4.0,4.0,4.0,4.0,4.0,4.0,4.0,100.0,,,,,,,,,,,,,,,,,,,,,,,,,,,,,,,,,,,,,,,,,,,,,,,,,,,,,,,,,,,,,,,,,,,,,,,,,,,,,,,,,,,,,,,,,,,,,,,,,,,,,,,,,,,,,,,,,,,,,,,,,,,,,,,,,,,
1725717265.512797,1725717265.514679,154.0,0.0,4252.692383,4308.717773,4278.077148,4262.307617,4249.102539,4122.307617,4280.0,4249.615234,4257.05127,4233.974121,4483.717773,4511.410156,4351.153809,4413.974121,2899.0,0.0,11.0,,,,0.0,4.0,4.0,4.0,4.0,4.0,4.0,4.0,4.0,4.0,4.0,4.0,4.0,4.0,4.0,100.0,,,,,,,,,,,,,,,,,,,,,,,,,,,,,,,,,,,,,,,,,,,,,,,,,,,,,,,,,,,,,,,,,,,,,,,,,,,,,,,,,,,,,,,,,,,,,,,,,,,,,,,,,,,,,,,,,,,,,,,,,,,,,,,,,,,
1725717265.516701,1725717265.518583,155.0,0.0,4251.794922,4309.230957,4277.307617,4262.05127,4249.358887,4121.666504,4280.256348,4248.461426,4255.128418,4232.436035,4482.179688,4511.153809,4344.487305,4411.666504,3107.0,0.0,11.0,,,,0.0,4.0,4.0,4.0,4.0,4.0,4.0,4.0,4.0,4.0,4.0,4.0,4.0,4.0,4.0,100.0,,,,,,,,,,,,,,,,,,,,,,,,,,,,,,,,,,,,,,,,,,,,,,,,,,,,,,,,,,,,,,,,,,,,,,,,,,,,,,,,,,,,,,,,,,,,,,,,,,,,,,,,,,,,,,,,,,,,,,,,,,,,,,,,,,,
1725717265.520605,1725717265.522487,156.0,0.0,4254.230957,4310.0,4276.794922,4262.436035,4251.410156,4121.025879,4280.0,4247.05127,4254.615234,4231.410156,4483.205078,4509.487305,4343.846191,4411.922852,3435.0,0.0,11.0,,,,0.0,4.0,4.0,4.0,4.0,4.0,4.0,4.0,4.0,4.0,4.0,4.0,4.0,4.0,4.0,100.0,,,,,,,,,,,,,,,,,,,,,,,,,,,,,,,,,,,,,,,,,,,,,,,,,,,,,,,,0.0,0.0,1.0,0.0,1.0,0.0,,,,,,,,,,,,,,,,,,,,,,,,,,,,,,,,,,,,,,,,,,,,,,,,,,,,,,,,,,,,,,,,,,,,,,
1725717265.52451,1725717265.526291,157.0,0.0,4258.461426,4309.358887,4277.05127,4263.077148,4252.436035,4120.512695,4279.230957,4246.794922,4255.769043,4232.436035,4486.922852,4508.205078,4350.0,4415.128418,3844.0,0.0,11.0,,,,0.0,4.0,4.0,4.0,4.0,4.0,4.0,4.0,4.0,4.0,4.0,4.0,4.0,4.0,4.0,100.0,,,,,,,,,,,,,,,,,,,,,,,,,,,,,,,,,,,,,,,,,,,,,,,,,,,,,,,,,,,,,,,,,,,,,,,,,,,,,,,,,,,,,,,,,,,,,,,,,,,,,,,,,,,,,,,,,,,,,,,,,,,,,,,,,,,
1725717265.528414,1725717265.530195,158.0,0.0,4262.179688,4308.205078,4277.692383,4263.974121,4251.282227,4120.512695,4278.077148,4247.820313,4257.692383,4235.769043,4491.538574,4508.846191,4359.871582,4420.128418,2899.0,0.0,11.0,,,,0.0,4.0,4.0,4.0,4.0,4.0,4.0,4.0,4.0,4.0,4.0,4.0,4.0,4.0,4.0,100.0,,,,,,,,,,,,,,,,,,,,,,,,,,,,,,,,,,,,,,,,,,,,,,,,,,,,,,,,,,,,,,,,,,,,,,,,,,,,,,,,,,,,,,,,,,,,,,,,,,,,,,,,,,,,,,,,,,,,,,,,,,,,,,,,,,,
1725717265.532318,1725717265.534099,159.0,0.0,4263.717773,4308.974121,4278.077148,4265.128418,4250.128418,4121.153809,4277.436035,4247.820313,4258.205078,4239.615234,4493.974121,4510.769043,4368.333496,4424.487305,3107.0,0.0,11.0,,,,0.0,4.0,4.0,4.0,4.0,4.0,4.0,4.0,4.0,4.0,4.0,4.0,4.0,4.0,4.0,100.0,,,,,,,,,,,,,,,,,,,,,,,,,,,,,,,,,,,,,,,,,,,,,,,,,,,,,,,,,,,,,,,,,,,,,,,,,,,,,,,,,,,,,,,,,,,,,,,,,,,,,,,,,,,,,,,,,,,,,,,,,,,,,,,,,,,
1725717265.536222,1725717265.538103,160.0,0.0,4263.205078,4313.077148,4277.692383,4266.538574,4252.05127,4122.307617,4277.692383,4245.641113,4256.153809,4241.666504,4492.179688,4512.94873,4371.794922,4426.794922,3435.0,0.0,11.0,,,,0.0,4.0,4.0,4.0,4.0,4.0,4.0,4.0,4.0,4.0,4.0,4.0,4.0,4.0,4.0,100.0,,,,,,,,,,,,,,,,,,,,,,,,,,,,,,,,,,,,,,,,,,,,,,,,,,,,,,,,,,,,,,,,,,,,,,,,,,,,,,,,,,,,,,,,,,,,,,,,,,,,,,,,,,,,,,,,,,,,,,,,,,,,,,,,,,,
1725717265.540126,1725717265.542007,161.0,0.0,4262.05127,4319.615234,4277.436035,4267.692383,4257.179688,4123.461426,4278.461426,4242.563965,4252.436035,4240.512695,4487.179688,4515.897461,4370.128418,4427.692383,3844.0,0.0,11.0,,,,0.0,4.0,4.0,4.0,4.0,4.0,4.0,4.0,4.0,4.0,4.0,4.0,4.0,4.0,4.0,100.0,,,,,,,,,,,,,,,,,,,,,,,,,,,,,,,,,,,,,,,,,,,,,,,,,,,,,,,,,,,,,,,,,,,,,,,,,,,,,,,,,,,,,,,,,,,,,,,,,,,,,,,,,,,,,,,,,,,,,,,,,,,,,,,,,,,
1725717265.54403,1725717265.545912,162.0,0.0,4262.179688,4325.256348,4277.820313,4267.692383,4262.563965,4124.102539,4278.974121,4241.410156,4249.102539,4236.922852,4482.94873,4520.769043,4366.538574,4428.461426,2899.0,0.0,11.0,,,,0.0,4.0,4.0,4.0,4.0,4.0,4.0,4.0,4.0,4.0,4.0,4.0,4.0,4.0,4.0,100.0,,,,,,,,,,,,,,,,,,,,,,,,,,,,,,,,,,,,,,,,,,,,,,,,,,,,,,,,,,,,,,,,,,,,,,,,,,,,,,,,,,,,,,,,,,,,,,,,,,,,,,,,,,,,,,,,,,,,,,,,,,,,,,,,,,,
1725717265.547934,1725717265.549816,163.0,0.0,4264.102539,4327.179688,4279.358887,4266.922852,4264.358887,4124.230957,4278.974121,4242.94873,4248.333496,4233.461426,4482.563965,4526.025879,4364.358887,4429.615234,3107.0,0.0,11.0,,,,0.0,4.0,4.0,4.0,4.0,4.0,4.0,4.0,4.0,4.0,4.0,4.0,4.0,4.0,4.0,100.0,,,,,,,,,,,,,,,,,,,,,,,,,,,,,,,,,,,,,,,,,,,,,,,,,,,,,,,,,,,,,,,,,,,,,,,,,,,,,,,,,,,,,,,,,,,,,,,,,,,,,,,,,,,,,,,,,,,,,,,,,,,,,,,,,,,
1725717265.551838,1725717265.55372,164.0,0.0,4266.666504,4324.615234,4281.025879,4265.769043,4261.153809,4123.717773,4278.077148,4245.256348,4249.358887,4231.794922,4486.538574,4528.333496,4364.871582,4430.384766,3435.0,0.0,11.0,,,,0.0,4.0,4.0,4.0,4.0,4.0,4.0,4.0,4.0,4.0,4.0,4.0,4.0,4.0,4.0,100.0,,,,,,,,,,,,,,,,,,,,,,,,,,,,,,,,,,,,,,,,,,,,,,,,,,,,,,,,0.0,0.0,1.0,0.0,1.0,0.0,,,,,,,,,,,,,,,,,,,,,,,,,,,,,,,,,,,,,,,,,,,,,,,,,,,,,,,,,,,,,,,,,,,,,,
1725717265.555742,1725717265.557524,165.0,0.0,4267.94873,4320.128418,4281.922852,4265.256348,4254.871582,4122.692383,4276.922852,4245.384766,4250.256348,4232.05127,4491.794922,4524.487305,4366.538574,4429.871582,3844.0,0.0,11.0,,,,0.0,4.0,4.0,4.0,4.0,4.0,4.0,4.0,4.0,4.0,4.0,4.0,4.0,4.0,4.0,100.0,,,,,,,,,,,,,,,,,,,,,,,,,,,,,,,,,,,,,,,,,,,,,,,,,,,,,,,,,,,,,,,,,,,,,,,,,,,,,,,,,,,,,,,,,,,,,,,,,,,,,,,,,,,,,,,,,,,,,,,,,,,,,,,,,,,
1725717265.559646,1725717265.561428,166.0,0.0,4267.179688,4317.436035,4281.538574,4265.512695,4249.487305,4121.538574,4275.641113,4242.05127,4249.102539,4232.94873,4494.615234,4515.897461,4367.05127,4427.436035,2899.0,0.0,11.0,,,,0.0,4.0,4.0,4.0,4.0,4.0,4.0,4.0,4.0,4.0,4.0,4.0,4.0,4.0,4.0,100.0,,,,,,,,,,,,,,,,,,,,,,,,,,,,,,,,,,,,,,,,,,,,,,,,,,,,,,,,,,,,,,,,,,,,,,,,,,,,,,,,,,,,,,,,,,,,,,,,,,,,,,,,,,,,,,,,,,,,,,,,,,,,,,,,,,,
1725717265.563551,1725717265.565332,167.0,0.0,4265.384766,4317.94873,4280.641113,4266.153809,4247.436035,4121.153809,4274.358887,4237.820313,4246.922852,4232.563965,4493.461426,4508.205078,4365.897461,4424.487305,3107.0,0.0,11.0,,,,0.0,4.0,4.0,4.0,4.0,4.0,4.0,4.0,4.0,4.0,4.0,4.0,4.0,4.0,4.0,100.0,,,,,,,,,,,,,,,,,,,,,,,,,,,,,,,,,,,,,,,,,,,,,,,,,,,,,,,,,,,,,,,,,,,,,,,,,,,,,,,,,,,,,,,,,,,,,,,,,,,,,,,,,,,,,,,,,,,,,,,,,,,,,,,,,,,
1725717265.567455,1725717265.569236,168.0,0.0,4263.974121,4321.282227,4280.0,4266.538574,4248.589844,4121.794922,4272.820313,4236.410156,4245.384766,4230.641113,4489.615234,4506.794922,4364.358887,4423.333496,3435.0,0.0,11.0,,,,0.0,4.0,4.0,4.0,4.0,4.0,4.0,4.0,4.0,4.0,4.0,4.0,4.0,4.0,4.0,100.0,,,,,,,,,,,,,,,,,,,,,,,,,,,,,,,,,,,,,,,,,,,,,,,,,,,,,,,,,,,,,,,,,,,,,,,,,,,,,,,,,,,,,,,,,,,,,,,,,,,,,,,,,,,,,,,,,,,,,,,,,,,,,,,,,,,
1725717265.571359,1725717265.573041,169.0,0.0,4263.717773,4325.256348,4280.641113,4266.794922,4251.153809,4123.846191,4271.538574,4240.0,4245.769043,4228.461426,4486.282227,4512.94873,4364.102539,4424.871582,3844.0,0.0,11.0,,,,0.0,4.0,4.0,4.0,4.0,4.0,4.0,4.0,4.0,4.0,4.0,4.0,4.0,4.0,4.0,100.0,,,,,,,,,,,,,,,,,,,,,,,,,,,,,,,,,,,,,,,,,,,,,,,,,,,,,,,,,,,,,,,,,,,,,,,,,,,,,,,,,,,,,,,,,,,,,,,,,,,,,,,,,,,,,,,,,,,,,,,,,,,,,,,,,,,
1725717265.575263,1725717265.576945,170.0,0.0,4264.358887,4327.436035,4281.794922,4266.538574,4252.820313,4126.538574,4270.897461,4246.153809,4247.820313,4228.077148,4485.897461,4521.794922,4365.256348,4427.563965,2899.0,0.0,11.0,,,,0.0,4.0,4.0,4.0,4.0,4.0,4.0,4.0,4.0,4.0,4.0,4.0,4.0,4.0,4.0,100.0,,,,,,,,,,,,,,,,,,,,,,,,,,,,,,,,,,,,,,,,,,,,,,,,,,,,,,,,,,,,,,,,,,,,,,,,,,,,,,,,,,,,,,,,,,,,,,,,,,,,,,,,,,,,,,,,,,,,,,,,,,,,,,,,,,,
1725717265.579167,1725717265.580949,171.0,0.0,4265.0,4327.436035,4282.307617,4266.153809,4253.077148,4128.589844,4271.153809,4250.0,4250.0,4229.487305,4488.077148,4526.922852,4366.538574,4428.589844,3107.0,0.0,11.0,,,,0.0,4.0,4.0,4.0,4.0,4.0,4.0,4.0,4.0,4.0,4.0,4.0,4.0,4.0,4.0,100.0,,,,,,,,,,,,,,,,,,,,,,,,,,,,,,,,,,,,,,,,,,,,,,,,,,,,,,,,,,,,,,,,,,,,,,,,,,,,,,,,,,,,,,,,,,,,,,,,,,,,,,,,,,,,,,,,,,,,,,,,,,,,,,,,,,,
1725717265.583071,1725717265.584853,172.0,0.0,4264.871582,4325.384766,4281.282227,4265.769043,4251.922852,4128.461426,4272.307617,4247.820313,4250.512695,4231.282227,4490.128418,4524.230957,4366.538574,4425.512695,3435.0,0.0,11.0,,,,0.0,4.0,4.0,4.0,4.0,4.0,4.0,4.0,4.0,4.0,4.0,4.0,4.0,4.0,4.0,100.0,,,,,,,,,,,,,,,,,,,,,,,,,,,,,,,,,,,,,,,,,,,,,,,,,,,,,,,,0.0,0.0,1.0,0.0,1.0,0.0,,,,,,,,,,,,,,,,,,,,,,,,,,,,,,,,,,,,,,,,,,,,,,,,,,,,,,,,,,,,,,,,,,,,,,
1725717265.586975,1725717265.588757,173.0,0.0,4263.589844,4323.077148,4278.717773,4265.512695,4250.384766,4125.897461,4273.717773,4240.769043,4248.846191,4231.025879,4489.615234,4515.769043,4365.0,4419.230957,3844.0,0.0,11.0,,,,0.0,4.0,4.0,4.0,4.0,4.0,4.0,4.0,4.0,4.0,4.0,4.0,4.0,4.0,4.0,100.0,,,,,,,,,,,,,,,,,,,,,,,,,,,,,,,,,,,,,,,,,,,,,,,,,,,,,,,,,,,,,,,,,,,,,,,,,,,,,,,,,,,,,,,,,,,,,,,,,,,,,,,,,,,,,,,,,,,,,,,,,,,,,,,,,,,
1725717265.590879,1725717265.592661,174.0,0.0,4261.794922,4321.282227,4275.769043,4265.769043,4249.230957,4122.436035,4275.128418,4233.717773,4246.538574,4228.717773,4486.666504,4507.307617,4363.461426,4413.974121,2899.0,0.0,11.0,,,,0.0,4.0,4.0,4.0,4.0,4.0,4.0,4.0,4.0,4.0,4.0,4.0,4.0,4.0,4.0,100.0,,,,,,,,,,,,,,,,,,,,,,,,,,,,,,,,,,,,,,,,,,,,,,,,,,,,,,,,,,,,,,,,,,,,,,,,,,,,,,,,,,,,,,,,,,,,,,,,,,,,,,,,,,,,,,,,,,,,,,,,,,,,,,,,,,,
1725717265.594783,1725717265.596565,175.0,0.0,4260.641113,4320.897461,4274.230957,4266.282227,4248.589844,4120.256348,4275.769043,4232.307617,4246.282227,4227.692383,4484.487305,4505.0,4363.589844,4414.102539,3107.0,0.0,11.0,,,,0.0,4.0,4.0,4.0,4.0,4.0,4.0,4.0,4.0,4.0,4.0,4.0,4.0,4.0,4.0,100.0,,,,,,,,,,,,,,,,,,,,,,,,,,,,,,,,,,,,,,,,,,,,,,,,,,,,,,,,,,,,,,,,,,,,,,,,,,,,,,,,,,,,,,,,,,,,,,,,,,,,,,,,,,,,,,,,,,,,,,,,,,,,,,,,,,,
1725717265.598688,1725717265.600569,176.0,0.0,4261.666504,4321.794922,4275.0,4266.666504,4248.846191,4120.384766,4275.128418,4237.94873,4249.743652,4231.025879,4486.282227,4510.512695,4366.282227,4420.0,3435.0,0.0,11.0,,,,0.0,4.0,4.0,4.0,4.0,4.0,4.0,4.0,4.0,4.0,4.0,4.0,4.0,4.0,4.0,100.0,,,,,,,,,,,,,,,,,,,,,,,,,,,,,,,,,,,,,,,,,,,,,,,,,,,,,,,,,,,,,,,,,,,,,,,,,,,,,,,,,,,,,,,,,,,,,,,,,,,,,,,,,,,,,,,,,,,,,,,,,,,,,,,,,,,
1725717265.602592,1725717265.604473,177.0,0.0,4263.717773,4323.333496,4277.179688,4266.153809,4250.128418,4122.05127,4273.589844,4246.666504,4255.769043,4238.461426,4492.179688,4520.0,4370.897461,4428.205078,3844.0,0.0,11.0,,,,0.0,4.0,4.0,4.0,4.0,4.0,4.0,4.0,4.0,4.0,4.0,4.0,4.0,4.0,4.0,100.0,,,,,,,,,,,,,,,,,,,,,,,,,,,,,,,,,,,,,,,,,,,,,,,,,,,,,,,,,,,,,,,,,,,,,,,,,,,,,,,,,,,,,,,,,,,,,,,,,,,,,,,,,,,,,,,,,,,,,,,,,,,,,,,,,,,
1725717265.606496,1725717265.608377,178.0,0.0,4264.487305,4324.487305,4279.102539,4264.358887,4252.05127,4124.487305,4272.179688,4253.077148,4261.025879,4246.153809,4497.692383,4527.307617,4375.128418,4432.94873,2899.0,0.0,11.0,,,,0.0,4.0,4.0,4.0,4.0,4.0,4.0,4.0,4.0,4.0,4.0,4.0,4.0,4.0,4.0,100.0,,,,,,,,,,,,,,,,,,,,,,,,,,,,,,,,,,,,,,,,,,,,,,,,,,,,,,,,,,,,,,,,,,,,,,,,,,,,,,,,,,,,,,,,,,,,,,,,,,,,,,,,,,,,,,,,,,,,,,,,,,,,,,,,,,,
1725717265.6104,1725717265.612281,179.0,0.0,4262.563965,4324.230957,4279.230957,4262.307617,4253.589844,4126.922852,4271.666504,4254.102539,4262.820313,4249.102539,4497.94873,4528.205078,4376.025879,4431.282227,3107.0,0.0,11.0,,,,0.0,4.0,4.0,4.0,4.0,4.0,4.0,4.0,4.0,4.0,4.0,4.0,4.0,4.0,4.0,100.0,,,,,,,,,,,,,,,,,,,,,,,,,,,,,,,,,,,,,,,,,,,,,,,,,,,,,,,,,,,,,,,,,,,,,,,,,,,,,,,,,,,,,,,,,,,,,,,,,,,,,,,,,,,,,,,,,,,,,,,,,,,,,,,,,,,
1725717265.614304,1725717265.616185,180.0,0.0,4258.461426,4323.077148,4277.05127,4261.282227,4253.589844,4129.230957,4272.563965,4251.410156,4260.897461,4245.769043,4492.179688,4524.230957,4372.436035,4424.743652,3435.0,0.0,11.0,,,,0.0,4.0,4.0,4.0,4.0,4.0,4.0,4.0,4.0,4.0,4.0,4.0,4.0,4.0,4.0,100.0,1.0,75.0,4.0,4.0,4.0,4.0,4.0,4.0,1.0,4.0,4.0,4.0,4.0,4.0,4.0,4.0,1.0,0.0,0.0,,,,,,,,,,,,,,,,,,,,,,,,,,,,,,,,,,,,,0.0,0.0,1.0,0.0,1.0,0.0,1.510422,1.890981,0.862114,0.206102,0.072662,5.121676,2.645368,0.998655,0.323412,0.163634,1.211854,1.945771,0.520063,0.242208,0.097454,1.321052,1.505309,0.425152,0.209414,0.094234,0.807099,1.145103,0.180493,0.053104,0.043184,0.609691,0.33773,0.144429,0.125986,0.036244,1.588729,0.417073,0.227799,0.230092,0.057179,0.467569,1.468497,0.623008,0.245666,0.176147,0.946263,0.952155,0.405679,0.278874,0.108043,1.713478,1.771552,0.657061,0.438489,0.204444,1.778223,3.10693,1.511746,0.914408,0.505292,2.235229,4.239726,0.782889,0.45007,0.191497,2.371953,2.787616,1.281694,0.408121,0.192235,1.980462,3.30271,1.222982,0.463079,0.157546
1725717265.618208,1725717265.61999,181.0,0.0,4254.487305,4322.436035,4274.102539,4262.436035,4251.794922,4131.538574,4274.102539,4249.487305,4257.820313,4239.358887,4483.846191,4520.256348,4366.538574,4418.333496,3844.0,0.0,11.0,,,,0.0,4.0,4.0,4.0,4.0,4.0,4.0,4.0,4.0,4.0,4.0,4.0,4.0,4.0,4.0,100.0,,,,,,,,,,,,,,,,,,,,,,,,,,,,,,,,,,,,,,,,,,,,,,,,,,,,,,,,,,,,,,,,,,,,,,,,,,,,,,,,,,,,,,,,,,,,,,,,,,,,,,,,,,,,,,,,,,,,,,,,,,,,,,,,,,,
1725717265.622112,1725717265.623894,182.0,0.0,4253.077148,4323.333496,4272.179688,4264.615234,4249.230957,4133.461426,4274.615234,4250.128418,4256.794922,4235.512695,4477.94873,4519.743652,4362.179688,4416.282227,2899.0,0.0,11.0,,,,0.0,4.0,4.0,4.0,4.0,4.0,4.0,4.0,4.0,4.0,4.0,4.0,4.0,4.0,4.0,100.0,,,,,,,,,,,,,,,,,,,,,,,,,,,,,,,,,,,,,,,,,,,,,,,,,,,,,,,,,,,,,,,,,,,,,,,,,,,,,,,,,,,,,,,,,,,,,,,,,,,,,,,,,,,,,,,,,,,,,,,,,,,,,,,,,,,
1725717265.626016,1725717265.627798,183.0,0.0,4254.615234,4324.743652,4272.179688,4265.769043,4247.05127,4134.487305,4273.077148,4251.922852,4259.102539,4237.436035,4478.333496,4521.410156,4362.436035,4419.487305,3107.0,0.0,11.0,,,,0.0,4.0,4.0,4.0,4.0,4.0,4.0,4.0,4.0,4.0,4.0,4.0,4.0,4.0,4.0,100.0,,,,,,,,,,,,,,,,,,,,,,,,,,,,,,,,,,,,,,,,,,,,,,,,,,,,,,,,,,,,,,,,,,,,,,,,,,,,,,,,,,,,,,,,,,,,,,,,,,,,,,,,,,,,,,,,,,,,,,,,,,,,,,,,,,,
1725717265.62992,1725717265.631602,184.0,0.0,4257.692383,4325.384766,4273.846191,4264.743652,4246.153809,4134.358887,4269.615234,4252.05127,4263.077148,4243.333496,4485.769043,4522.179688,4367.307617,4425.0,3435.0,0.0,11.0,,,,0.0,4.0,4.0,4.0,4.0,4.0,4.0,4.0,4.0,4.0,4.0,4.0,4.0,4.0,4.0,100.0,,,,,,,,,,,,,,,,,,,,,,,,,,,,,,,,,,,,,,,,,,,,,,,,,,,,,,,,,,,,,,,,,,,,,,,,,,,,,,,,,,,,,,,,,,,,,,,,,,,,,,,,,,,,,,,,,,,,,,,,,,,,,,,,,,,
1725717265.633824,1725717265.635506,185.0,0.0,4260.256348,4324.230957,4275.897461,4262.307617,4246.282227,4133.333496,4265.641113,4250.384766,4266.282227,4247.820313,4497.563965,4521.025879,4373.846191,4429.230957,3844.0,0.0,11.0,,,,0.0,4.0,4.0,4.0,4.0,4.0,4.0,4.0,4.0,4.0,4.0,4.0,4.0,4.0,4.0,100.0,,,,,,,,,,,,,,,,,,,,,,,,,,,,,,,,,,,,,,,,,,,,,,,,,,,,,,,,,,,,,,,,,,,,,,,,,,,,,,,,,,,,,,,,,,,,,,,,,,,,,,,,,,,,,,,,,,,,,,,,,,,,,,,,,,,
1725717265.637729,1725717265.63941,186.0,0.0,4261.794922,4322.563965,4277.436035,4260.0,4247.05127,4132.692383,4263.461426,4249.230957,4266.666504,4247.05127,4508.717773,4520.128418,4378.205078,4430.641113,2899.0,0.0,11.0,,,,0.0,4.0,4.0,4.0,4.0,4.0,4.0,4.0,4.0,4.0,4.0,4.0,4.0,4.0,4.0,100.0,,,,,,,,,,,,,,,,,,,,,,,,,,,,,,,,,,,,,,,,,,,,,,,,,,,,,,,,,,,,,,,,,,,,,,,,,,,,,,,,,,,,,,,,,,,,,,,,,,,,,,,,,,,,,,,,,,,,,,,,,,,,,,,,,,,
1725717265.641633,1725717265.643414,187.0,0.0,4262.692383,4322.179688,4278.077148,4259.487305,4248.077148,4133.461426,4264.871582,4250.769043,4263.974121,4241.410156,4513.717773,4522.307617,4378.461426,4430.0,3107.0,0.0,11.0,,,,0.0,4.0,4.0,4.0,4.0,4.0,4.0,4.0,4.0,4.0,4.0,4.0,4.0,4.0,4.0,100.0,,,,,,,,,,,,,,,,,,,,,,,,,,,,,,,,,,,,,,,,,,,,,,,,,,,,,,,,,,,,,,,,,,,,,,,,,,,,,,,,,,,,,,,,,,,,,,,,,,,,,,,,,,,,,,,,,,,,,,,,,,,,,,,,,,,
1725717265.645537,1725717265.647318,188.0,0.0,4263.717773,4323.974121,4278.333496,4260.769043,4249.358887,4135.384766,4269.358887,4255.0,4259.743652,4235.256348,4510.641113,4527.94873,4375.384766,4429.487305,3435.0,0.0,11.0,,,,0.0,4.0,4.0,4.0,4.0,4.0,4.0,4.0,4.0,4.0,4.0,4.0,4.0,4.0,4.0,100.0,,,,,,,,,,,,,,,,,,,,,,,,,,,,,,,,,,,,,,,,,,,,,,,,,,,,,,,,0.0,0.0,1.0,0.0,1.0,0.0,,,,,,,,,,,,,,,,,,,,,,,,,,,,,,,,,,,,,,,,,,,,,,,,,,,,,,,,,,,,,,,,,,,,,,
1725717265.649441,1725717265.651223,189.0,0.0,4264.871582,4327.307617,4278.974121,4263.205078,4250.384766,4137.563965,4274.871582,4259.358887,4256.666504,4233.461426,4502.05127,4533.974121,4372.436035,4430.128418,3844.0,0.0,11.0,,,,0.0,4.0,4.0,4.0,4.0,4.0,4.0,4.0,4.0,4.0,4.0,4.0,4.0,4.0,4.0,100.0,,,,,,,,,,,,,,,,,,,,,,,,,,,,,,,,,,,,,,,,,,,,,,,,,,,,,,,,,,,,,,,,,,,,,,,,,,,,,,,,,,,,,,,,,,,,,,,,,,,,,,,,,,,,,,,,,,,,,,,,,,,,,,,,,,,
1725717265.653345,1725717265.655127,190.0,0.0,4265.512695,4330.0,4279.871582,4265.0,4251.025879,4138.589844,4278.333496,4260.128418,4256.153809,4237.692383,4493.589844,4535.897461,4371.794922,4431.153809,2899.0,0.0,11.0,,,,0.0,4.0,4.0,4.0,4.0,4.0,4.0,4.0,4.0,4.0,4.0,4.0,4.0,4.0,4.0,100.0,,,,,,,,,,,,,,,,,,,,,,,,,,,,,,,,,,,,,,,,,,,,,,,,,,,,,,,,,,,,,,,,,,,,,,,,,,,,,,,,,,,,,,,,,,,,,,,,,,,,,,,,,,,,,,,,,,,,,,,,,,,,,,,,,,,
1725717265.657249,1725717265.659131,191.0,0.0,4265.769043,4330.512695,4280.769043,4265.641113,4250.769043,4138.205078,4278.333496,4256.410156,4257.692383,4245.384766,4490.384766,4532.05127,4373.205078,4431.794922,3107.0,0.0,11.0,,,,0.0,4.0,4.0,4.0,4.0,4.0,4.0,4.0,4.0,4.0,4.0,4.0,4.0,4.0,4.0,100.0,,,,,,,,,,,,,,,,,,,,,,,,,,,,,,,,,,,,,,,,,,,,,,,,,,,,,,,,,,,,,,,,,,,,,,,,,,,,,,,,,,,,,,,,,,,,,,,,,,,,,,,,,,,,,,,,,,,,,,,,,,,,,,,,,,,
1725717265.661153,1725717265.663035,192.0,0.0,4266.025879,4328.846191,4281.153809,4264.615234,4249.871582,4136.794922,4275.384766,4250.384766,4259.358887,4251.538574,4493.974121,4525.641113,4375.0,4431.538574,3435.0,0.0,11.0,,,,0.0,4.0,4.0,4.0,4.0,4.0,4.0,4.0,4.0,4.0,4.0,4.0,4.0,4.0,4.0,100.0,,,,,,,,,,,,,,,,,,,,,,,,,,,,,,,,,,,,,,,,,,,,,,,,,,,,,,,,,,,,,,,,,,,,,,,,,,,,,,,,,,,,,,,,,,,,,,,,,,,,,,,,,,,,,,,,,,,,,,,,,,,,,,,,,,,
1725717265.665057,1725717265.666939,193.0,0.0,4266.025879,4326.666504,4281.153809,4261.922852,4248.846191,4135.512695,4271.282227,4246.282227,4259.487305,4252.692383,4501.666504,4521.153809,4375.384766,4431.025879,3844.0,0.0,11.0,,,,0.0,4.0,4.0,4.0,4.0,4.0,4.0,4.0,4.0,4.0,4.0,4.0,4.0,4.0,4.0,100.0,,,,,,,,,,,,,,,,,,,,,,,,,,,,,,,,,,,,,,,,,,,,,,,,,,,,,,,,,,,,,,,,,,,,,,,,,,,,,,,,,,,,,,,,,,,,,,,,,,,,,,,,,,,,,,,,,,,,,,,,,,,,,,,,,,,
1725717265.668961,1725717265.670843,194.0,0.0,4265.0,4324.743652,4280.769043,4257.692383,4248.461426,4135.128418,4268.205078,4246.153809,4257.692383,4249.230957,4508.205078,4520.897461,4374.615234,4430.641113,2899.0,0.0,11.0,,,,0.0,4.0,4.0,4.0,4.0,4.0,4.0,4.0,4.0,4.0,4.0,4.0,4.0,4.0,4.0,100.0,,,,,,,,,,,,,,,,,,,,,,,,,,,,,,,,,,,,,,,,,,,,,,,,,,,,,,,,,,,,,,,,,,,,,,,,,,,,,,,,,,,,,,,,,,,,,,,,,,,,,,,,,,,,,,,,,,,,,,,,,,,,,,,,,,,
1725717265.672865,1725717265.674747,195.0,0.0,4262.05127,4323.461426,4280.256348,4252.179688,4248.846191,4135.641113,4266.794922,4248.974121,4254.615234,4243.461426,4508.589844,4523.205078,4373.589844,4430.256348,3107.0,0.0,11.0,,,,0.0,4.0,4.0,4.0,4.0,4.0,4.0,4.0,4.0,4.0,4.0,4.0,4.0,4.0,4.0,100.0,,,,,,,,,,,,,,,,,,,,,,,,,,,,,,,,,,,,,,,,,,,,,,,,,,,,,,,,,,,,,,,,,,,,,,,,,,,,,,,,,,,,,,,,,,,,,,,,,,,,,,,,,,,,,,,,,,,,,,,,,,,,,,,,,,,
1725717265.676769,1725717265.678551,196.0,0.0,4257.692383,4321.922852,4279.230957,4247.436035,4249.871582,4136.153809,4266.666504,4251.410156,4251.410156,4238.205078,4501.794922,4524.487305,4372.94873,4429.487305,3435.0,0.0,11.0,,,,0.0,4.0,4.0,4.0,4.0,4.0,4.0,4.0,4.0,4.0,4.0,4.0,4.0,4.0,4.0,100.0,,,,,,,,,,,,,,,,,,,,,,,,,,,,,,,,,,,,,,,,,,,,,,,,,,,,,,,,0.0,0.0,1.0,0.0,1.0,0.0,,,,,,,,,,,,,,,,,,,,,,,,,,,,,,,,,,,,,,,,,,,,,,,,,,,,,,,,,,,,,,,,,,,,,,
1725717265.680673,1725717265.682455,197.0,0.0,4253.461426,4320.512695,4277.692383,4245.897461,4250.641113,4136.282227,4267.05127,4250.897461,4248.717773,4234.102539,4491.922852,4522.563965,4372.307617,4427.94873,3844.0,0.0,11.0,,,,0.0,4.0,4.0,4.0,4.0,4.0,4.0,4.0,4.0,4.0,4.0,4.0,4.0,4.0,4.0,100.0,,,,,,,,,,,,,,,,,,,,,,,,,,,,,,,,,,,,,,,,,,,,,,,,,,,,,,,,,,,,,,,,,,,,,,,,,,,,,,,,,,,,,,,,,,,,,,,,,,,,,,,,,,,,,,,,,,,,,,,,,,,,,,,,,,,
1725717265.684578,1725717265.686459,198.0,0.0,4251.410156,4320.384766,4276.025879,4249.230957,4251.153809,4136.410156,4267.05127,4247.692383,4247.563965,4231.538574,4485.641113,4518.205078,4370.897461,4426.410156,2899.0,0.0,11.0,,,,0.0,4.0,4.0,4.0,4.0,4.0,4.0,4.0,4.0,4.0,4.0,4.0,4.0,4.0,4.0,100.0,,,,,,,,,,,,,,,,,,,,,,,,,,,,,,,,,,,,,,,,,,,,,,,,,,,,,,,,,,,,,,,,,,,,,,,,,,,,,,,,,,,,,,,,,,,,,,,,,,,,,,,,,,,,,,,,,,,,,,,,,,,,,,,,,,,
1725717265.688482,1725717265.690363,199.0,0.0,4252.692383,4322.179688,4275.384766,4255.769043,4251.538574,4136.922852,4266.025879,4244.615234,4248.205078,4230.897461,4486.410156,4514.615234,4368.589844,4426.153809,3107.0,0.0,11.0,,,,0.0,4.0,4.0,4.0,4.0,4.0,4.0,4.0,4.0,4.0,4.0,4.0,4.0,4.0,4.0,100.0,,,,,,,,,,,,,,,,,,,,,,,,,,,,,,,,,,,,,,,,,,,,,,,,,,,,,,,,,,,,,,,,,,,,,,,,,,,,,,,,,,,,,,,,,,,,,,,,,,,,,,,,,,,,,,,,,,,,,,,,,,,,,,,,,,,
1725717265.692386,1725717265.694268,200.0,0.0,4255.769043,4324.743652,4276.025879,4261.410156,4251.922852,4137.563965,4264.487305,4244.487305,4249.743652,4232.179688,4491.538574,4514.615234,4366.282227,4427.692383,3435.0,0.0,11.0,,,,0.0,4.0,4.0,4.0,4.0,4.0,4.0,4.0,4.0,4.0,4.0,4.0,4.0,4.0,4.0,100.0,,,,,,,,,,,,,,,,,,,,,,,,,,,,,,,,,,,,,,,,,,,,,,,,,,,,,,,,,,,,,,,,,,,,,,,,,,,,,,,,,,,,,,,,,,,,,,,,,,,,,,,,,,,,,,,,,,,,,,,,,,,,,,,,,,,
1725717265.69629,1725717265.698172,201.0,0.0,4257.820313,4325.512695,4277.692383,4262.307617,4252.05127,4137.94873,4263.461426,4247.436035,4251.025879,4234.743652,4494.487305,4518.846191,4364.871582,4430.128418,3844.0,0.0,11.0,,,,0.0,4.0,4.0,4.0,4.0,4.0,4.0,4.0,4.0,4.0,4.0,4.0,4.0,4.0,4.0,100.0,,,,,,,,,,,,,,,,,,,,,,,,,,,,,,,,,,,,,,,,,,,,,,,,,,,,,,,,,,,,,,,,,,,,,,,,,,,,,,,,,,,,,,,,,,,,,,,,,,,,,,,,,,,,,,,,,,,,,,,,,,,,,,,,,,,
1725717265.700194,1725717265.702076,202.0,0.0,4256.922852,4322.820313,4278.974121,4257.820313,4251.666504,4138.077148,4263.717773,4250.769043,4251.794922,4236.666504,4490.512695,4524.743652,4365.0,4431.282227,2899.0,0.0,11.0,,,,0.0,4.0,4.0,4.0,4.0,4.0,4.0,4.0,4.0,4.0,4.0,4.0,4.0,4.0,4.0,100.0,,,,,,,,,,,,,,,,,,,,,,,,,,,,,,,,,,,,,,,,,,,,,,,,,,,,,,,,,,,,,,,,,,,,,,,,,,,,,,,,,,,,,,,,,,,,,,,,,,,,,,,,,,,,,,,,,,,,,,,,,,,,,,,,,,,
1725717265.704098,1725717265.70588,203.0,0.0,4253.461426,4317.820313,4278.461426,4251.153809,4250.641113,4137.94873,4264.743652,4252.05127,4251.410156,4236.794922,4482.05127,4528.333496,4365.769043,4429.487305,3107.0,0.0,11.0,,,,0.0,4.0,4.0,4.0,4.0,4.0,4.0,4.0,4.0,4.0,4.0,4.0,4.0,4.0,4.0,100.0,,,,,,,,,,,,,,,,,,,,,,,,,,,,,,,,,,,,,,,,,,,,,,,,,,,,,,,,,,,,,,,,,,,,,,,,,,,,,,,,,,,,,,,,,,,,,,,,,,,,,,,,,,,,,,,,,,,,,,,,,,,,,,,,,,,
1725717265.708002,1725717265.709784,204.0,0.0,4249.230957,4313.589844,4275.641113,4246.282227,4249.230957,4137.563965,4264.358887,4250.641113,4250.512695,4235.128418,4476.025879,4526.794922,4366.282227,4425.0,3435.0,0.0,11.0,,,,0.0,4.0,4.0,4.0,4.0,4.0,4.0,4.0,4.0,4.0,4.0,4.0,4.0,4.0,4.0,100.0,,,,,,,,,,,,,,,,,,,,,,,,,,,,,,,,,,,,,,,,,,,,,,,,,,,,,,,,0.0,0.0,1.0,0.0,1.0,0.0,,,,,,,,,,,,,,,,,,,,,,,,,,,,,,,,,,,,,,,,,,,,,,,,,,,,,,,,,,,,,,,,,,,,,,
1725717265.711906,1725717265.713688,205.0,0.0,4246.282227,4312.563965,4271.025879,4245.769043,4247.94873,4136.922852,4261.282227,4248.461426,4249.871582,4232.692383,4477.436035,4520.512695,4365.897461,4420.0,3844.0,0.0,11.0,,,,0.0,4.0,4.0,4.0,4.0,4.0,4.0,4.0,4.0,4.0,4.0,4.0,4.0,4.0,4.0,100.0,,,,,,,,,,,,,,,,,,,,,,,,,,,,,,,,,,,,,,,,,,,,,,,,,,,,,,,,,,,,,,,,,,,,,,,,,,,,,,,,,,,,,,,,,,,,,,,,,,,,,,,,,,,,,,,,,,,,,,,,,,,,,,,,,,,
1725717265.71581,1725717265.717592,206.0,0.0,4245.641113,4314.615234,4266.282227,4248.205078,4247.692383,4136.025879,4256.794922,4247.179688,4250.512695,4231.282227,4484.487305,4512.563965,4365.0,4417.179688,2899.0,0.0,11.0,,,,0.0,4.0,4.0,4.0,4.0,4.0,4.0,4.0,4.0,4.0,4.0,4.0,4.0,4.0,4.0,100.0,,,,,,,,,,,,,,,,,,,,,,,,,,,,,,,,,,,,,,,,,,,,,,,,,,,,,,,,,,,,,,,,,,,,,,,,,,,,,,,,,,,,,,,,,,,,,,,,,,,,,,,,,,,,,,,,,,,,,,,,,,,,,,,,,,,
1725717265.719715,1725717265.721396,207.0,0.0,4247.563965,4318.205078,4263.205078,4250.897461,4248.205078,4135.256348,4253.077148,4247.563965,4251.922852,4231.538574,4491.025879,4506.922852,4364.615234,4417.820313,3107.0,0.0,11.0,,,,0.0,4.0,4.0,4.0,4.0,4.0,4.0,4.0,4.0,4.0,4.0,4.0,4.0,4.0,4.0,100.0,,,,,,,,,,,,,,,,,,,,,,,,,,,,,,,,,,,,,,,,,,,,,,,,,,,,,,,,,,,,,,,,,,,,,,,,,,,,,,,,,,,,,,,,,,,,,,,,,,,,,,,,,,,,,,,,,,,,,,,,,,,,,,,,,,,
1725717265.723619,1725717265.725301,208.0,0.0,4251.410156,4320.897461,4262.94873,4251.666504,4249.102539,4134.743652,4252.05127,4248.717773,4253.205078,4233.077148,4491.794922,4506.282227,4365.512695,4421.410156,3435.0,0.0,11.0,,,,0.0,4.0,4.0,4.0,4.0,4.0,4.0,4.0,4.0,4.0,4.0,4.0,4.0,4.0,4.0,100.0,,,,,,,,,,,,,,,,,,,,,,,,,,,,,,,,,,,,,,,,,,,,,,,,,,,,,,,,,,,,,,,,,,,,,,,,,,,,,,,,,,,,,,,,,,,,,,,,,,,,,,,,,,,,,,,,,,,,,,,,,,,,,,,,,,,
1725717265.727523,1725717265.729205,209.0,0.0,4255.897461,4321.794922,4265.384766,4250.769043,4249.743652,4134.615234,4253.205078,4249.487305,4253.846191,4234.230957,4486.922852,4510.384766,4367.05127,4425.512695,3844.0,0.0,11.0,,,,0.0,4.0,4.0,4.0,4.0,4.0,4.0,4.0,4.0,4.0,4.0,4.0,4.0,4.0,4.0,100.0,,,,,,,,,,,,,,,,,,,,,,,,,,,,,,,,,,,,,,,,,,,,,,,,,,,,,,,,,,,,,,,,,,,,,,,,,,,,,,,,,,,,,,,,,,,,,,,,,,,,,,,,,,,,,,,,,,,,,,,,,,,,,,,,,,,
1725717265.731427,1725717265.733109,210.0,0.0,4259.743652,4321.025879,4269.358887,4250.0,4249.487305,4135.128418,4255.128418,4249.230957,4253.461426,4233.589844,4481.153809,4516.794922,4367.94873,4427.94873,2899.0,0.0,11.0,,,,0.0,4.0,4.0,4.0,4.0,4.0,4.0,4.0,4.0,4.0,4.0,4.0,4.0,4.0,4.0,100.0,,,,,,,,,,,,,,,,,,,,,,,,,,,,,,,,,,,,,,,,,,,,,,,,,,,,,,,,,,,,,,,,,,,,,,,,,,,,,,,,,,,,,,,,,,,,,,,,,,,,,,,,,,,,,,,,,,,,,,,,,,,,,,,,,,,
1725717265.735331,1725717265.736913,211.0,0.0,4262.436035,4319.871582,4273.333496,4250.512695,4248.333496,4135.641113,4256.538574,4248.333496,4253.077148,4231.282227,4479.487305,4522.179688,4366.922852,4428.205078,3107.0,0.0,11.0,,,,0.0,4.0,4.0,4.0,4.0,4.0,4.0,4.0,4.0,4.0,4.0,4.0,4.0,4.0,4.0,100.0,,,,,,,,,,,,,,,,,,,,,,,,,,,,,,,,,,,,,,,,,,,,,,,,,,,,,,,,,,,,,,,,,,,,,,,,,,,,,,,,,,,,,,,,,,,,,,,,,,,,,,,,,,,,,,,,,,,,,,,,,,,,,,,,,,,
1725717265.739235,1725717265.740817,212.0,0.0,4263.333496,4319.487305,4276.153809,4251.794922,4246.794922,4136.025879,4256.922852,4247.94873,4253.461426,4229.487305,4483.461426,4524.487305,4364.871582,4427.94873,3435.0,0.0,11.0,,,,0.0,4.0,4.0,4.0,4.0,4.0,4.0,4.0,4.0,4.0,4.0,4.0,4.0,4.0,4.0,100.0,,,,,,,,,,,,,,,,,1.0,0.0,0.0,,,,,,,,,,,,,,,,,,,,,,,,,,,,,,,,,,,,,0.0,0.0,1.0,0.0,1.0,0.0,1.976669,2.237261,0.993466,0.220129,0.077618,5.540549,3.025421,1.008289,0.329756,0.158109,1.494979,2.292307,0.622685,0.285012,0.100284,1.584126,1.807322,0.50144,0.242728,0.095336,1.042285,1.26976,0.197897,0.057609,0.045408,0.50499,0.346704,0.170172,0.138061,0.037454,1.261044,0.537661,0.255306,0.223657,0.056017,0.443987,1.606023,0.687583,0.280471,0.176495,0.979653,1.007893,0.471188,0.312894,0.10688,1.968155,2.107565,0.767717,0.480758,0.18753,2.106922,3.712299,1.919551,1.019542,0.486326,2.330237,5.080157,0.916676,0.496998,0.200614,2.801145,3.506288,1.509821,0.45273,0.20886,2.324687,3.99855,1.417263,0.547076,0.153656
1725717265.743139,1725717265.744721,213.0,0.0,4262.820313,4320.512695,4277.563965,4252.692383,4245.897461,4136.153809,4257.307617,4248.974121,4255.769043,4230.769043,4490.128418,4523.974121,4363.846191,4428.846191,3844.0,0.0,11.0,,,,0.0,4.0,4.0,4.0,4.0,4.0,4.0,4.0,4.0,4.0,4.0,4.0,4.0,4.0,4.0,100.0,,,,,,,,,,,,,,,,,,,,,,,,,,,,,,,,,,,,,,,,,,,,,,,,,,,,,,,,,,,,,,,,,,,,,,,,,,,,,,,,,,,,,,,,,,,,,,,,,,,,,,,,,,,,,,,,,,,,,,,,,,,,,,,,,,,
1725717265.747043,1725717265.748725,214.0,0.0,4262.05127,4322.179688,4278.077148,4252.436035,4246.153809,4136.282227,4258.717773,4250.897461,4259.871582,4236.025879,4495.128418,4522.307617,4365.512695,4431.282227,2899.0,0.0,11.0,,,,0.0,4.0,4.0,4.0,4.0,4.0,4.0,4.0,4.0,4.0,4.0,4.0,4.0,4.0,4.0,100.0,,,,,,,,,,,,,,,,,,,,,,,,,,,,,,,,,,,,,,,,,,,,,,,,,,,,,,,,,,,,,,,,,,,,,,,,,,,,,,,,,,,,,,,,,,,,,,,,,,,,,,,,,,,,,,,,,,,,,,,,,,,,,,,,,,,
1725717265.750947,1725717265.752629,215.0,0.0,4262.563965,4323.717773,4278.974121,4251.538574,4247.307617,4136.794922,4261.410156,4252.94873,4264.615234,4242.563965,4496.153809,4521.666504,4369.487305,4433.974121,3107.0,0.0,11.0,,,,0.0,4.0,4.0,4.0,4.0,4.0,4.0,4.0,4.0,4.0,4.0,4.0,4.0,4.0,4.0,100.0,,,,,,,,,,,,,,,,,,,,,,,,,,,,,,,,,,,,,,,,,,,,,,,,,,,,,,,,,,,,,,,,,,,,,,,,,,,,,,,,,,,,,,,,,,,,,,,,,,,,,,,,,,,,,,,,,,,,,,,,,,,,,,,,,,,
1725717265.754851,1725717265.756533,216.0,0.0,4264.615234,4323.717773,4280.641113,4251.282227,4248.461426,4137.692383,4264.230957,4253.846191,4267.563965,4246.666504,4494.358887,4522.94873,4373.205078,4435.256348,3435.0,0.0,11.0,,,,0.0,4.0,4.0,4.0,4.0,4.0,4.0,4.0,4.0,4.0,4.0,4.0,4.0,4.0,4.0,100.0,,,,,,,,,,,,,,,,,,,,,,,,,,,,,,,,,,,,,,,,,,,,,,,,,,,,,,,,,,,,,,,,,,,,,,,,,,,,,,,,,,,,,,,,,,,,,,,,,,,,,,,,,,,,,,,,,,,,,,,,,,,,,,,,,,,
1725717265.758756,1725717265.760537,217.0,0.0,4266.666504,4321.153809,4282.307617,4252.692383,4248.717773,4138.974121,4265.256348,4253.589844,4267.05127,4245.512695,4492.307617,4525.256348,4374.230957,4434.487305,3844.0,0.0,11.0,,,,0.0,4.0,4.0,4.0,4.0,4.0,4.0,4.0,4.0,4.0,4.0,4.0,4.0,4.0,4.0,100.0,,,,,,,,,,,,,,,,,,,,,,,,,,,,,,,,,,,,,,,,,,,,,,,,,,,,,,,,,,,,,,,,,,,,,,,,,,,,,,,,,,,,,,,,,,,,,,,,,,,,,,,,,,,,,,,,,,,,,,,,,,,,,,,,,,,
1725717265.76266,1725717265.764442,218.0,0.0,4266.794922,4316.666504,4282.820313,4255.128418,4248.333496,4140.641113,4264.487305,4252.436035,4263.461426,4239.743652,4492.179688,4526.410156,4371.666504,4432.436035,2899.0,0.0,11.0,,,,0.0,4.0,4.0,4.0,4.0,4.0,4.0,4.0,4.0,4.0,4.0,4.0,4.0,4.0,4.0,100.0,,,,,,,,,,,,,,,,,,,,,,,,,,,,,,,,,,,,,,,,,,,,,,,,,,,,,,,,,,,,,,,,,,,,,,,,,,,,,,,,,,,,,,,,,,,,,,,,,,,,,,,,,,,,,,,,,,,,,,,,,,,,,,,,,,,
1725717265.766564,1725717265.768346,219.0,0.0,4264.743652,4311.922852,4282.05127,4257.563965,4247.692383,4142.563965,4263.717773,4251.025879,4258.461426,4232.820313,4493.974121,4525.128418,4367.563965,4430.769043,3107.0,0.0,11.0,,,,0.0,4.0,4.0,4.0,4.0,4.0,4.0,4.0,4.0,4.0,4.0,4.0,4.0,4.0,4.0,100.0,,,,,,,,,,,,,,,,,,,,,,,,,,,,,,,,,,,,,,,,,,,,,,,,,,,,,,,,,,,,,,,,,,,,,,,,,,,,,,,,,,,,,,,,,,,,,,,,,,,,,,,,,,,,,,,,,,,,,,,,,,,,,,,,,,,
1725717265.770468,1725717265.77225,220.0,0.0,4261.922852,4308.974121,4281.153809,4259.615234,4247.820313,4144.615234,4265.256348,4249.871582,4254.230957,4228.589844,4496.282227,4522.820313,4364.358887,4430.128418,3435.0,0.0,11.0,,,,0.0,4.0,4.0,4.0,4.0,4.0,4.0,4.0,4.0,4.0,4.0,4.0,4.0,4.0,4.0,100.0,,,,,,,,,,,,,,,,,,,,,,,,,,,,,,,,,,,,,,,,,,,,,,,,,,,,,,,,0.0,0.0,1.0,0.0,1.0,0.0,,,,,,,,,,,,,,,,,,,,,,,,,,,,,,,,,,,,,,,,,,,,,,,,,,,,,,,,,,,,,,,,,,,,,,
1725717265.774372,1725717265.776154,221.0,0.0,4260.769043,4309.230957,4281.410156,4261.282227,4248.717773,4146.538574,4269.615234,4249.743652,4252.05127,4229.358887,4497.179688,4522.307617,4363.589844,4430.512695,3844.0,0.0,11.0,,,,0.0,4.0,4.0,4.0,4.0,4.0,4.0,4.0,4.0,4.0,4.0,4.0,4.0,4.0,4.0,100.0,,,,,,,,,,,,,,,,,,,,,,,,,,,,,,,,,,,,,,,,,,,,,,,,,,,,,,,,,,,,,,,,,,,,,,,,,,,,,,,,,,,,,,,,,,,,,,,,,,,,,,,,,,,,,,,,,,,,,,,,,,,,,,,,,,,
1725717265.778276,1725717265.780058,222.0,0.0,4262.179688,4311.282227,4283.205078,4262.307617,4250.0,4148.461426,4275.256348,4250.384766,4251.666504,4233.846191,4495.256348,4525.0,4364.358887,4430.769043,2899.0,0.0,11.0,,,,0.0,4.0,4.0,4.0,4.0,4.0,4.0,4.0,4.0,4.0,4.0,4.0,4.0,4.0,4.0,100.0,,,,,,,,,,,,,,,,,,,,,,,,,,,,,,,,,,,,,,,,,,,,,,,,,,,,,,,,,,,,,,,,,,,,,,,,,,,,,,,,,,,,,,,,,,,,,,,,,,,,,,,,,,,,,,,,,,,,,,,,,,,,,,,,,,,
1725717265.78218,1725717265.783862,223.0,0.0,4264.487305,4311.666504,4285.256348,4262.436035,4250.897461,4150.512695,4279.487305,4251.410156,4251.794922,4238.077148,4490.128418,4528.717773,4364.615234,4430.0,3107.0,0.0,11.0,,,,0.0,4.0,4.0,4.0,4.0,4.0,4.0,4.0,4.0,4.0,4.0,4.0,4.0,4.0,4.0,100.0,,,,,,,,,,,,,,,,,,,,,,,,,,,,,,,,,,,,,,,,,,,,,,,,,,,,,,,,,,,,,,,,,,,,,,,,,,,,,,,,,,,,,,,,,,,,,,,,,,,,,,,,,,,,,,,,,,,,,,,,,,,,,,,,,,,
1725717265.786084,1725717265.787766,224.0,0.0,4265.512695,4307.179688,4285.897461,4261.794922,4251.153809,4152.179688,4281.153809,4251.666504,4251.153809,4238.333496,4483.077148,4530.0,4363.077148,4428.077148,3435.0,0.0,11.0,,,,0.0,4.0,4.0,4.0,4.0,4.0,4.0,4.0,4.0,4.0,4.0,4.0,4.0,4.0,4.0,100.0,,,,,,,,,,,,,,,,,,,,,,,,,,,,,,,,,,,,,,,,,,,,,,,,,,,,,,,,,,,,,,,,,,,,,,,,,,,,,,,,,,,,,,,,,,,,,,,,,,,,,,,,,,,,,,,,,,,,,,,,,,,,,,,,,,,
1725717265.789988,1725717265.79177,225.0,0.0,4263.717773,4297.436035,4284.102539,4261.025879,4251.153809,4153.333496,4281.410156,4250.897461,4249.871582,4233.589844,4476.666504,4526.922852,4360.128418,4425.384766,3844.0,0.0,11.0,,,,0.0,4.0,4.0,4.0,4.0,4.0,4.0,4.0,4.0,4.0,4.0,4.0,4.0,4.0,4.0,100.0,,,,,,,,,,,,,,,,,,,,,,,,,,,,,,,,,,,,,,,,,,,,,,,,,,,,,,,,,,,,,,,,,,,,,,,,,,,,,,,,,,,,,,,,,,,,,,,,,,,,,,,,,,,,,,,,,,,,,,,,,,,,,,,,,,,
