Timestamp,OriginalTimestamp,EEG.Counter,EEG.Interpolated,EEG.AF3,EEG.F7,EEG.F3,EEG.FC5,EEG.T7,EEG.P7,EEG.O1,EEG.O2,EEG.P8,EEG.T8,EEG.FC6,EEG.F4,EEG.F8,EEG.AF4,EEG.RawCq,EEG.Battery,EEG.BatteryPercent,MarkerIndex,MarkerType,MarkerValueInt,EEG.MarkerHardware,CQ.AF3,CQ.F7,CQ.F3,CQ.FC5,CQ.T7,CQ.P7,CQ.O1,CQ.O2,CQ.P8,CQ.T8,CQ.FC6,CQ.F4,CQ.F8,CQ.AF4,CQ.Overall,EQ.SampleRateQuality,EQ.OVERALL,EQ.AF3,EQ.F7,EQ.F3,EQ.FC5,EQ.T7,EQ.P7,EQ.O1,EQ.O2,EQ.P8,EQ.T8,EQ.FC6,EQ.F4,EQ.F8,EQ.AF4,MC.Action,MC.ActionPower,MC.IsActive,PM.Attention.IsActive,PM.Attention.Scaled,PM.Attention.Raw,PM.Attention.Min,PM.Attention.Max,PM.Engagement.IsActive,PM.Engagement.Scaled,PM.Engagement.Raw,PM.Engagement.Min,PM.Engagement.Max,PM.Excitement.IsActive,PM.Excitement.Scaled,PM.Excitement.Raw,PM.Excitement.Min,PM.Excitement.Max,PM.LongTermExcitement,PM.Stress.IsActive,PM.Stress.Scaled,PM.Stress.Raw,PM.Stress.Min,PM.Stress.Max,PM.Relaxation.IsActive,PM.Relaxation.Scaled,PM.Relaxation.Raw,PM.Relaxation.Min,PM.Relaxation.Max,PM.Interest.IsActive,PM.Interest.Scaled,PM.Interest.Raw,PM.Interest.Min,PM.Interest.Max,PM.Focus.IsActive,PM.Focus.Scaled,PM.Focus.Raw,PM.Focus.Min,PM.Focus.Max,FE.BlinkWink,FE.HorizontalEyesDirection,FE.UpperFaceAction,FE.UpperFaceActionPower,FE.LowerFaceAction,FE.LowerFaceActionPower,POW.AF3.Theta,POW.AF3.Alpha,POW.AF3.BetaL,POW.AF3.BetaH,POW.AF3.Gamma,POW.F7.Theta,POW.F7.Alpha,POW.F7.BetaL,POW.F7.BetaH,POW.F7.Gamma,POW.F3.Theta,POW.F3.Alpha,POW.F3.BetaL,POW.F3.BetaH,POW.F3.Gamma,POW.FC5.Theta,POW.FC5.Alpha,POW.FC5.BetaL,POW.FC5.BetaH,POW.FC5.Gamma,POW.T7.Theta,POW.T7.Alpha,POW.T7.BetaL,POW.T7.BetaH,POW.T7.Gamma,POW.P7.Theta,POW.P7.Alpha,POW.P7.BetaL,POW.P7.BetaH,POW.P7.Gamma,POW.O1.Theta,POW.O1.Alpha,POW.O1.BetaL,POW.O1.BetaH,POW.O1.Gamma,POW.O2.Theta,POW.O2.Alpha,POW.O2.BetaL,POW.O2.BetaH,POW.O2.Gamma,POW.P8.Theta,POW.P8.Alpha,POW.P8.BetaL,POW.P8.BetaH,POW.P8.Gamma,POW.T8.Theta,POW.T8.Alpha,POW.T8.BetaL,POW.T8.BetaH,POW.T8.Gamma,POW.FC6.Theta,POW.FC6.Alpha,POW.FC6.BetaL,POW.FC6.BetaH,POW.FC6.Gamma,POW.F4.Theta,POW.F4.Alpha,POW.F4.BetaL,POW.F4.BetaH,POW.F4.Gamma,POW.F8.Theta,POW.F8.Alpha,POW.F8.BetaL,POW.F8.BetaH,POW.F8.Gamma,POW.AF4.Theta,POW.AF4.Alpha,POW.AF4.BetaL,POW.AF4.BetaH,POW.AF4.Gamma
1725710406.657224,1725710406.659185,109.0,0.0,4265.769043,4257.307617,4278.974121,4326.538574,4221.794922,4251.025879,4247.563965,4221.922852,4232.05127,4204.102539,4553.974121,4508.589844,4382.436035,4454.487305,0.0,1.0,15.0,11.0,1.0,1.0,0.0,4.0,4.0,4.0,4.0,4.0,4.0,4.0,4.0,4.0,4.0,4.0,4.0,4.0,4.0,100.0,,,,,,,,,,,,,,,,,,,,,,,,,,,,,,,,,,,,,,,,,,,,,,,,,,,,,,,,,,,,,,,,,,,,,,,,,,,,,,,,,,,,,,,,,,,,,,,,,,,,,,,,,,,,,,,,,,,,,,,,,,,,,,,,,,,
1725710406.661128,1725710406.663089,110.0,0.0,4266.153809,4257.05127,4279.871582,4329.615234,4223.077148,4251.282227,4247.563965,4230.0,4234.871582,4209.487305,4554.615234,4508.846191,4382.307617,4450.0,0.0,1.0,15.0,,,,0.0,4.0,4.0,4.0,4.0,4.0,4.0,4.0,4.0,4.0,4.0,4.0,4.0,4.0,4.0,100.0,,,,,,,,,,,,,,,,,,,,,,,,,,,,,,,,,,,,,,,,,,,,,,,,,,,,,,,,,,,,,,,,,,,,,,,,,,,,,,,,,,,,,,,,,,,,,,,,,,,,,,,,,,,,,,,,,,,,,,,,,,,,,,,,,,,
1725710406.665032,1725710406.666993,111.0,0.0,4265.384766,4253.846191,4279.358887,4329.358887,4222.94873,4251.410156,4249.743652,4234.871582,4236.794922,4213.717773,4554.102539,4508.717773,4382.179688,4446.153809,0.0,1.0,15.0,,,,0.0,4.0,4.0,4.0,4.0,4.0,4.0,4.0,4.0,4.0,4.0,4.0,4.0,4.0,4.0,100.0,,,,,,,,,,,,,,,,,,,,,,,,,,,,,,,,,,,,,,,,,,,,,,,,,,,,,,,,,,,,,,,,,,,,,,,,,,,,,,,,,,,,,,,,,,,,,,,,,,,,,,,,,,,,,,,,,,,,,,,,,,,,,,,,,,,
1725710406.668936,1725710406.670798,112.0,0.0,4263.589844,4250.0,4277.179688,4325.128418,4221.410156,4251.025879,4251.922852,4235.128418,4236.282227,4215.769043,4551.794922,4508.461426,4381.794922,4443.974121,0.0,1.0,15.0,,,,0.0,4.0,4.0,4.0,4.0,4.0,4.0,4.0,4.0,4.0,4.0,4.0,4.0,4.0,4.0,100.0,,,,,,,,,,,,,,,,,1.0,0.0,0.0,,,,,,,,,,,,,,,,,,,,,,,,,,,,,,,,,,,,,0.0,0.0,1.0,0.0,1024.0,0.018662,1.409664,1.112896,0.310535,0.189248,0.088172,1.370065,0.990144,0.367382,0.265314,0.085586,1.25382,0.341093,0.145676,0.14224,0.043661,0.990414,0.691774,0.173792,0.353206,0.181439,0.316883,0.210359,0.079802,0.081628,0.026347,0.189448,0.114249,0.089087,0.074209,0.063065,3.385099,1.001379,0.575975,0.176746,0.124105,0.947534,0.567906,0.537393,0.225892,0.115863,1.318438,0.549924,0.619732,0.275524,0.057083,2.398295,1.331221,0.559265,0.349475,0.141557,3.316764,1.551535,0.780706,0.809893,0.399229,3.70595,1.940868,0.640607,0.420199,0.226474,3.195064,1.871124,1.371406,0.6083,0.120562,2.644716,1.855858,0.552138,0.311441,0.119459
1725710406.67284,1725710406.674702,113.0,0.0,4261.666504,4248.333496,4274.487305,4318.974121,4218.974121,4250.384766,4252.179688,4232.820313,4234.743652,4215.769043,4549.102539,4508.461426,4381.538574,4443.846191,0.0,1.0,15.0,,,,0.0,4.0,4.0,4.0,4.0,4.0,4.0,4.0,4.0,4.0,4.0,4.0,4.0,4.0,4.0,100.0,,,,,,,,,,,,,,,,,,,,,,,,,,,,,,,,,,,,,,,,,,,,,,,,,,,,,,,,,,,,,,,,,,,,,,,,,,,,,,,,,,,,,,,,,,,,,,,,,,,,,,,,,,,,,,,,,,,,,,,,,,,,,,,,,,,
1725710406.676744,1725710406.678606,114.0,0.0,4260.897461,4249.358887,4273.205078,4314.615234,4217.179688,4249.871582,4251.025879,4231.025879,4234.102539,4215.0,4548.974121,4509.102539,4381.666504,4444.871582,0.0,1.0,15.0,,,,0.0,4.0,4.0,4.0,4.0,4.0,4.0,4.0,4.0,4.0,4.0,4.0,4.0,4.0,4.0,100.0,,,,,,,,,,,,,,,,,,,,,,,,,,,,,,,,,,,,,,,,,,,,,,,,,,,,,,,,,,,,,,,,,,,,,,,,,,,,,,,,,,,,,,,,,,,,,,,,,,,,,,,,,,,,,,,,,,,,,,,,,,,,,,,,,,,
1725710406.680648,1725710406.68251,115.0,0.0,4261.410156,4251.282227,4273.974121,4314.230957,4216.922852,4250.0,4249.615234,4231.794922,4236.025879,4214.230957,4552.820313,4510.256348,4382.179688,4446.538574,0.0,1.0,15.0,,,,0.0,4.0,4.0,4.0,4.0,4.0,4.0,4.0,4.0,4.0,4.0,4.0,4.0,4.0,4.0,100.0,,,,,,,,,,,,,,,,,,,,,,,,,,,,,,,,,,,,,,,,,,,,,,,,,,,,,,,,,,,,,,,,,,,,,,,,,,,,,,,,,,,,,,,,,,,,,,,,,,,,,,,,,,,,,,,,,,,,,,,,,,,,,,,,,,,
1725710406.684553,1725710406.686314,116.0,0.0,4262.692383,4252.179688,4276.025879,4317.307617,4217.692383,4250.512695,4248.589844,4234.487305,4239.487305,4213.461426,4557.692383,4510.897461,4383.205078,4448.077148,0.0,1.0,15.0,,,,0.0,4.0,4.0,4.0,4.0,4.0,4.0,4.0,4.0,4.0,4.0,4.0,4.0,4.0,4.0,100.0,,,,,,,,,,,,,,,,,,,,,,,,,,,,,,,,,,,,,,,,,,,,,,,,,,,,,,,,,,,,,,,,,,,,,,,,,,,,,,,,,,,,,,,,,,,,,,,,,,,,,,,,,,,,,,,,,,,,,,,,,,,,,,,,,,,
1725710406.688457,1725710406.690218,117.0,0.0,4262.94873,4252.05127,4277.436035,4320.256348,4218.077148,4250.897461,4247.94873,4237.05127,4242.94873,4212.563965,4558.333496,4510.128418,4384.487305,4449.102539,0.0,1.0,15.0,,,,0.0,4.0,4.0,4.0,4.0,4.0,4.0,4.0,4.0,4.0,4.0,4.0,4.0,4.0,4.0,100.0,,,,,,,,,,,,,,,,,,,,,,,,,,,,,,,,,,,,,,,,,,,,,,,,,,,,,,,,,,,,,,,,,,,,,,,,,,,,,,,,,,,,,,,,,,,,,,,,,,,,,,,,,,,,,,,,,,,,,,,,,,,,,,,,,,,
1725710406.692361,1725710406.694122,118.0,0.0,4261.025879,4252.179688,4276.666504,4319.743652,4217.692383,4250.769043,4246.410156,4237.179688,4244.230957,4210.641113,4552.05127,4507.563965,4384.871582,4448.974121,0.0,1.0,15.0,,,,0.0,4.0,4.0,4.0,4.0,4.0,4.0,4.0,4.0,4.0,4.0,4.0,4.0,4.0,4.0,100.0,,,,,,,,,,,,,,,,,,,,,,,,,,,,,,,,,,,,,,,,,,,,,,,,,,,,,,,,,,,,,,,,,,,,,,,,,,,,,,,,,,,,,,,,,,,,,,,,,,,,,,,,,,,,,,,,,,,,,,,,,,,,,,,,,,,
1725710406.696265,1725710406.698026,119.0,0.0,4257.307617,4252.692383,4273.461426,4314.358887,4216.282227,4249.871582,4243.077148,4234.230957,4242.179688,4207.05127,4540.897461,4503.717773,4383.333496,4447.307617,0.0,1.0,15.0,,,,0.0,4.0,4.0,4.0,4.0,4.0,4.0,4.0,4.0,4.0,4.0,4.0,4.0,4.0,4.0,100.0,,,,,,,,,,,,,,,,,,,,,,,,,,,,,,,,,,,,,,,,,,,,,,,,,,,,,,,,,,,,,,,,,,,,,,,,,,,,,,,,,,,,,,,,,,,,,,,,,,,,,,,,,,,,,,,,,,,,,,,,,,,,,,,,,,,
1725710406.700169,1725710406.701831,120.0,0.0,4253.077148,4251.666504,4268.974121,4306.538574,4214.871582,4248.717773,4238.077148,4228.589844,4236.794922,4202.179688,4530.512695,4499.102539,4378.846191,4443.589844,0.0,1.0,15.0,,,,0.0,4.0,4.0,4.0,4.0,4.0,4.0,4.0,4.0,4.0,4.0,4.0,4.0,4.0,4.0,100.0,,,,,,,,,,,,,,,,,,,,,,,,,,,,,,,,,,,,,,,,,,,,,,,,,,,,,,,,0.0,0.0,1.0,0.0,1024.0,0.018662,,,,,,,,,,,,,,,,,,,,,,,,,,,,,,,,,,,,,,,,,,,,,,,,,,,,,,,,,,,,,,,,,,,,,,
1725710406.704073,1725710406.705735,121.0,0.0,4249.871582,4247.692383,4265.0,4299.615234,4213.974121,4247.820313,4232.307617,4222.307617,4230.256348,4197.307617,4526.153809,4494.358887,4371.922852,4438.205078,0.0,1.0,15.0,,,,0.0,4.0,4.0,4.0,4.0,4.0,4.0,4.0,4.0,4.0,4.0,4.0,4.0,4.0,4.0,100.0,,,,,,,,,,,,,,,,,,,,,,,,,,,,,,,,,,,,,,,,,,,,,,,,,,,,,,,,,,,,,,,,,,,,,,,,,,,,,,,,,,,,,,,,,,,,,,,,,,,,,,,,,,,,,,,,,,,,,,,,,,,,,,,,,,,
1725710406.707977,1725710406.709639,122.0,0.0,4247.692383,4240.897461,4263.077148,4295.769043,4213.461426,4247.563965,4226.666504,4217.563965,4224.871582,4193.333496,4528.205078,4490.0,4363.974121,4432.563965,0.0,1.0,15.0,,,,0.0,4.0,4.0,4.0,4.0,4.0,4.0,4.0,4.0,4.0,4.0,4.0,4.0,4.0,4.0,100.0,,,,,,,,,,,,,,,,,,,,,,,,,,,,,,,,,,,,,,,,,,,,,,,,,,,,,,,,,,,,,,,,,,,,,,,,,,,,,,,,,,,,,,,,,,,,,,,,,,,,,,,,,,,,,,,,,,,,,,,,,,,,,,,,,,,
1725710406.711881,1725710406.713543,123.0,0.0,4245.512695,4233.589844,4262.820313,4294.871582,4211.794922,4247.820313,4221.282227,4215.512695,4221.666504,4189.871582,4532.179688,4486.025879,4357.307617,4427.692383,0.0,1.0,15.0,,,,0.0,4.0,4.0,4.0,4.0,4.0,4.0,4.0,4.0,4.0,4.0,4.0,4.0,4.0,4.0,100.0,,,,,,,,,,,,,,,,,,,,,,,,,,,,,,,,,,,,,,,,,,,,,,,,,,,,,,,,,,,,,,,,,,,,,,,,,,,,,,,,,,,,,,,,,,,,,,,,,,,,,,,,,,,,,,,,,,,,,,,,,,,,,,,,,,,
1725710406.715785,1725710406.717347,124.0,0.0,4242.436035,4227.820313,4262.94873,4295.128418,4208.205078,4248.077148,4216.538574,4215.256348,4219.743652,4186.153809,4532.563965,4481.794922,4353.333496,4423.717773,0.0,1.0,15.0,,,,0.0,4.0,4.0,4.0,4.0,4.0,4.0,4.0,4.0,4.0,4.0,4.0,4.0,4.0,4.0,100.0,,,,,,,,,,,,,,,,,,,,,,,,,,,,,,,,,,,,,,,,,,,,,,,,,,,,,,,,,,,,,,,,,,,,,,,,,,,,,,,,,,,,,,,,,,,,,,,,,,,,,,,,,,,,,,,,,,,,,,,,,,,,,,,,,,,
1725710406.719689,1725710406.721251,125.0,0.0,4238.333496,4224.871582,4261.666504,4294.871582,4203.589844,4248.333496,4213.333496,4215.128418,4217.436035,4182.05127,4527.179688,4476.922852,4352.05127,4419.743652,0.0,1.0,15.0,,,,0.0,4.0,4.0,4.0,4.0,4.0,4.0,4.0,4.0,4.0,4.0,4.0,4.0,4.0,4.0,100.0,,,,,,,,,,,,,,,,,,,,,,,,,,,,,,,,,,,,,,,,,,,,,,,,,,,,,,,,,,,,,,,,,,,,,,,,,,,,,,,,,,,,,,,,,,,,,,,,,,,,,,,,,,,,,,,,,,,,,,,,,,,,,,,,,,,
1725710406.723593,1725710406.725155,126.0,0.0,4234.102539,4224.615234,4258.717773,4293.589844,4200.0,4248.205078,4211.922852,4214.102539,4214.358887,4179.358887,4519.743652,4472.179688,4351.666504,4415.641113,0.0,1.0,15.0,,,,0.0,4.0,4.0,4.0,4.0,4.0,4.0,4.0,4.0,4.0,4.0,4.0,4.0,4.0,4.0,100.0,,,,,,,,,,,,,,,,,,,,,,,,,,,,,,,,,,,,,,,,,,,,,,,,,,,,,,,,,,,,,,,,,,,,,,,,,,,,,,,,,,,,,,,,,,,,,,,,,,,,,,,,,,,,,,,,,,,,,,,,,,,,,,,,,,,
1725710406.727497,1725710406.729159,127.0,0.0,4231.153809,4225.512695,4255.128418,4292.05127,4199.615234,4247.94873,4212.307617,4213.333496,4212.692383,4180.384766,4516.282227,4470.256348,4351.538574,4413.461426,0.0,1.0,15.0,,,,0.0,4.0,4.0,4.0,4.0,4.0,4.0,4.0,4.0,4.0,4.0,4.0,4.0,4.0,4.0,100.0,,,,,,,,,,,,,,,,,,,,,,,,,,,,,,,,,,,,,,,,,,,,,,,,,,,,,,,,,,,,,,,,,,,,,,,,,,,,,,,,,,,,,,,,,,,,,,,,,,,,,,,,,,,,,,,,,,,,,,,,,,,,,,,,,,,
1725710406.731402,1725710406.733064,128.0,0.0,4230.897461,4226.410156,4253.205078,4292.05127,4203.077148,4247.94873,4213.333496,4215.128418,4215.256348,4186.410156,4520.512695,4473.717773,4352.05127,4415.256348,2710.0,1.0,15.0,,,,0.0,4.0,4.0,4.0,4.0,4.0,4.0,4.0,4.0,4.0,4.0,4.0,4.0,4.0,4.0,100.0,,,,,,,,,,,,,,,,,,,,,,,,,,,,,,,,,,,,,,,,,,,,,,,,,,,,,,,,0.0,0.0,1.0,0.0,1024.0,0.018662,,,,,,,,,,,,,,,,,,,,,,,,,,,,,,,,,,,,,,,,,,,,,,,,,,,,,,,,,,,,,,,,,,,,,,
1725710406.735306,1725710406.736968,129.0,0.0,4234.487305,4227.179688,4254.230957,4294.615234,4209.230957,4248.077148,4213.846191,4220.769043,4223.333496,4196.666504,4530.897461,4482.94873,4355.256348,4422.436035,2585.0,1.0,15.0,,,,0.0,4.0,4.0,4.0,4.0,4.0,4.0,4.0,4.0,4.0,4.0,4.0,4.0,4.0,4.0,100.0,,,,,,,,,,,,,,,,,,,,,,,,,,,,,,,,,,,,,,,,,,,,,,,,,,,,,,,,,,,,,,,,,,,,,,,,,,,,,,,,,,,,,,,,,,,,,,,,,,,,,,,,,,,,,,,,,,,,,,,,,,,,,,,,,,,
1725710406.73921,1725710406.740972,130.0,0.0,4240.897461,4228.974121,4257.820313,4299.615234,4215.512695,4248.205078,4213.461426,4229.230957,4233.974121,4208.333496,4541.794922,4495.0,4362.179688,4433.205078,2515.0,1.0,15.0,,,,0.0,4.0,4.0,4.0,4.0,4.0,4.0,4.0,4.0,4.0,4.0,4.0,4.0,4.0,4.0,100.0,,,,,,,,,,,,,,,,,,,,,,,,,,,,,,,,,,,,,,,,,,,,,,,,,,,,,,,,,,,,,,,,,,,,,,,,,,,,,,,,,,,,,,,,,,,,,,,,,,,,,,,,,,,,,,,,,,,,,,,,,,,,,,,,,,,
1725710406.743114,1725710406.744876,131.0,0.0,4247.94873,4232.94873,4262.307617,4306.025879,4219.230957,4248.205078,4212.94873,4236.794922,4242.179688,4217.692383,4547.692383,4505.384766,4372.563965,4443.333496,2484.0,1.0,15.0,,,,0.0,4.0,4.0,4.0,4.0,4.0,4.0,4.0,4.0,4.0,4.0,4.0,4.0,4.0,4.0,100.0,,,,,,,,,,,,,,,,,,,,,,,,,,,,,,,,,,,,,,,,,,,,,,,,,,,,,,,,,,,,,,,,,,,,,,,,,,,,,,,,,,,,,,,,,,,,,,,,,,,,,,,,,,,,,,,,,,,,,,,,,,,,,,,,,,,
1725710406.747018,1725710406.74878,132.0,0.0,4253.333496,4239.102539,4265.512695,4311.410156,4219.871582,4248.077148,4213.205078,4239.871582,4244.358887,4221.922852,4548.461426,4510.897461,4383.461426,4449.358887,2449.0,1.0,15.0,,,,0.0,4.0,4.0,4.0,4.0,4.0,4.0,4.0,4.0,4.0,4.0,4.0,4.0,4.0,4.0,100.0,,,,,,,,,,,,,,,,,,,,,,,,,,,,,,,,,,,,,,,,,,,,,,,,,,,,,,,,,,,,,,,,,,,,,,,,,,,,,,,,,,,,,,,,,,,,,,,,,,,,,,,,,,,,,,,,,,,,,,,,,,,,,,,,,,,
1725710406.750922,1725710406.752684,133.0,0.0,4256.025879,4245.512695,4266.666504,4314.230957,4218.589844,4248.077148,4215.0,4237.692383,4240.769043,4221.025879,4548.077148,4511.153809,4391.153809,4450.0,2406.0,1.0,15.0,,,,0.0,4.0,4.0,4.0,4.0,4.0,4.0,4.0,4.0,4.0,4.0,4.0,4.0,4.0,4.0,100.0,,,,,,,,,,,,,,,,,,,,,,,,,,,,,,,,,,,,,,,,,,,,,,,,,,,,,,,,,,,,,,,,,,,,,,,,,,,,,,,,,,,,,,,,,,,,,,,,,,,,,,,,,,,,,,,,,,,,,,,,,,,,,,,,,,,
1725710406.754826,1725710406.756588,134.0,0.0,4256.410156,4249.743652,4266.666504,4313.974121,4217.05127,4248.077148,4217.563965,4232.692383,4235.0,4217.307617,4550.641113,4508.205078,4392.692383,4447.307617,2439.0,1.0,15.0,,,,0.0,4.0,4.0,4.0,4.0,4.0,4.0,4.0,4.0,4.0,4.0,4.0,4.0,4.0,4.0,100.0,,,,,,,,,,,,,,,,,,,,,,,,,,,,,,,,,,,,,,,,,,,,,,,,,,,,,,,,,,,,,,,,,,,,,,,,,,,,,,,,,,,,,,,,,,,,,,,,,,,,,,,,,,,,,,,,,,,,,,,,,,,,,,,,,,,
1725710406.75873,1725710406.760592,135.0,0.0,4255.641113,4250.769043,4266.410156,4311.922852,4216.666504,4248.205078,4219.102539,4228.333496,4231.666504,4214.358887,4555.384766,4504.871582,4388.846191,4445.0,2488.0,1.0,15.0,,,,0.0,4.0,4.0,4.0,4.0,4.0,4.0,4.0,4.0,4.0,4.0,4.0,4.0,4.0,4.0,100.0,,,,,,,,,,,,,,,,,,,,,,,,,,,,,,,,,,,,,,,,,,,,,,,,,,,,,,,,,,,,,,,,,,,,,,,,,,,,,,,,,,,,,,,,,,,,,,,,,,,,,,,,,,,,,,,,,,,,,,,,,,,,,,,,,,,
1725710406.762634,1725710406.764496,136.0,0.0,4255.128418,4249.871582,4266.666504,4310.641113,4217.820313,4248.333496,4218.717773,4226.666504,4233.205078,4214.230957,4557.94873,4503.461426,4383.461426,4445.641113,2473.0,1.0,15.0,,,,0.0,4.0,4.0,4.0,4.0,4.0,4.0,4.0,4.0,4.0,4.0,4.0,4.0,4.0,4.0,100.0,,,,,,,,,,,,,,,,,,,,,,,,,,,,,,,,,,,,,,,,,,,,,,,,,,,,,,,,0.0,0.0,1.0,0.0,1024.0,0.018662,,,,,,,,,,,,,,,,,,,,,,,,,,,,,,,,,,,,,,,,,,,,,,,,,,,,,,,,,,,,,,,,,,,,,,
1725710406.766539,1725710406.7684,137.0,0.0,4256.025879,4249.102539,4267.307617,4311.025879,4219.487305,4248.333496,4217.563965,4227.820313,4239.230957,4216.794922,4556.282227,4505.256348,4381.282227,4449.743652,2558.0,1.0,15.0,,,,0.0,4.0,4.0,4.0,4.0,4.0,4.0,4.0,4.0,4.0,4.0,4.0,4.0,4.0,4.0,100.0,,,,,,,,,,,,,,,,,,,,,,,,,,,,,,,,,,,,,,,,,,,,,,,,,,,,,,,,,,,,,,,,,,,,,,,,,,,,,,,,,,,,,,,,,,,,,,,,,,,,,,,,,,,,,,,,,,,,,,,,,,,,,,,,,,,
1725710406.770443,1725710406.772304,138.0,0.0,4258.333496,4250.128418,4267.820313,4312.820313,4220.641113,4248.333496,4216.794922,4231.025879,4246.025879,4219.743652,4553.205078,4510.0,4384.487305,4455.384766,2907.0,1.0,15.0,,,,0.0,4.0,4.0,4.0,4.0,4.0,4.0,4.0,4.0,4.0,4.0,4.0,4.0,4.0,4.0,100.0,,,,,,,,,,,,,,,,,,,,,,,,,,,,,,,,,,,,,,,,,,,,,,,,,,,,,,,,,,,,,,,,,,,,,,,,,,,,,,,,,,,,,,,,,,,,,,,,,,,,,,,,,,,,,,,,,,,,,,,,,,,,,,,,,,,
1725710406.774347,1725710406.776109,139.0,0.0,4261.666504,4252.307617,4267.820313,4314.358887,4220.641113,4248.077148,4216.666504,4235.256348,4249.871582,4221.153809,4553.461426,4515.897461,4391.282227,4460.256348,3139.0,1.0,15.0,,,,0.0,4.0,4.0,4.0,4.0,4.0,4.0,4.0,4.0,4.0,4.0,4.0,4.0,4.0,4.0,100.0,,,,,,,,,,,,,,,,,,,,,,,,,,,,,,,,,,,,,,,,,,,,,,,,,,,,,,,,,,,,,,,,,,,,,,,,,,,,,,,,,,,,,,,,,,,,,,,,,,,,,,,,,,,,,,,,,,,,,,,,,,,,,,,,,,,
1725710406.778251,1725710406.780013,140.0,0.0,4263.974121,4253.589844,4267.307617,4314.743652,4219.743652,4247.436035,4215.769043,4239.487305,4249.615234,4221.025879,4558.717773,4520.0,4397.436035,4462.563965,3421.0,1.0,15.0,,,,0.0,4.0,4.0,4.0,4.0,4.0,4.0,4.0,4.0,4.0,4.0,4.0,4.0,4.0,4.0,100.0,,,,,,,,,,,,,,,,,,,,,,,,,,,,,,,,,,,,,,,,,,,,,,,,,,,,,,,,,,,,,,,,,,,,,,,,,,,,,,,,,,,,,,,,,,,,,,,,,,,,,,,,,,,,,,,,,,,,,,,,,,,,,,,,,,,
1725710406.782155,1725710406.783917,141.0,0.0,4263.846191,4252.692383,4266.922852,4313.974121,4218.205078,4246.666504,4213.461426,4242.436035,4247.94873,4220.641113,4565.256348,4520.384766,4399.615234,4462.179688,3926.0,1.0,15.0,,,,0.0,4.0,4.0,4.0,4.0,4.0,4.0,4.0,4.0,4.0,4.0,4.0,4.0,4.0,4.0,100.0,,,,,,,,,,,,,,,,,,,,,,,,,,,,,,,,,,,,,,,,,,,,,,,,,,,,,,,,,,,,,,,,,,,,,,,,,,,,,,,,,,,,,,,,,,,,,,,,,,,,,,,,,,,,,,,,,,,,,,,,,,,,,,,,,,,
1725710406.786059,1725710406.787821,142.0,0.0,4260.897461,4249.871582,4267.05127,4312.94873,4216.794922,4246.025879,4209.615234,4242.820313,4247.820313,4220.641113,4567.820313,4517.179688,4397.05127,4459.615234,2907.0,1.0,15.0,,,,0.0,4.0,4.0,4.0,4.0,4.0,4.0,4.0,4.0,4.0,4.0,4.0,4.0,4.0,4.0,100.0,,,,,,,,,,,,,,,,,,,,,,,,,,,,,,,,,,,,,,,,,,,,,,,,,,,,,,,,,,,,,,,,,,,,,,,,,,,,,,,,,,,,,,,,,,,,,,,,,,,,,,,,,,,,,,,,,,,,,,,,,,,,,,,,,,,
1725710406.789963,1725710406.791625,143.0,0.0,4256.410156,4247.05127,4267.179688,4312.436035,4215.769043,4246.025879,4205.256348,4239.871582,4249.358887,4220.512695,4564.230957,4512.307617,4392.05127,4456.282227,3139.0,1.0,15.0,,,,0.0,4.0,4.0,4.0,4.0,4.0,4.0,4.0,4.0,4.0,4.0,4.0,4.0,4.0,4.0,100.0,,,,,,,,,,,,,,,,,,,,,,,,,,,,,,,,,,,,,,,,,,,,,,,,,,,,,,,,,,,,,,,,,,,,,,,,,,,,,,,,,,,,,,,,,,,,,,,,,,,,,,,,,,,,,,,,,,,,,,,,,,,,,,,,,,,
1725710406.793867,1725710406.795529,144.0,0.0,4252.179688,4246.153809,4266.794922,4312.179688,4215.769043,4246.538574,4201.153809,4234.743652,4250.512695,4219.615234,4557.436035,4508.461426,4388.589844,4453.205078,3421.0,1.0,15.0,,,,0.0,4.0,4.0,4.0,4.0,4.0,4.0,4.0,4.0,4.0,4.0,4.0,4.0,4.0,4.0,100.0,1.0,75.0,4.0,4.0,4.0,4.0,4.0,4.0,1.0,4.0,4.0,4.0,4.0,4.0,4.0,4.0,1.0,0.0,0.0,1.0,0.530887,-7.942992,-13.469632,-3.196307,1.0,0.444443,-0.43363,-1.161419,0.464531,1.0,0.140057,3.397862,2.15265,11.043463,0.167641,1.0,0.36565,12.482074,-1816.476294,2875.386292,1.0,0.18619,0.117439,0.073921,0.276326,1.0,0.447111,2.759659,-50.780881,66.201052,1.0,0.385194,0.385194,0.0,1.0,0.0,0.0,1.0,0.0,1024.0,0.050096,1.321421,0.926363,0.243166,0.167272,0.073819,1.36529,0.910254,0.326505,0.267916,0.089423,1.294181,0.365688,0.150644,0.14351,0.049065,1.016429,0.686806,0.157505,0.35714,0.182362,0.320807,0.215279,0.068913,0.073826,0.025408,0.150552,0.164776,0.08835,0.062444,0.052997,3.780646,1.030099,0.468997,0.170597,0.1212,0.9834,0.567294,0.505131,0.205065,0.108996,1.521328,0.5827,0.574678,0.252783,0.055589,2.37044,1.42665,0.507032,0.319536,0.121793,3.329026,1.55909,0.724177,0.828033,0.392318,4.131244,2.082922,0.598395,0.398249,0.247276,3.029088,1.691966,1.236315,0.653538,0.133853,2.76918,1.820604,0.494872,0.295736,0.126279
1725710406.797771,1725710406.799433,145.0,0.0,4249.230957,4246.794922,4265.769043,4311.025879,4216.666504,4246.538574,4197.563965,4230.384766,4248.717773,4217.94873,4552.563965,4506.538574,4388.205078,4451.410156,3926.0,1.0,15.0,,,,0.0,4.0,4.0,4.0,4.0,4.0,4.0,4.0,4.0,4.0,4.0,4.0,4.0,4.0,4.0,100.0,,,,,,,,,,,,,,,,,,,,,,,,,,,,,,,,,,,,,,,,,,,,,,,,,,,,,,,,,,,,,,,,,,,,,,,,,,,,,,,,,,,,,,,,,,,,,,,,,,,,,,,,,,,,,,,,,,,,,,,,,,,,,,,,,,,
1725710406.801675,1725710406.803337,146.0,0.0,4247.820313,4247.05127,4263.974121,4308.077148,4217.307617,4245.256348,4193.974121,4229.487305,4243.974121,4216.794922,4552.307617,4506.153809,4389.487305,4451.025879,2907.0,1.0,15.0,,,,0.0,4.0,4.0,4.0,4.0,4.0,4.0,4.0,4.0,4.0,4.0,4.0,4.0,4.0,4.0,100.0,,,,,,,,,,,,,,,,,,,,,,,,,,,,,,,,,,,,,,,,,,,,,,,,,,,,,,,,,,,,,,,,,,,,,,,,,,,,,,,,,,,,,,,,,,,,,,,,,,,,,,,,,,,,,,,,,,,,,,,,,,,,,,,,,,,
1725710406.80558,1725710406.807142,147.0,0.0,4247.436035,4245.512695,4262.436035,4303.205078,4215.641113,4242.436035,4190.512695,4232.05127,4238.589844,4216.410156,4554.615234,4505.256348,4389.615234,4451.282227,3139.0,1.0,15.0,,,,0.0,4.0,4.0,4.0,4.0,4.0,4.0,4.0,4.0,4.0,4.0,4.0,4.0,4.0,4.0,100.0,,,,,,,,,,,,,,,,,,,,,,,,,,,,,,,,,,,,,,,,,,,,,,,,,,,,,,,,,,,,,,,,,,,,,,,,,,,,,,,,,,,,,,,,,,,,,,,,,,,,,,,,,,,,,,,,,,,,,,,,,,,,,,,,,,,
1725710406.809484,1725710406.811046,148.0,0.0,4247.820313,4242.563965,4261.538574,4298.077148,4211.025879,4238.717773,4187.179688,4235.256348,4234.743652,4216.025879,4555.128418,4502.05127,4387.563965,4450.512695,3421.0,1.0,15.0,,,,0.0,4.0,4.0,4.0,4.0,4.0,4.0,4.0,4.0,4.0,4.0,4.0,4.0,4.0,4.0,100.0,,,,,,,,,,,,,,,,,,,,,,,,,,,,,,,,,,,,,,,,,,,,,,,,,,,,,,,,,,,,,,,,,,,,,,,,,,,,,,,,,,,,,,,,,,,,,,,,,,,,,,,,,,,,,,,,,,,,,,,,,,,,,,,,,,,
1725710406.813388,1725710406.81495,149.0,0.0,4248.077148,4240.641113,4261.538574,4294.615234,4205.641113,4235.0,4184.102539,4234.615234,4233.077148,4214.743652,4550.128418,4496.282227,4384.487305,4447.94873,3926.0,1.0,15.0,,,,0.0,4.0,4.0,4.0,4.0,4.0,4.0,4.0,4.0,4.0,4.0,4.0,4.0,4.0,4.0,100.0,,,,,,,,,,,,,,,,,,,,,,,,,,,,,,,,,,,,,,,,,,,,,,,,,,,,,,,,,,,,,,,,,,,,,,,,,,,,,,,,,,,,,,,,,,,,,,,,,,,,,,,,,,,,,,,,,,,,,,,,,,,,,,,,,,,
1725710406.817292,1725710406.818954,150.0,0.0,4248.077148,4241.666504,4261.794922,4294.102539,4202.436035,4232.179688,4182.307617,4228.205078,4232.94873,4212.307617,4540.641113,4489.615234,4383.077148,4443.974121,2907.0,1.0,15.0,,,,0.0,4.0,4.0,4.0,4.0,4.0,4.0,4.0,4.0,4.0,4.0,4.0,4.0,4.0,4.0,100.0,,,,,,,,,,,,,,,,,,,,,,,,,,,,,,,,,,,,,,,,,,,,,,,,,,,,,,,,,,,,,,,,,,,,,,,,,,,,,,,,,,,,,,,,,,,,,,,,,,,,,,,,,,,,,,,,,,,,,,,,,,,,,,,,,,,
1725710406.821196,1725710406.822858,151.0,0.0,4247.307617,4244.358887,4261.410156,4295.384766,4203.333496,4230.897461,4182.436035,4218.846191,4232.94873,4208.846191,4531.538574,4484.743652,4383.974121,4440.128418,3139.0,1.0,15.0,,,,0.0,4.0,4.0,4.0,4.0,4.0,4.0,4.0,4.0,4.0,4.0,4.0,4.0,4.0,4.0,100.0,,,,,,,,,,,,,,,,,,,,,,,,,,,,,,,,,,,,,,,,,,,,,,,,,,,,,,,,,,,,,,,,,,,,,,,,,,,,,,,,,,,,,,,,,,,,,,,,,,,,,,,,,,,,,,,,,,,,,,,,,,,,,,,,,,,
1725710406.8251,1725710406.826762,152.0,0.0,4246.666504,4245.512695,4260.128418,4295.769043,4207.94873,4231.666504,4183.846191,4212.436035,4232.179688,4205.0,4528.333496,4483.205078,4385.256348,4437.94873,3421.0,1.0,15.0,,,,0.0,4.0,4.0,4.0,4.0,4.0,4.0,4.0,4.0,4.0,4.0,4.0,4.0,4.0,4.0,100.0,,,,,,,,,,,,,,,,,,,,,,,,,,,,,,,,,,,,,,,,,,,,,,,,,,,,,,,,0.0,0.0,1.0,0.0,1024.0,0.050096,,,,,,,,,,,,,,,,,,,,,,,,,,,,,,,,,,,,,,,,,,,,,,,,,,,,,,,,,,,,,,,,,,,,,,
1725710406.829004,1725710406.830666,153.0,0.0,4246.410156,4243.077148,4258.461426,4294.102539,4213.717773,4234.743652,4185.0,4213.333496,4231.153809,4201.666504,4532.05127,4484.615234,4384.102539,4437.94873,3926.0,1.0,15.0,,,,0.0,4.0,4.0,4.0,4.0,4.0,4.0,4.0,4.0,4.0,4.0,4.0,4.0,4.0,4.0,100.0,,,,,,,,,,,,,,,,,,,,,,,,,,,,,,,,,,,,,,,,,,,,,,,,,,,,,,,,,,,,,,,,,,,,,,,,,,,,,,,,,,,,,,,,,,,,,,,,,,,,,,,,,,,,,,,,,,,,,,,,,,,,,,,,,,,
1725710406.832908,1725710406.83467,154.0,0.0,4246.538574,4237.436035,4257.307617,4292.05127,4217.692383,4239.102539,4184.102539,4220.0,4230.641113,4199.743652,4538.205078,4487.05127,4379.615234,4439.615234,2907.0,1.0,15.0,,,,0.0,4.0,4.0,4.0,4.0,4.0,4.0,4.0,4.0,4.0,4.0,4.0,4.0,4.0,4.0,100.0,,,,,,,,,,,,,,,,,,,,,,,,,,,,,,,,,,,,,,,,,,,,,,,,,,,,,,,,,,,,,,,,,,,,,,,,,,,,,,,,,,,,,,,,,,,,,,,,,,,,,,,,,,,,,,,,,,,,,,,,,,,,,,,,,,,
1725710406.836812,1725710406.838574,155.0,0.0,4246.666504,4232.179688,4257.563965,4292.179688,4218.461426,4243.461426,4180.641113,4226.922852,4231.153809,4199.358887,4541.410156,4488.974121,4373.846191,4441.666504,3139.0,1.0,15.0,,,,0.0,4.0,4.0,4.0,4.0,4.0,4.0,4.0,4.0,4.0,4.0,4.0,4.0,4.0,4.0,100.0,,,,,,,,,,,,,,,,,,,,,,,,,,,,,,,,,,,,,,,,,,,,,,,,,,,,,,,,,,,,,,,,,,,,,,,,,,,,,,,,,,,,,,,,,,,,,,,,,,,,,,,,,,,,,,,,,,,,,,,,,,,,,,,,,,,
1725710406.840716,1725710406.842478,156.0,0.0,4247.179688,4230.769043,4259.487305,4296.282227,4216.666504,4246.282227,4176.538574,4228.974121,4232.05127,4200.384766,4540.0,4489.743652,4370.897461,4443.077148,3421.0,1.0,15.0,,,,0.0,4.0,4.0,4.0,4.0,4.0,4.0,4.0,4.0,4.0,4.0,4.0,4.0,4.0,4.0,100.0,,,,,,,,,,,,,,,,,,,,,,,,,,,,,,,,,,,,,,,,,,,,,,,,,,,,,,,,,,,,,,,,,,,,,,,,,,,,,,,,,,,,,,,,,,,,,,,,,,,,,,,,,,,,,,,,,,,,,,,,,,,,,,,,,,,
1725710406.844621,1725710406.846482,157.0,0.0,4248.205078,4234.615234,4262.179688,4302.820313,4214.358887,4246.922852,4173.205078,4225.384766,4232.307617,4201.922852,4537.692383,4490.128418,4373.077148,4443.589844,3926.0,1.0,15.0,,,,0.0,4.0,4.0,4.0,4.0,4.0,4.0,4.0,4.0,4.0,4.0,4.0,4.0,4.0,4.0,100.0,,,,,,,,,,,,,,,,,,,,,,,,,,,,,,,,,,,,,,,,,,,,,,,,,,,,,,,,,,,,,,,,,,,,,,,,,,,,,,,,,,,,,,,,,,,,,,,,,,,,,,,,,,,,,,,,,,,,,,,,,,,,,,,,,,,
1725710406.848525,1725710406.850386,158.0,0.0,4249.743652,4242.05127,4264.230957,4307.94873,4213.461426,4245.641113,4170.641113,4220.384766,4231.666504,4203.333496,4539.102539,4490.512695,4379.230957,4443.846191,2907.0,1.0,15.0,,,,0.0,4.0,4.0,4.0,4.0,4.0,4.0,4.0,4.0,4.0,4.0,4.0,4.0,4.0,4.0,100.0,,,,,,,,,,,,,,,,,,,,,,,,,,,,,,,,,,,,,,,,,,,,,,,,,,,,,,,,,,,,,,,,,,,,,,,,,,,,,,,,,,,,,,,,,,,,,,,,,,,,,,,,,,,,,,,,,,,,,,,,,,,,,,,,,,,
1725710406.852429,1725710406.854291,159.0,0.0,4251.410156,4249.487305,4264.871582,4308.461426,4214.230957,4243.846191,4167.692383,4218.589844,4230.512695,4203.846191,4544.615234,4491.282227,4385.641113,4444.230957,3139.0,1.0,15.0,,,,0.0,4.0,4.0,4.0,4.0,4.0,4.0,4.0,4.0,4.0,4.0,4.0,4.0,4.0,4.0,100.0,,,,,,,,,,,,,,,,,,,,,,,,,,,,,,,,,,,,,,,,,,,,,,,,,,,,,,,,,,,,,,,,,,,,,,,,,,,,,,,,,,,,,,,,,,,,,,,,,,,,,,,,,,,,,,,,,,,,,,,,,,,,,,,,,,,
1725710406.856333,1725710406.858195,160.0,0.0,4252.692383,4253.077148,4264.230957,4304.615234,4215.512695,4243.077148,4163.846191,4222.307617,4230.128418,4203.333496,4550.256348,4492.436035,4388.589844,4444.743652,3421.0,1.0,15.0,,,,0.0,4.0,4.0,4.0,4.0,4.0,4.0,4.0,4.0,4.0,4.0,4.0,4.0,4.0,4.0,100.0,,,,,,,,,,,,,,,,,,,,,,,,,,,,,,,,,,,,,,,,,,,,,,,,,,,,,,,,0.0,0.0,1.0,0.0,1024.0,0.050096,,,,,,,,,,,,,,,,,,,,,,,,,,,,,,,,,,,,,,,,,,,,,,,,,,,,,,,,,,,,,,,,,,,,,,
1725710406.860237,1725710406.862099,161.0,0.0,4253.077148,4251.153809,4263.077148,4300.512695,4215.897461,4243.846191,4159.358887,4229.615234,4230.897461,4202.436035,4551.410156,4494.871582,4386.922852,4445.256348,3926.0,1.0,15.0,,,,0.0,4.0,4.0,4.0,4.0,4.0,4.0,4.0,4.0,4.0,4.0,4.0,4.0,4.0,4.0,100.0,,,,,,,,,,,,,,,,,,,,,,,,,,,,,,,,,,,,,,,,,,,,,,,,,,,,,,,,,,,,,,,,,,,,,,,,,,,,,,,,,,,,,,,,,,,,,,,,,,,,,,,,,,,,,,,,,,,,,,,,,,,,,,,,,,,
1725710406.864141,1725710406.865903,162.0,0.0,4252.307617,4244.871582,4262.05127,4300.256348,4215.0,4245.897461,4155.128418,4235.897461,4232.307617,4201.794922,4546.922852,4498.205078,4382.563965,4445.641113,2907.0,1.0,15.0,,,,0.0,4.0,4.0,4.0,4.0,4.0,4.0,4.0,4.0,4.0,4.0,4.0,4.0,4.0,4.0,100.0,,,,,,,,,,,,,,,,,,,,,,,,,,,,,,,,,,,,,,,,,,,,,,,,,,,,,,,,,,,,,,,,,,,,,,,,,,,,,,,,,,,,,,,,,,,,,,,,,,,,,,,,,,,,,,,,,,,,,,,,,,,,,,,,,,,
1725710406.868045,1725710406.869807,163.0,0.0,4250.256348,4237.94873,4261.538574,4304.615234,4214.102539,4247.563965,4151.922852,4237.563965,4233.333496,4202.436035,4540.128418,4502.05127,4379.230957,4445.769043,3139.0,1.0,15.0,,,,0.0,4.0,4.0,4.0,4.0,4.0,4.0,4.0,4.0,4.0,4.0,4.0,4.0,4.0,4.0,100.0,,,,,,,,,,,,,,,,,,,,,,,,,,,,,,,,,,,,,,,,,,,,,,,,,,,,,,,,,,,,,,,,,,,,,,,,,,,,,,,,,,,,,,,,,,,,,,,,,,,,,,,,,,,,,,,,,,,,,,,,,,,,,,,,,,,
1725710406.871949,1725710406.873711,164.0,0.0,4248.333496,4233.333496,4261.538574,4310.641113,4213.974121,4248.077148,4149.871582,4234.743652,4233.717773,4204.487305,4536.666504,4504.871582,4378.846191,4446.025879,3421.0,1.0,15.0,,,,0.0,4.0,4.0,4.0,4.0,4.0,4.0,4.0,4.0,4.0,4.0,4.0,4.0,4.0,4.0,100.0,,,,,,,,,,,,,,,,,,,,,,,,,,,,,,,,,,,,,,,,,,,,,,,,,,,,,,,,,,,,,,,,,,,,,,,,,,,,,,,,,,,,,,,,,,,,,,,,,,,,,,,,,,,,,,,,,,,,,,,,,,,,,,,,,,,
1725710406.875853,1725710406.877615,165.0,0.0,4248.461426,4232.563965,4261.922852,4314.743652,4214.871582,4247.179688,4148.333496,4231.025879,4233.974121,4207.436035,4539.358887,4506.025879,4380.641113,4446.282227,3926.0,1.0,15.0,,,,0.0,4.0,4.0,4.0,4.0,4.0,4.0,4.0,4.0,4.0,4.0,4.0,4.0,4.0,4.0,100.0,,,,,,,,,,,,,,,,,,,,,,,,,,,,,,,,,,,,,,,,,,,,,,,,,,,,,,,,,,,,,,,,,,,,,,,,,,,,,,,,,,,,,,,,,,,,,,,,,,,,,,,,,,,,,,,,,,,,,,,,,,,,,,,,,,,
1725710406.879758,1725710406.881419,166.0,0.0,4251.794922,4234.743652,4262.563965,4315.0,4215.512695,4246.282227,4146.410156,4229.871582,4234.487305,4210.0,4546.794922,4505.897461,4382.05127,4446.153809,2907.0,1.0,15.0,,,,0.0,4.0,4.0,4.0,4.0,4.0,4.0,4.0,4.0,4.0,4.0,4.0,4.0,4.0,4.0,100.0,,,,,,,,,,,,,,,,,,,,,,,,,,,,,,,,,,,,,,,,,,,,,,,,,,,,,,,,,,,,,,,,,,,,,,,,,,,,,,,,,,,,,,,,,,,,,,,,,,,,,,,,,,,,,,,,,,,,,,,,,,,,,,,,,,,
1725710406.883662,1725710406.885324,167.0,0.0,4257.179688,4237.94873,4263.461426,4312.563965,4215.641113,4246.153809,4143.974121,4231.410156,4235.128418,4211.794922,4553.974121,4506.025879,4382.05127,4445.512695,3139.0,1.0,15.0,,,,0.0,4.0,4.0,4.0,4.0,4.0,4.0,4.0,4.0,4.0,4.0,4.0,4.0,4.0,4.0,100.0,,,,,,,,,,,,,,,,,,,,,,,,,,,,,,,,,,,,,,,,,,,,,,,,,,,,,,,,,,,,,,,,,,,,,,,,,,,,,,,,,,,,,,,,,,,,,,,,,,,,,,,,,,,,,,,,,,,,,,,,,,,,,,,,,,,
1725710406.887566,1725710406.889228,168.0,0.0,4261.794922,4240.256348,4264.487305,4310.128418,4215.641113,4246.538574,4141.410156,4233.461426,4235.641113,4213.589844,4556.666504,4506.922852,4381.282227,4444.743652,3421.0,1.0,15.0,,,,0.0,4.0,4.0,4.0,4.0,4.0,4.0,4.0,4.0,4.0,4.0,4.0,4.0,4.0,4.0,100.0,,,,,,,,,,,,,,,,,,,,,,,,,,,,,,,,,,,,,,,,,,,,,,,,,,,,,,,,0.0,0.0,1.0,0.0,1024.0,0.050096,,,,,,,,,,,,,,,,,,,,,,,,,,,,,,,,,,,,,,,,,,,,,,,,,,,,,,,,,,,,,,,,,,,,,,
1725710406.89147,1725710406.893132,169.0,0.0,4262.820313,4240.384766,4264.358887,4308.974121,4216.538574,4246.666504,4140.128418,4233.589844,4235.384766,4216.025879,4554.743652,4508.077148,4380.641113,4444.871582,3926.0,1.0,15.0,,,,0.0,4.0,4.0,4.0,4.0,4.0,4.0,4.0,4.0,4.0,4.0,4.0,4.0,4.0,4.0,100.0,,,,,,,,,,,,,,,,,,,,,,,,,,,,,,,,,,,,,,,,,,,,,,,,,,,,,,,,,,,,,,,,,,,,,,,,,,,,,,,,,,,,,,,,,,,,,,,,,,,,,,,,,,,,,,,,,,,,,,,,,,,,,,,,,,,
1725710406.895374,1725710406.896936,170.0,0.0,4259.743652,4238.461426,4263.077148,4308.717773,4218.333496,4246.410156,4140.384766,4232.436035,4234.615234,4218.461426,4551.410156,4508.461426,4380.897461,4445.897461,2907.0,1.0,15.0,,,,0.0,4.0,4.0,4.0,4.0,4.0,4.0,4.0,4.0,4.0,4.0,4.0,4.0,4.0,4.0,100.0,,,,,,,,,,,,,,,,,,,,,,,,,,,,,,,,,,,,,,,,,,,,,,,,,,,,,,,,,,,,,,,,,,,,,,,,,,,,,,,,,,,,,,,,,,,,,,,,,,,,,,,,,,,,,,,,,,,,,,,,,,,,,,,,,,,
1725710406.899278,1725710406.90084,171.0,0.0,4254.487305,4236.153809,4261.922852,4307.436035,4219.358887,4245.769043,4141.538574,4231.922852,4233.333496,4218.974121,4550.0,4506.666504,4381.410156,4446.794922,3139.0,1.0,15.0,,,,0.0,4.0,4.0,4.0,4.0,4.0,4.0,4.0,4.0,4.0,4.0,4.0,4.0,4.0,4.0,100.0,,,,,,,,,,,,,,,,,,,,,,,,,,,,,,,,,,,,,,,,,,,,,,,,,,,,,,,,,,,,,,,,,,,,,,,,,,,,,,,,,,,,,,,,,,,,,,,,,,,,,,,,,,,,,,,,,,,,,,,,,,,,,,,,,,,
1725710406.903182,1725710406.904744,172.0,0.0,4249.743652,4234.743652,4262.05127,4304.102539,4217.692383,4244.871582,4141.538574,4232.563965,4232.307617,4216.153809,4551.282227,4502.563965,4381.153809,4446.410156,3421.0,1.0,15.0,,,,0.0,4.0,4.0,4.0,4.0,4.0,4.0,4.0,4.0,4.0,4.0,4.0,4.0,4.0,4.0,100.0,,,,,,,,,,,,,,,,,,,,,,,,,,,,,,,,,,,,,,,,,,,,,,,,,,,,,,,,,,,,,,,,,,,,,,,,,,,,,,,,,,,,,,,,,,,,,,,,,,,,,,,,,,,,,,,,,,,,,,,,,,,,,,,,,,,
1725710406.907086,1725710406.908648,173.0,0.0,4247.820313,4235.384766,4263.333496,4300.0,4213.461426,4243.589844,4139.615234,4232.820313,4232.307617,4210.128418,4552.94873,4497.563965,4379.230957,4443.846191,3926.0,1.0,15.0,,,,0.0,4.0,4.0,4.0,4.0,4.0,4.0,4.0,4.0,4.0,4.0,4.0,4.0,4.0,4.0,100.0,,,,,,,,,,,,,,,,,,,,,,,,,,,,,,,,,,,,,,,,,,,,,,,,,,,,,,,,,,,,,,,,,,,,,,,,,,,,,,,,,,,,,,,,,,,,,,,,,,,,,,,,,,,,,,,,,,,,,,,,,,,,,,,,,,,
1725710406.91099,1725710406.912453,174.0,0.0,4248.461426,4237.05127,4264.102539,4296.794922,4208.077148,4242.307617,4136.794922,4230.384766,4233.077148,4203.589844,4552.179688,4493.205078,4375.641113,4438.974121,2907.0,1.0,15.0,,,,0.0,4.0,4.0,4.0,4.0,4.0,4.0,4.0,4.0,4.0,4.0,4.0,4.0,4.0,4.0,100.0,,,,,,,,,,,,,,,,,,,,,,,,,,,,,,,,,,,,,,,,,,,,,,,,,,,,,,,,,,,,,,,,,,,,,,,,,,,,,,,,,,,,,,,,,,,,,,,,,,,,,,,,,,,,,,,,,,,,,,,,,,,,,,,,,,,
1725710406.914894,1725710406.916357,175.0,0.0,4250.256348,4238.333496,4262.436035,4295.256348,4204.487305,4241.538574,4135.384766,4225.256348,4233.974121,4199.230957,4548.333496,4490.512695,4371.666504,4433.461426,3139.0,1.0,15.0,,,,0.0,4.0,4.0,4.0,4.0,4.0,4.0,4.0,4.0,4.0,4.0,4.0,4.0,4.0,4.0,100.0,,,,,,,,,,,,,,,,,,,,,,,,,,,,,,,,,,,,,,,,,,,,,,,,,,,,,,,,,,,,,,,,,,,,,,,,,,,,,,,,,,,,,,,,,,,,,,,,,,,,,,,,,,,,,,,,,,,,,,,,,,,,,,,,,,,
1725710406.918799,1725710406.920261,176.0,0.0,4251.538574,4238.077148,4258.205078,4295.384766,4204.358887,4241.794922,4136.282227,4219.487305,4233.333496,4198.717773,4542.307617,4488.974121,4369.487305,4429.487305,3421.0,1.0,15.0,,,,0.0,4.0,4.0,4.0,4.0,4.0,4.0,4.0,4.0,4.0,4.0,4.0,4.0,4.0,4.0,100.0,,,,,,,,,,,,,,,,,1.0,0.0,0.0,,,,,,,,,,,,,,,,,,,,,,,,,,,,,,,,,,,,,0.0,0.0,1.0,0.0,1024.0,0.019107,1.115167,0.708325,0.182301,0.139162,0.058888,1.22144,0.781639,0.283339,0.263945,0.094494,1.226979,0.375609,0.158783,0.144115,0.053942,0.967382,0.667592,0.147016,0.340877,0.176338,0.324514,0.214028,0.059362,0.063209,0.024741,0.132531,0.223911,0.089332,0.052032,0.043088,4.026624,0.969477,0.380712,0.162201,0.114733,0.947694,0.538466,0.437406,0.162935,0.098272,1.625254,0.602469,0.499705,0.207831,0.055241,2.162472,1.423349,0.418304,0.268039,0.101319,3.046693,1.557158,0.640429,0.799186,0.375621,4.218642,2.176924,0.535623,0.351565,0.253168,2.575342,1.398285,0.989124,0.667955,0.145765,2.660256,1.713182,0.408337,0.258457,0.125691
1725710406.922703,1725710406.924265,177.0,0.0,4251.153809,4236.410156,4253.077148,4296.410156,4206.538574,4242.94873,4138.205078,4215.641113,4230.384766,4200.897461,4535.897461,4487.179688,4369.358887,4427.94873,3926.0,1.0,15.0,,,,0.0,4.0,4.0,4.0,4.0,4.0,4.0,4.0,4.0,4.0,4.0,4.0,4.0,4.0,4.0,100.0,,,,,,,,,,,,,,,,,,,,,,,,,,,,,,,,,,,,,,,,,,,,,,,,,,,,,,,,,,,,,,,,,,,,,,,,,,,,,,,,,,,,,,,,,,,,,,,,,,,,,,,,,,,,,,,,,,,,,,,,,,,,,,,,,,,
1725710406.926607,1725710406.928169,178.0,0.0,4248.846191,4234.487305,4249.358887,4297.179688,4208.333496,4244.102539,4138.589844,4214.743652,4225.897461,4202.820313,4529.743652,4483.846191,4369.230957,4428.205078,2907.0,1.0,15.0,,,,0.0,4.0,4.0,4.0,4.0,4.0,4.0,4.0,4.0,4.0,4.0,4.0,4.0,4.0,4.0,100.0,,,,,,,,,,,,,,,,,,,,,,,,,,,,,,,,,,,,,,,,,,,,,,,,,,,,,,,,,,,,,,,,,,,,,,,,,,,,,,,,,,,,,,,,,,,,,,,,,,,,,,,,,,,,,,,,,,,,,,,,,,,,,,,,,,,
1725710406.930511,1725710406.932073,179.0,0.0,4245.641113,4232.820313,4248.589844,4296.666504,4207.563965,4244.871582,4135.384766,4216.025879,4221.153809,4202.179688,4524.487305,4478.846191,4366.410156,4428.077148,3139.0,1.0,15.0,,,,0.0,4.0,4.0,4.0,4.0,4.0,4.0,4.0,4.0,4.0,4.0,4.0,4.0,4.0,4.0,100.0,,,,,,,,,,,,,,,,,,,,,,,,,,,,,,,,,,,,,,,,,,,,,,,,,,,,,,,,,,,,,,,,,,,,,,,,,,,,,,,,,,,,,,,,,,,,,,,,,,,,,,,,,,,,,,,,,,,,,,,,,,,,,,,,,,,
1725710406.934415,1725710406.935977,180.0,0.0,4242.692383,4231.538574,4249.358887,4294.102539,4204.871582,4245.512695,4128.717773,4217.94873,4217.820313,4199.102539,4521.794922,4474.487305,4360.769043,4426.410156,3421.0,1.0,15.0,,,,0.0,4.0,4.0,4.0,4.0,4.0,4.0,4.0,4.0,4.0,4.0,4.0,4.0,4.0,4.0,100.0,,,,,,,,,,,,,,,,,,,,,,,,,,,,,,,,,,,,,,,,,,,,,,,,,,,,,,,,,,,,,,,,,,,,,,,,,,,,,,,,,,,,,,,,,,,,,,,,,,,,,,,,,,,,,,,,,,,,,,,,,,,,,,,,,,,
1725710406.938319,1725710406.939981,181.0,0.0,4241.025879,4230.0,4249.487305,4289.871582,4202.94873,4246.153809,4121.025879,4219.102539,4216.922852,4196.282227,4523.333496,4472.563965,4355.641113,4423.589844,3926.0,1.0,15.0,,,,0.0,4.0,4.0,4.0,4.0,4.0,4.0,4.0,4.0,4.0,4.0,4.0,4.0,4.0,4.0,100.0,,,,,,,,,,,,,,,,,,,,,,,,,,,,,,,,,,,,,,,,,,,,,,,,,,,,,,,,,,,,,,,,,,,,,,,,,,,,,,,,,,,,,,,,,,,,,,,,,,,,,,,,,,,,,,,,,,,,,,,,,,,,,,,,,,,
1725710406.942223,1725710406.943885,182.0,0.0,4241.025879,4228.717773,4247.692383,4284.871582,4203.717773,4246.794922,4115.128418,4218.846191,4218.077148,4195.897461,4529.358887,4473.846191,4354.358887,4421.666504,2907.0,1.0,15.0,,,,0.0,4.0,4.0,4.0,4.0,4.0,4.0,4.0,4.0,4.0,4.0,4.0,4.0,4.0,4.0,100.0,,,,,,,,,,,,,,,,,,,,,,,,,,,,,,,,,,,,,,,,,,,,,,,,,,,,,,,,,,,,,,,,,,,,,,,,,,,,,,,,,,,,,,,,,,,,,,,,,,,,,,,,,,,,,,,,,,,,,,,,,,,,,,,,,,,
1725710406.946127,1725710406.947789,183.0,0.0,4242.820313,4228.846191,4244.871582,4280.769043,4206.666504,4246.794922,4112.436035,4217.563965,4219.487305,4197.820313,4537.563965,4476.410156,4358.077148,4421.922852,3139.0,1.0,15.0,,,,0.0,4.0,4.0,4.0,4.0,4.0,4.0,4.0,4.0,4.0,4.0,4.0,4.0,4.0,4.0,100.0,,,,,,,,,,,,,,,,,,,,,,,,,,,,,,,,,,,,,,,,,,,,,,,,,,,,,,,,,,,,,,,,,,,,,,,,,,,,,,,,,,,,,,,,,,,,,,,,,,,,,,,,,,,,,,,,,,,,,,,,,,,,,,,,,,,
1725710406.950031,1725710406.951793,184.0,0.0,4245.384766,4231.025879,4242.94873,4278.846191,4208.846191,4245.641113,4112.436035,4216.282227,4219.487305,4199.230957,4543.461426,4477.436035,4364.102539,4424.358887,3421.0,1.0,15.0,,,,0.0,4.0,4.0,4.0,4.0,4.0,4.0,4.0,4.0,4.0,4.0,4.0,4.0,4.0,4.0,100.0,,,,,,,,,,,,,,,,,,,,,,,,,,,,,,,,,,,,,,,,,,,,,,,,,,,,,,,,0.0,0.0,1.0,0.0,1024.0,0.019107,,,,,,,,,,,,,,,,,,,,,,,,,,,,,,,,,,,,,,,,,,,,,,,,,,,,,,,,,,,,,,,,,,,,,,
1725710406.953935,1725710406.955697,185.0,0.0,4247.179688,4234.487305,4243.589844,4279.487305,4207.692383,4243.589844,4112.563965,4215.897461,4217.820313,4197.563965,4543.974121,4476.153809,4368.205078,4427.05127,3926.0,1.0,15.0,,,,0.0,4.0,4.0,4.0,4.0,4.0,4.0,4.0,4.0,4.0,4.0,4.0,4.0,4.0,4.0,100.0,,,,,,,,,,,,,,,,,,,,,,,,,,,,,,,,,,,,,,,,,,,,,,,,,,,,,,,,,,,,,,,,,,,,,,,,,,,,,,,,,,,,,,,,,,,,,,,,,,,,,,,,,,,,,,,,,,,,,,,,,,,,,,,,,,,
1725710406.957839,1725710406.959601,186.0,0.0,4247.307617,4236.153809,4246.282227,4281.538574,4203.589844,4241.153809,4110.897461,4216.282227,4215.769043,4192.820313,4539.487305,4473.589844,4367.179688,4428.461426,2907.0,1.0,15.0,,,,0.0,4.0,4.0,4.0,4.0,4.0,4.0,4.0,4.0,4.0,4.0,4.0,4.0,4.0,4.0,100.0,,,,,,,,,,,,,,,,,,,,,,,,,,,,,,,,,,,,,,,,,,,,,,,,,,,,,,,,,,,,,,,,,,,,,,,,,,,,,,,,,,,,,,,,,,,,,,,,,,,,,,,,,,,,,,,,,,,,,,,,,,,,,,,,,,,
1725710406.961743,1725710406.963605,187.0,0.0,4245.769043,4233.846191,4249.230957,4282.94873,4199.102539,4240.0,4107.563965,4217.436035,4215.512695,4187.563965,4534.358887,4472.05127,4361.794922,4428.077148,3139.0,1.0,15.0,,,,0.0,4.0,4.0,4.0,4.0,4.0,4.0,4.0,4.0,4.0,4.0,4.0,4.0,4.0,4.0,100.0,,,,,,,,,,,,,,,,,,,,,,,,,,,,,,,,,,,,,,,,,,,,,,,,,,,,,,,,,,,,,,,,,,,,,,,,,,,,,,,,,,,,,,,,,,,,,,,,,,,,,,,,,,,,,,,,,,,,,,,,,,,,,,,,,,,
1725710406.965648,1725710406.96751,188.0,0.0,4243.589844,4227.563965,4250.256348,4282.307617,4197.307617,4240.641113,4104.615234,4218.717773,4218.077148,4184.743652,4533.205078,4472.94873,4355.512695,4426.922852,3421.0,1.0,15.0,,,,0.0,4.0,4.0,4.0,4.0,4.0,4.0,4.0,4.0,4.0,4.0,4.0,4.0,4.0,4.0,100.0,,,,,,,,,,,,,,,,,,,,,,,,,,,,,,,,,,,,,,,,,,,,,,,,,,,,,,,,,,,,,,,,,,,,,,,,,,,,,,,,,,,,,,,,,,,,,,,,,,,,,,,,,,,,,,,,,,,,,,,,,,,,,,,,,,,
1725710406.969552,1725710406.971414,189.0,0.0,4242.179688,4220.512695,4248.717773,4280.256348,4198.717773,4242.05127,4103.717773,4219.871582,4222.820313,4185.256348,4536.666504,4475.641113,4352.563965,4426.025879,3926.0,1.0,15.0,,,,0.0,4.0,4.0,4.0,4.0,4.0,4.0,4.0,4.0,4.0,4.0,4.0,4.0,4.0,4.0,100.0,,,,,,,,,,,,,,,,,,,,,,,,,,,,,,,,,,,,,,,,,,,,,,,,,,,,,,,,,,,,,,,,,,,,,,,,,,,,,,,,,,,,,,,,,,,,,,,,,,,,,,,,,,,,,,,,,,,,,,,,,,,,,,,,,,,
1725710406.973456,1725710406.975318,190.0,0.0,4241.922852,4216.666504,4245.769043,4278.205078,4201.410156,4242.692383,4105.128418,4220.641113,4227.692383,4187.820313,4540.769043,4478.333496,4354.358887,4425.769043,2907.0,1.0,15.0,,,,0.0,4.0,4.0,4.0,4.0,4.0,4.0,4.0,4.0,4.0,4.0,4.0,4.0,4.0,4.0,100.0,,,,,,,,,,,,,,,,,,,,,,,,,,,,,,,,,,,,,,,,,,,,,,,,,,,,,,,,,,,,,,,,,,,,,,,,,,,,,,,,,,,,,,,,,,,,,,,,,,,,,,,,,,,,,,,,,,,,,,,,,,,,,,,,,,,
1725710406.97736,1725710406.979222,191.0,0.0,4242.307617,4218.333496,4243.846191,4277.436035,4202.563965,4241.666504,4107.436035,4220.769043,4230.641113,4189.743652,4540.384766,4479.358887,4359.230957,4426.025879,3139.0,1.0,15.0,,,,0.0,4.0,4.0,4.0,4.0,4.0,4.0,4.0,4.0,4.0,4.0,4.0,4.0,4.0,4.0,100.0,,,,,,,,,,,,,,,,,,,,,,,,,,,,,,,,,,,,,,,,,,,,,,,,,,,,,,,,,,,,,,,,,,,,,,,,,,,,,,,,,,,,,,,,,,,,,,,,,,,,,,,,,,,,,,,,,,,,,,,,,,,,,,,,,,,
1725710406.981264,1725710406.983126,192.0,0.0,4242.563965,4224.743652,4244.102539,4277.94873,4201.666504,4239.358887,4109.230957,4220.256348,4230.512695,4189.615234,4534.487305,4478.333496,4363.333496,4426.282227,3421.0,1.0,15.0,,,,0.0,4.0,4.0,4.0,4.0,4.0,4.0,4.0,4.0,4.0,4.0,4.0,4.0,4.0,4.0,100.0,,,,,,,,,,,,,,,,,,,,,,,,,,,,,,,,,,,,,,,,,,,,,,,,,,,,,,,,0.0,0.0,1.0,0.0,1024.0,0.019107,,,,,,,,,,,,,,,,,,,,,,,,,,,,,,,,,,,,,,,,,,,,,,,,,,,,,,,,,,,,,,,,,,,,,,
1725710406.985168,1725710406.98693,193.0,0.0,4242.692383,4232.05127,4246.025879,4278.717773,4200.0,4237.94873,4110.0,4219.871582,4227.94873,4187.179688,4526.666504,4476.538574,4364.230957,4426.410156,3926.0,1.0,15.0,,,,0.0,4.0,4.0,4.0,4.0,4.0,4.0,4.0,4.0,4.0,4.0,4.0,4.0,4.0,4.0,100.0,,,,,,,,,,,,,,,,,,,,,,,,,,,,,,,,,,,,,,,,,,,,,,,,,,,,,,,,,,,,,,,,,,,,,,,,,,,,,,,,,,,,,,,,,,,,,,,,,,,,,,,,,,,,,,,,,,,,,,,,,,,,,,,,,,,
1725710406.989072,1725710406.990834,194.0,0.0,4242.94873,4236.410156,4248.077148,4279.102539,4199.230957,4238.974121,4110.128418,4220.0,4224.102539,4184.102539,4522.05127,4474.871582,4362.563965,4426.282227,2907.0,1.0,15.0,,,,0.0,4.0,4.0,4.0,4.0,4.0,4.0,4.0,4.0,4.0,4.0,4.0,4.0,4.0,4.0,100.0,,,,,,,,,,,,,,,,,,,,,,,,,,,,,,,,,,,,,,,,,,,,,,,,,,,,,,,,,,,,,,,,,,,,,,,,,,,,,,,,,,,,,,,,,,,,,,,,,,,,,,,,,,,,,,,,,,,,,,,,,,,,,,,,,,,
1725710406.992976,1725710406.994738,195.0,0.0,4243.205078,4236.410156,4249.230957,4279.615234,4200.0,4242.307617,4110.128418,4220.384766,4220.384766,4181.794922,4524.358887,4473.846191,4360.384766,4425.897461,3139.0,1.0,15.0,,,,0.0,4.0,4.0,4.0,4.0,4.0,4.0,4.0,4.0,4.0,4.0,4.0,4.0,4.0,4.0,100.0,,,,,,,,,,,,,,,,,,,,,,,,,,,,,,,,,,,,,,,,,,,,,,,,,,,,,,,,,,,,,,,,,,,,,,,,,,,,,,,,,,,,,,,,,,,,,,,,,,,,,,,,,,,,,,,,,,,,,,,,,,,,,,,,,,,
1725710406.99688,1725710406.998642,196.0,0.0,4242.94873,4233.717773,4249.102539,4280.769043,4201.282227,4245.769043,4110.769043,4220.512695,4217.692383,4181.538574,4532.179688,4473.461426,4358.846191,4424.487305,3421.0,1.0,15.0,,,,0.0,4.0,4.0,4.0,4.0,4.0,4.0,4.0,4.0,4.0,4.0,4.0,4.0,4.0,4.0,100.0,,,,,,,,,,,,,,,,,,,,,,,,,,,,,,,,,,,,,,,,,,,,,,,,,,,,,,,,,,,,,,,,,,,,,,,,,,,,,,,,,,,,,,,,,,,,,,,,,,,,,,,,,,,,,,,,,,,,,,,,,,,,,,,,,,,
1725710407.000785,1725710407.002447,197.0,0.0,4241.794922,4230.769043,4248.205078,4282.307617,4202.179688,4247.436035,4111.922852,4220.128418,4216.410156,4182.820313,4540.384766,4473.589844,4357.436035,4421.153809,3926.0,1.0,15.0,,,,0.0,4.0,4.0,4.0,4.0,4.0,4.0,4.0,4.0,4.0,4.0,4.0,4.0,4.0,4.0,100.0,,,,,,,,,,,,,,,,,,,,,,,,,,,,,,,,,,,,,,,,,,,,,,,,,,,,,,,,,,,,,,,,,,,,,,,,,,,,,,,,,,,,,,,,,,,,,,,,,,,,,,,,,,,,,,,,,,,,,,,,,,,,,,,,,,,
1725710407.004689,1725710407.006351,198.0,0.0,4239.358887,4229.743652,4246.794922,4283.205078,4202.436035,4246.922852,4113.077148,4220.128418,4216.153809,4184.230957,4543.333496,4473.974121,4354.743652,4416.025879,2907.0,1.0,15.0,,,,0.0,4.0,4.0,4.0,4.0,4.0,4.0,4.0,4.0,4.0,4.0,4.0,4.0,4.0,4.0,100.0,,,,,,,,,,,,,,,,,,,,,,,,,,,,,,,,,,,,,,,,,,,,,,,,,,,,,,,,,,,,,,,,,,,,,,,,,,,,,,,,,,,,,,,,,,,,,,,,,,,,,,,,,,,,,,,,,,,,,,,,,,,,,,,,,,,
1725710407.008593,1725710407.010255,199.0,0.0,4236.410156,4230.641113,4245.256348,4282.692383,4202.436035,4245.128418,4114.102539,4220.384766,4216.538574,4184.743652,4538.974121,4473.589844,4350.384766,4410.897461,3139.0,1.0,15.0,,,,0.0,4.0,4.0,4.0,4.0,4.0,4.0,4.0,4.0,4.0,4.0,4.0,4.0,4.0,4.0,100.0,,,,,,,,,,,,,,,,,,,,,,,,,,,,,,,,,,,,,,,,,,,,,,,,,,,,,,,,,,,,,,,,,,,,,,,,,,,,,,,,,,,,,,,,,,,,,,,,,,,,,,,,,,,,,,,,,,,,,,,,,,,,,,,,,,,
1725710407.012497,1725710407.014159,200.0,0.0,4234.230957,4232.05127,4243.846191,4281.153809,4202.436035,4244.230957,4115.512695,4220.641113,4217.436035,4183.846191,4529.743652,4472.05127,4346.922852,4408.846191,3421.0,1.0,15.0,,,,0.0,4.0,4.0,4.0,4.0,4.0,4.0,4.0,4.0,4.0,4.0,4.0,4.0,4.0,4.0,100.0,,,,,,,,,,,,,,,,,,,,,,,,,,,,,,,,,,,,,,,,,,,,,,,,,,,,,,,,0.0,0.0,1.0,0.0,1024.0,0.019107,,,,,,,,,,,,,,,,,,,,,,,,,,,,,,,,,,,,,,,,,,,,,,,,,,,,,,,,,,,,,,,,,,,,,,
1725710407.016401,1725710407.017963,201.0,0.0,4233.846191,4232.05127,4243.077148,4279.871582,4202.436035,4244.615234,4118.205078,4220.512695,4218.589844,4182.563965,4521.666504,4470.769043,4346.666504,4411.666504,3926.0,1.0,15.0,,,,0.0,4.0,4.0,4.0,4.0,4.0,4.0,4.0,4.0,4.0,4.0,4.0,4.0,4.0,4.0,100.0,,,,,,,,,,,,,,,,,,,,,,,,,,,,,,,,,,,,,,,,,,,,,,,,,,,,,,,,,,,,,,,,,,,,,,,,,,,,,,,,,,,,,,,,,,,,,,,,,,,,,,,,,,,,,,,,,,,,,,,,,,,,,,,,,,,
1725710407.020305,1725710407.021867,202.0,0.0,4235.512695,4230.256348,4243.461426,4280.512695,4202.94873,4246.153809,4122.692383,4220.0,4218.974121,4181.922852,4520.0,4471.538574,4350.512695,4418.205078,2907.0,1.0,15.0,,,,0.0,4.0,4.0,4.0,4.0,4.0,4.0,4.0,4.0,4.0,4.0,4.0,4.0,4.0,4.0,100.0,,,,,,,,,,,,,,,,,,,,,,,,,,,,,,,,,,,,,,,,,,,,,,,,,,,,,,,,,,,,,,,,,,,,,,,,,,,,,,,,,,,,,,,,,,,,,,,,,,,,,,,,,,,,,,,,,,,,,,,,,,,,,,,,,,,
1725710407.024209,1725710407.025771,203.0,0.0,4238.717773,4228.205078,4245.0,4283.589844,4204.615234,4247.692383,4128.077148,4219.358887,4218.205078,4183.333496,4525.897461,4475.256348,4356.410156,4425.384766,3139.0,1.0,15.0,,,,0.0,4.0,4.0,4.0,4.0,4.0,4.0,4.0,4.0,4.0,4.0,4.0,4.0,4.0,4.0,100.0,,,,,,,,,,,,,,,,,,,,,,,,,,,,,,,,,,,,,,,,,,,,,,,,,,,,,,,,,,,,,,,,,,,,,,,,,,,,,,,,,,,,,,,,,,,,,,,,,,,,,,,,,,,,,,,,,,,,,,,,,,,,,,,,,,,
1725710407.028113,1725710407.029676,204.0,0.0,4242.179688,4227.307617,4246.922852,4288.205078,4207.563965,4248.333496,4133.333496,4218.974121,4216.666504,4187.179688,4536.025879,4481.410156,4361.666504,4430.512695,3421.0,1.0,15.0,,,,0.0,4.0,4.0,4.0,4.0,4.0,4.0,4.0,4.0,4.0,4.0,4.0,4.0,4.0,4.0,100.0,,,,,,,,,,,,,,,,,,,,,,,,,,,,,,,,,,,,,,,,,,,,,,,,,,,,,,,,,,,,,,,,,,,,,,,,,,,,,,,,,,,,,,,,,,,,,,,,,,,,,,,,,,,,,,,,,,,,,,,,,,,,,,,,,,,
1725710407.032017,1725710407.03348,205.0,0.0,4245.128418,4227.307617,4248.333496,4292.820313,4211.410156,4248.205078,4138.205078,4218.717773,4216.282227,4192.563965,4544.230957,4488.333496,4364.358887,4432.436035,3926.0,1.0,15.0,,,,0.0,4.0,4.0,4.0,4.0,4.0,4.0,4.0,4.0,4.0,4.0,4.0,4.0,4.0,4.0,100.0,,,,,,,,,,,,,,,,,,,,,,,,,,,,,,,,,,,,,,,,,,,,,,,,,,,,,,,,,,,,,,,,,,,,,,,,,,,,,,,,,,,,,,,,,,,,,,,,,,,,,,,,,,,,,,,,,,,,,,,,,,,,,,,,,,,
1725710407.035921,1725710407.037384,206.0,0.0,4247.179688,4227.436035,4248.333496,4295.769043,4215.0,4247.692383,4143.333496,4218.205078,4218.333496,4197.94873,4546.153809,4493.333496,4364.230957,4431.922852,2907.0,1.0,15.0,,,,0.0,4.0,4.0,4.0,4.0,4.0,4.0,4.0,4.0,4.0,4.0,4.0,4.0,4.0,4.0,100.0,,,,,,,,,,,,,,,,,,,,,,,,,,,,,,,,,,,,,,,,,,,,,,,,,,,,,,,,,,,,,,,,,,,,,,,,,,,,,,,,,,,,,,,,,,,,,,,,,,,,,,,,,,,,,,,,,,,,,,,,,,,,,,,,,,,
1725710407.039826,1725710407.041288,207.0,0.0,4248.461426,4227.436035,4247.307617,4296.666504,4217.179688,4247.563965,4149.615234,4217.307617,4222.179688,4201.666504,4542.179688,4494.871582,4363.461426,4431.025879,3139.0,1.0,15.0,,,,0.0,4.0,4.0,4.0,4.0,4.0,4.0,4.0,4.0,4.0,4.0,4.0,4.0,4.0,4.0,100.0,,,,,,,,,,,,,,,,,,,,,,,,,,,,,,,,,,,,,,,,,,,,,,,,,,,,,,,,,,,,,,,,,,,,,,,,,,,,,,,,,,,,,,,,,,,,,,,,,,,,,,,,,,,,,,,,,,,,,,,,,,,,,,,,,,,
1725710407.04373,1725710407.045292,208.0,0.0,4249.358887,4228.846191,4246.922852,4295.897461,4217.179688,4248.077148,4156.922852,4216.410156,4226.538574,4203.333496,4536.666504,4493.205078,4364.102539,4431.282227,3421.0,1.0,15.0,,,,0.0,4.0,4.0,4.0,4.0,4.0,4.0,4.0,4.0,4.0,4.0,4.0,4.0,4.0,4.0,100.0,,,,,,,,,,,,,,,,,1.0,0.0,0.0,,,,,,,,,,,,,,,,,,,,,,,,,,,,,,,,,,,,,0.0,0.0,1.0,0.0,1024.0,0.005913,0.877659,0.543638,0.151789,0.115599,0.04638,0.9994,0.668714,0.261923,0.257954,0.099145,1.07717,0.379093,0.168313,0.139846,0.056551,0.88747,0.675962,0.143123,0.314119,0.164261,0.333695,0.21458,0.052699,0.054964,0.025395,0.124388,0.279158,0.090122,0.046368,0.035418,4.106543,0.840203,0.34099,0.154922,0.105725,0.852298,0.51862,0.367266,0.116699,0.090576,1.62117,0.619691,0.423343,0.159883,0.056894,1.870656,1.363934,0.339975,0.212208,0.08423,2.623863,1.625176,0.550185,0.739837,0.348814,3.993253,2.263659,0.480729,0.299742,0.239772,2.043499,1.129517,0.730199,0.657999,0.155673,2.461917,1.62588,0.332845,0.21738,0.119559
1725710407.047634,1725710407.049196,209.0,0.0,4250.0,4232.820313,4248.974121,4295.0,4215.897461,4248.974121,4163.974121,4216.922852,4229.743652,4203.461426,4534.743652,4490.769043,4367.307617,4433.205078,3926.0,1.0,15.0,,,,0.0,4.0,4.0,4.0,4.0,4.0,4.0,4.0,4.0,4.0,4.0,4.0,4.0,4.0,4.0,100.0,,,,,,,,,,,,,,,,,,,,,,,,,,,,,,,,,,,,,,,,,,,,,,,,,,,,,,,,,,,,,,,,,,,,,,,,,,,,,,,,,,,,,,,,,,,,,,,,,,,,,,,,,,,,,,,,,,,,,,,,,,,,,,,,,,,
1725710407.051538,1725710407.0531,210.0,0.0,4250.256348,4238.589844,4253.461426,4294.743652,4214.487305,4249.743652,4168.717773,4219.615234,4231.025879,4203.077148,4538.846191,4490.256348,4371.666504,4435.769043,2907.0,1.0,15.0,,,,0.0,4.0,4.0,4.0,4.0,4.0,4.0,4.0,4.0,4.0,4.0,4.0,4.0,4.0,4.0,100.0,,,,,,,,,,,,,,,,,,,,,,,,,,,,,,,,,,,,,,,,,,,,,,,,,,,,,,,,,,,,,,,,,,,,,,,,,,,,,,,,,,,,,,,,,,,,,,,,,,,,,,,,,,,,,,,,,,,,,,,,,,,,,,,,,,,
1725710407.055442,1725710407.057004,211.0,0.0,4250.128418,4243.205078,4258.205078,4295.128418,4214.358887,4249.871582,4170.128418,4224.230957,4231.025879,4203.333496,4547.436035,4493.205078,4374.871582,4438.333496,3139.0,1.0,15.0,,,,0.0,4.0,4.0,4.0,4.0,4.0,4.0,4.0,4.0,4.0,4.0,4.0,4.0,4.0,4.0,100.0,,,,,,,,,,,,,,,,,,,,,,,,,,,,,,,,,,,,,,,,,,,,,,,,,,,,,,,,,,,,,,,,,,,,,,,,,,,,,,,,,,,,,,,,,,,,,,,,,,,,,,,,,,,,,,,,,,,,,,,,,,,,,,,,,,,
1725710407.059346,1725710407.061008,212.0,0.0,4250.0,4244.358887,4260.641113,4295.641113,4215.256348,4249.487305,4169.230957,4229.230957,4230.897461,4204.230957,4556.025879,4498.717773,4376.282227,4440.128418,3421.0,1.0,15.0,,,,0.0,4.0,4.0,4.0,4.0,4.0,4.0,4.0,4.0,4.0,4.0,4.0,4.0,4.0,4.0,100.0,,,,,,,,,,,,,,,,,,,,,,,,,,,,,,,,,,,,,,,,,,,,,,,,,,,,,,,,,,,,,,,,,,,,,,,,,,,,,,,,,,,,,,,,,,,,,,,,,,,,,,,,,,,,,,,,,,,,,,,,,,,,,,,,,,,
1725710407.06325,1725710407.064912,213.0,0.0,4250.0,4241.794922,4260.0,4295.897461,4216.538574,4248.717773,4168.717773,4232.820313,4231.922852,4205.0,4560.641113,4504.615234,4376.282227,4441.538574,3926.0,1.0,15.0,,,,0.0,4.0,4.0,4.0,4.0,4.0,4.0,4.0,4.0,4.0,4.0,4.0,4.0,4.0,4.0,100.0,,,,,,,,,,,,,,,,,,,,,,,,,,,,,,,,,,,,,,,,,,,,,,,,,,,,,,,,,,,,,,,,,,,,,,,,,,,,,,,,,,,,,,,,,,,,,,,,,,,,,,,,,,,,,,,,,,,,,,,,,,,,,,,,,,,
1725710407.067154,1725710407.068916,214.0,0.0,4250.256348,4237.94873,4257.436035,4295.641113,4217.307617,4247.820313,4170.384766,4233.974121,4233.717773,4205.128418,4560.0,4508.077148,4375.897461,4442.820313,2907.0,1.0,15.0,,,,0.0,4.0,4.0,4.0,4.0,4.0,4.0,4.0,4.0,4.0,4.0,4.0,4.0,4.0,4.0,100.0,,,,,,,,,,,,,,,,,,,,,,,,,,,,,,,,,,,,,,,,,,,,,,,,,,,,,,,,,,,,,,,,,,,,,,,,,,,,,,,,,,,,,,,,,,,,,,,,,,,,,,,,,,,,,,,,,,,,,,,,,,,,,,,,,,,
1725710407.071058,1725710407.07282,215.0,0.0,4250.641113,4235.512695,4255.128418,4295.256348,4216.794922,4247.179688,4174.487305,4232.179688,4235.256348,4204.615234,4555.897461,4507.94873,4375.0,4443.846191,3139.0,1.0,15.0,,,,0.0,4.0,4.0,4.0,4.0,4.0,4.0,4.0,4.0,4.0,4.0,4.0,4.0,4.0,4.0,100.0,,,,,,,,,,,,,,,,,,,,,,,,,,,,,,,,,,,,,,,,,,,,,,,,,,,,,,,,,,,,,,,,,,,,,,,,,,,,,,,,,,,,,,,,,,,,,,,,,,,,,,,,,,,,,,,,,,,,,,,,,,,,,,,,,,,
1725710407.074963,1725710407.076725,216.0,0.0,4251.025879,4236.153809,4254.358887,4295.0,4215.641113,4246.794922,4179.615234,4228.846191,4235.256348,4203.846191,4551.410156,4505.256348,4373.461426,4444.102539,3421.0,1.0,15.0,,,,0.0,4.0,4.0,4.0,4.0,4.0,4.0,4.0,4.0,4.0,4.0,4.0,4.0,4.0,4.0,100.0,,,,,,,,,,,,,,,,,,,,,,,,,,,,,,,,,,,,,,,,,,,,,,,,,,,,,,,,0.0,0.0,1.0,0.0,1024.0,0.005913,,,,,,,,,,,,,,,,,,,,,,,,,,,,,,,,,,,,,,,,,,,,,,,,,,,,,,,,,,,,,,,,,,,,,,
1725710407.078867,1725710407.080629,217.0,0.0,4251.410156,4239.358887,4254.871582,4295.0,4214.743652,4246.538574,4183.461426,4226.794922,4234.102539,4203.589844,4548.974121,4503.205078,4371.794922,4443.333496,3926.0,1.0,15.0,,,,0.0,4.0,4.0,4.0,4.0,4.0,4.0,4.0,4.0,4.0,4.0,4.0,4.0,4.0,4.0,100.0,,,,,,,,,,,,,,,,,,,,,,,,,,,,,,,,,,,,,,,,,,,,,,,,,,,,,,,,,,,,,,,,,,,,,,,,,,,,,,,,,,,,,,,,,,,,,,,,,,,,,,,,,,,,,,,,,,,,,,,,,,,,,,,,,,,
1725710407.082771,1725710407.084533,218.0,0.0,4251.153809,4242.692383,4255.256348,4295.128418,4214.871582,4246.538574,4185.256348,4228.333496,4233.077148,4203.717773,4549.743652,4503.974121,4371.282227,4442.563965,2907.0,1.0,15.0,,,,0.0,4.0,4.0,4.0,4.0,4.0,4.0,4.0,4.0,4.0,4.0,4.0,4.0,4.0,4.0,100.0,,,,,,,,,,,,,,,,,,,,,,,,,,,,,,,,,,,,,,,,,,,,,,,,,,,,,,,,,,,,,,,,,,,,,,,,,,,,,,,,,,,,,,,,,,,,,,,,,,,,,,,,,,,,,,,,,,,,,,,,,,,,,,,,,,,
1725710407.086675,1725710407.088437,219.0,0.0,4250.256348,4243.333496,4254.230957,4295.384766,4216.025879,4247.436035,4186.410156,4232.820313,4233.333496,4203.846191,4552.307617,4507.436035,4372.563965,4442.820313,3139.0,1.0,15.0,,,,0.0,4.0,4.0,4.0,4.0,4.0,4.0,4.0,4.0,4.0,4.0,4.0,4.0,4.0,4.0,100.0,,,,,,,,,,,,,,,,,,,,,,,,,,,,,,,,,,,,,,,,,,,,,,,,,,,,,,,,,,,,,,,,,,,,,,,,,,,,,,,,,,,,,,,,,,,,,,,,,,,,,,,,,,,,,,,,,,,,,,,,,,,,,,,,,,,
1725710407.090579,1725710407.092241,220.0,0.0,4249.358887,4240.0,4252.179688,4295.641113,4216.794922,4248.846191,4189.102539,4236.410156,4234.102539,4203.205078,4554.230957,4510.256348,4374.871582,4443.846191,3421.0,1.0,15.0,,,,0.0,4.0,4.0,4.0,4.0,4.0,4.0,4.0,4.0,4.0,4.0,4.0,4.0,4.0,4.0,100.0,,,,,,,,,,,,,,,,,,,,,,,,,,,,,,,,,,,,,,,,,,,,,,,,,,,,,,,,,,,,,,,,,,,,,,,,,,,,,,,,,,,,,,,,,,,,,,,,,,,,,,,,,,,,,,,,,,,,,,,,,,,,,,,,,,,
1725710407.094483,1725710407.096145,221.0,0.0,4249.487305,4234.358887,4250.128418,4295.641113,4216.282227,4249.871582,4193.974121,4235.512695,4233.717773,4201.794922,4553.333496,4509.615234,4376.025879,4444.358887,3926.0,1.0,15.0,,,,0.0,4.0,4.0,4.0,4.0,4.0,4.0,4.0,4.0,4.0,4.0,4.0,4.0,4.0,4.0,100.0,,,,,,,,,,,,,,,,,,,,,,,,,,,,,,,,,,,,,,,,,,,,,,,,,,,,,,,,,,,,,,,,,,,,,,,,,,,,,,,,,,,,,,,,,,,,,,,,,,,,,,,,,,,,,,,,,,,,,,,,,,,,,,,,,,,
1725710407.098387,1725710407.100049,222.0,0.0,4251.153809,4230.256348,4249.615234,4295.128418,4214.487305,4249.102539,4199.615234,4229.615234,4231.153809,4200.0,4549.230957,4504.230957,4374.487305,4443.205078,2907.0,1.0,15.0,,,,0.0,4.0,4.0,4.0,4.0,4.0,4.0,4.0,4.0,4.0,4.0,4.0,4.0,4.0,4.0,100.0,,,,,,,,,,,,,,,,,,,,,,,,,,,,,,,,,,,,,,,,,,,,,,,,,,,,,,,,,,,,,,,,,,,,,,,,,,,,,,,,,,,,,,,,,,,,,,,,,,,,,,,,,,,,,,,,,,,,,,,,,,,,,,,,,,,
1725710407.102291,1725710407.103953,223.0,0.0,4254.358887,4231.025879,4250.897461,4294.615234,4212.94873,4246.410156,4203.974121,4222.436035,4227.692383,4198.205078,4543.461426,4496.410156,4370.769043,4439.871582,3139.0,1.0,15.0,,,,0.0,4.0,4.0,4.0,4.0,4.0,4.0,4.0,4.0,4.0,4.0,4.0,4.0,4.0,4.0,100.0,,,,,,,,,,,,,,,,,,,,,,,,,,,,,,,,,,,,,,,,,,,,,,,,,,,,,,,,,,,,,,,,,,,,,,,,,,,,,,,,,,,,,,,,,,,,,,,,,,,,,,,,,,,,,,,,,,,,,,,,,,,,,,,,,,,
1725710407.106195,1725710407.107758,224.0,0.0,4257.436035,4236.410156,4252.563965,4294.743652,4213.077148,4241.922852,4205.512695,4218.717773,4225.641113,4197.307617,4538.846191,4490.256348,4367.563965,4435.384766,3421.0,1.0,15.0,,,,0.0,4.0,4.0,4.0,4.0,4.0,4.0,4.0,4.0,4.0,4.0,4.0,4.0,4.0,4.0,100.0,,,,,,,,,,,,,,,,,,,,,,,,,,,,,,,,,,,,,,,,,,,,,,,,,,,,,,,,0.0,0.0,1.0,0.0,1024.0,0.005913,,,,,,,,,,,,,,,,,,,,,,,,,,,,,,,,,,,,,,,,,,,,,,,,,,,,,,,,,,,,,,,,,,,,,,
1725710407.110099,1725710407.111662,225.0,0.0,4258.333496,4242.820313,4253.205078,4295.897461,4214.871582,4237.307617,4204.743652,4220.769043,4226.282227,4197.563965,4536.794922,4488.461426,4367.179688,4431.282227,3926.0,1.0,15.0,,,,0.0,4.0,4.0,4.0,4.0,4.0,4.0,4.0,4.0,4.0,4.0,4.0,4.0,4.0,4.0,100.0,,,,,,,,,,,,,,,,,,,,,,,,,,,,,,,,,,,,,,,,,,,,,,,,,,,,,,,,,,,,,,,,,,,,,,,,,,,,,,,,,,,,,,,,,,,,,,,,,,,,,,,,,,,,,,,,,,,,,,,,,,,,,,,,,,,
1725710407.114004,1725710407.115566,226.0,0.0,4256.153809,4246.153809,4251.794922,4297.05127,4216.538574,4234.102539,4203.589844,4226.153809,4229.230957,4198.974121,4537.307617,4490.256348,4369.615234,4428.974121,2907.0,1.0,15.0,,,,0.0,4.0,4.0,4.0,4.0,4.0,4.0,4.0,4.0,4.0,4.0,4.0,4.0,4.0,4.0,100.0,,,,,,,,,,,,,,,,,,,,,,,,,,,,,,,,,,,,,,,,,,,,,,,,,,,,,,,,,,,,,,,,,,,,,,,,,,,,,,,,,,,,,,,,,,,,,,,,,,,,,,,,,,,,,,,,,,,,,,,,,,,,,,,,,,,
1725710407.117908,1725710407.11947,227.0,0.0,4251.794922,4244.615234,4249.230957,4296.922852,4215.769043,4233.077148,4202.94873,4229.743652,4232.05127,4200.641113,4539.487305,4492.563965,4373.205078,4429.743652,3139.0,1.0,15.0,,,,0.0,4.0,4.0,4.0,4.0,4.0,4.0,4.0,4.0,4.0,4.0,4.0,4.0,4.0,4.0,100.0,,,,,,,,,,,,,,,,,,,,,,,,,,,,,,,,,,,,,,,,,,,,,,,,,,,,,,,,,,,,,,,,,,,,,,,,,,,,,,,,,,,,,,,,,,,,,,,,,,,,,,,,,,,,,,,,,,,,,,,,,,,,,,,,,,,
1725710407.121812,1725710407.123274,228.0,0.0,4247.307617,4239.615234,4246.922852,4294.487305,4211.538574,4233.846191,4203.205078,4228.205078,4233.461426,4201.666504,4541.666504,4492.692383,4375.512695,4433.205078,3421.0,1.0,15.0,,,,0.0,4.0,4.0,4.0,4.0,4.0,4.0,4.0,4.0,4.0,4.0,4.0,4.0,4.0,4.0,100.0,,,,,,,,,,,,,,,,,,,,,,,,,,,,,,,,,,,,,,,,,,,,,,,,,,,,,,,,,,,,,,,,,,,,,,,,,,,,,,,,,,,,,,,,,,,,,,,,,,,,,,,,,,,,,,,,,,,,,,,,,,,,,,,,,,,
1725710407.125716,1725710407.127178,229.0,0.0,4244.743652,4234.102539,4245.512695,4290.641113,4205.384766,4234.871582,4203.461426,4222.820313,4232.94873,4201.153809,4542.307617,4490.512695,4375.769043,4438.077148,3926.0,1.0,15.0,,,,0.0,4.0,4.0,4.0,4.0,4.0,4.0,4.0,4.0,4.0,4.0,4.0,4.0,4.0,4.0,100.0,,,,,,,,,,,,,,,,,,,,,,,,,,,,,,,,,,,,,,,,,,,,,,,,,,,,,,,,,,,,,,,,,,,,,,,,,,,,,,,,,,,,,,,,,,,,,,,,,,,,,,,,,,,,,,,,,,,,,,,,,,,,,,,,,,,
1725710407.12962,1725710407.131082,230.0,0.0,4245.0,4230.512695,4245.384766,4287.307617,4200.256348,4235.512695,4203.333496,4217.94873,4232.179688,4199.871582,4541.666504,4487.94873,4374.615234,4442.05127,2907.0,1.0,15.0,,,,0.0,4.0,4.0,4.0,4.0,4.0,4.0,4.0,4.0,4.0,4.0,4.0,4.0,4.0,4.0,100.0,,,,,,,,,,,,,,,,,,,,,,,,,,,,,,,,,,,,,,,,,,,,,,,,,,,,,,,,,,,,,,,,,,,,,,,,,,,,,,,,,,,,,,,,,,,,,,,,,,,,,,,,,,,,,,,,,,,,,,,,,,,,,,,,,,,
1725710407.133524,1725710407.135086,231.0,0.0,4246.922852,4230.256348,4246.538574,4285.897461,4199.102539,4235.256348,4202.94873,4217.05127,4232.05127,4198.846191,4540.641113,4487.05127,4373.461426,4442.94873,3139.0,1.0,15.0,,,,0.0,4.0,4.0,4.0,4.0,4.0,4.0,4.0,4.0,4.0,4.0,4.0,4.0,4.0,4.0,100.0,,,,,,,,,,,,,,,,,,,,,,,,,,,,,,,,,,,,,,,,,,,,,,,,,,,,,,,,,,,,,,,,,,,,,,,,,,,,,,,,,,,,,,,,,,,,,,,,,,,,,,,,,,,,,,,,,,,,,,,,,,,,,,,,,,,
1725710407.137428,1725710407.13899,232.0,0.0,4248.974121,4232.563965,4248.846191,4286.666504,4202.05127,4234.871582,4203.205078,4219.358887,4232.692383,4198.974121,4539.871582,4488.333496,4372.692383,4440.256348,3421.0,1.0,15.0,,,,0.0,4.0,4.0,4.0,4.0,4.0,4.0,4.0,4.0,4.0,4.0,4.0,4.0,4.0,4.0,100.0,,,,,,,,,,,,,,,,,,,,,,,,,,,,,,,,,,,,,,,,,,,,,,,,,,,,,,,,0.0,0.0,1.0,0.0,1024.0,0.005913,,,,,,,,,,,,,,,,,,,,,,,,,,,,,,,,,,,,,,,,,,,,,,,,,,,,,,,,,,,,,,,,,,,,,,
1725710407.141332,1725710407.142895,233.0,0.0,4249.743652,4235.641113,4251.025879,4287.563965,4206.794922,4235.0,4203.974121,4221.794922,4232.820313,4200.128418,4539.358887,4490.641113,4372.307617,4435.384766,3926.0,1.0,15.0,,,,0.0,4.0,4.0,4.0,4.0,4.0,4.0,4.0,4.0,4.0,4.0,4.0,4.0,4.0,4.0,100.0,,,,,,,,,,,,,,,,,,,,,,,,,,,,,,,,,,,,,,,,,,,,,,,,,,,,,,,,,,,,,,,,,,,,,,,,,,,,,,,,,,,,,,,,,,,,,,,,,,,,,,,,,,,,,,,,,,,,,,,,,,,,,,,,,,,
1725710407.145236,1725710407.146899,234.0,0.0,4248.974121,4236.794922,4252.05127,4286.666504,4210.256348,4235.512695,4204.615234,4222.436035,4231.666504,4201.666504,4538.461426,4492.05127,4371.666504,4431.282227,2907.0,1.0,15.0,,,,0.0,4.0,4.0,4.0,4.0,4.0,4.0,4.0,4.0,4.0,4.0,4.0,4.0,4.0,4.0,100.0,,,,,,,,,,,,,,,,,,,,,,,,,,,,,,,,,,,,,,,,,,,,,,,,,,,,,,,,,,,,,,,,,,,,,,,,,,,,,,,,,,,,,,,,,,,,,,,,,,,,,,,,,,,,,,,,,,,,,,,,,,,,,,,,,,,
1725710407.14914,1725710407.150803,235.0,0.0,4248.077148,4234.743652,4251.153809,4283.717773,4210.128418,4236.025879,4203.846191,4221.666504,4229.743652,4202.563965,4537.436035,4491.666504,4370.641113,4430.0,3139.0,1.0,15.0,,,,0.0,4.0,4.0,4.0,4.0,4.0,4.0,4.0,4.0,4.0,4.0,4.0,4.0,4.0,4.0,100.0,,,,,,,,,,,,,,,,,,,,,,,,,,,,,,,,,,,,,,,,,,,,,,,,,,,,,,,,,,,,,,,,,,,,,,,,,,,,,,,,,,,,,,,,,,,,,,,,,,,,,,,,,,,,,,,,,,,,,,,,,,,,,,,,,,,
1725710407.153044,1725710407.154707,236.0,0.0,4247.94873,4231.025879,4249.230957,4280.769043,4207.436035,4236.282227,4201.794922,4222.05127,4228.717773,4202.307617,4537.05127,4490.128418,4369.615234,4431.282227,3421.0,1.0,15.0,,,,0.0,4.0,4.0,4.0,4.0,4.0,4.0,4.0,4.0,4.0,4.0,4.0,4.0,4.0,4.0,100.0,,,,,,,,,,,,,,,,,,,,,,,,,,,,,,,,,,,,,,,,,,,,,,,,,,,,,,,,,,,,,,,,,,,,,,,,,,,,,,,,,,,,,,,,,,,,,,,,,,,,,,,,,,,,,,,,,,,,,,,,,,,,,,,,,,,
1725710407.156948,1725710407.158611,237.0,0.0,4248.333496,4228.077148,4247.307617,4280.128418,4204.743652,4236.025879,4199.230957,4224.230957,4229.230957,4201.153809,4537.94873,4489.102539,4369.102539,4432.820313,3926.0,1.0,15.0,,,,0.0,4.0,4.0,4.0,4.0,4.0,4.0,4.0,4.0,4.0,4.0,4.0,4.0,4.0,4.0,100.0,,,,,,,,,,,,,,,,,,,,,,,,,,,,,,,,,,,,,,,,,,,,,,,,,,,,,,,,,,,,,,,,,,,,,,,,,,,,,,,,,,,,,,,,,,,,,,,,,,,,,,,,,,,,,,,,,,,,,,,,,,,,,,,,,,,
1725710407.160853,1725710407.162615,238.0,0.0,4248.589844,4228.077148,4246.410156,4282.563965,4204.615234,4235.512695,4197.436035,4226.794922,4230.0,4199.615234,4539.358887,4489.743652,4369.358887,4432.563965,2907.0,1.0,15.0,,,,0.0,4.0,4.0,4.0,4.0,4.0,4.0,4.0,4.0,4.0,4.0,4.0,4.0,4.0,4.0,100.0,,,,,,,,,,,,,,,,,,,,,,,,,,,,,,,,,,,,,,,,,,,,,,,,,,,,,,,,,,,,,,,,,,,,,,,,,,,,,,,,,,,,,,,,,,,,,,,,,,,,,,,,,,,,,,,,,,,,,,,,,,,,,,,,,,,
1725710407.164757,1725710407.166519,239.0,0.0,4248.461426,4230.128418,4246.410156,4286.794922,4207.436035,4235.384766,4197.05127,4226.282227,4229.230957,4198.846191,4539.871582,4491.025879,4370.128418,4430.512695,3139.0,1.0,15.0,,,,0.0,4.0,4.0,4.0,4.0,4.0,4.0,4.0,4.0,4.0,4.0,4.0,4.0,4.0,4.0,100.0,,,,,,,,,,,,,,,,,,,,,,,,,,,,,,,,,,,,,,,,,,,,,,,,,,,,,,,,,,,,,,,,,,,,,,,,,,,,,,,,,,,,,,,,,,,,,,,,,,,,,,,,,,,,,,,,,,,,,,,,,,,,,,,,,,,
1725710407.168661,1725710407.170423,240.0,0.0,4248.333496,4232.692383,4247.05127,4290.641113,4211.410156,4235.769043,4197.820313,4221.666504,4226.282227,4198.846191,4539.487305,4491.922852,4371.410156,4429.102539,3421.0,1.0,15.0,,,,0.0,4.0,4.0,4.0,4.0,4.0,4.0,4.0,4.0,4.0,4.0,4.0,4.0,4.0,4.0,100.0,,,,,,,,,,,,,,,,,1.0,0.0,0.0,,,,,,,,,,,,,,,,,,,,,,,,,,,,,,,,,,,,,0.0,0.0,1.0,0.0,1024.0,0.002495,0.714999,0.499066,0.16446,0.103319,0.039282,0.821245,0.626488,0.278544,0.253688,0.103019,0.912082,0.385549,0.175691,0.129435,0.056414,0.86332,0.760431,0.14452,0.28741,0.15007,0.355001,0.228571,0.050822,0.054194,0.028525,0.121965,0.321938,0.089853,0.046837,0.03069,3.813939,0.697179,0.356895,0.148841,0.095353,0.724901,0.556231,0.324235,0.08457,0.092665,1.533663,0.658271,0.36607,0.129731,0.06119,1.620235,1.31518,0.316953,0.17108,0.074902,2.249918,1.820186,0.470127,0.672349,0.318486,3.593471,2.403569,0.451352,0.26275,0.210446,1.661594,1.003741,0.546337,0.632281,0.164329,2.335364,1.62917,0.296821,0.192411,0.111717
1725710407.172565,1725710407.174427,241.0,0.0,4248.974121,4234.487305,4248.717773,4292.436035,4214.615234,4236.538574,4199.230957,4216.025879,4222.436035,4199.358887,4539.358887,4491.922852,4372.820313,4430.641113,3926.0,1.0,15.0,,,,0.0,4.0,4.0,4.0,4.0,4.0,4.0,4.0,4.0,4.0,4.0,4.0,4.0,4.0,4.0,100.0,,,,,,,,,,,,,,,,,,,,,,,,,,,,,,,,,,,,,,,,,,,,,,,,,,,,,,,,,,,,,,,,,,,,,,,,,,,,,,,,,,,,,,,,,,,,,,,,,,,,,,,,,,,,,,,,,,,,,,,,,,,,,,,,,,,
1725710407.176469,1725710407.178331,242.0,0.0,4250.128418,4235.128418,4251.410156,4292.307617,4216.025879,4237.05127,4200.512695,4213.717773,4219.358887,4199.743652,4540.641113,4492.05127,4374.358887,4435.641113,2907.0,1.0,15.0,,,,0.0,4.0,4.0,4.0,4.0,4.0,4.0,4.0,4.0,4.0,4.0,4.0,4.0,4.0,4.0,100.0,,,,,,,,,,,,,,,,,,,,,,,,,,,,,,,,,,,,,,,,,,,,,,,,,,,,,,,,,,,,,,,,,,,,,,,,,,,,,,,,,,,,,,,,,,,,,,,,,,,,,,,,,,,,,,,,,,,,,,,,,,,,,,,,,,,
1725710407.180373,1725710407.182235,243.0,0.0,4251.153809,4234.615234,4254.358887,4291.794922,4215.897461,4236.666504,4200.769043,4215.897461,4217.820313,4199.487305,4542.307617,4493.205078,4375.512695,4441.282227,3139.0,1.0,15.0,,,,0.0,4.0,4.0,4.0,4.0,4.0,4.0,4.0,4.0,4.0,4.0,4.0,4.0,4.0,4.0,100.0,,,,,,,,,,,,,,,,,,,,,,,,,,,,,,,,,,,,,,,,,,,,,,,,,,,,,,,,,,,,,,,,,,,,,,,,,,,,,,,,,,,,,,,,,,,,,,,,,,,,,,,,,,,,,,,,,,,,,,,,,,,,,,,,,,,
1725710407.184277,1725710407.186139,244.0,0.0,4251.410156,4232.94873,4256.282227,4291.538574,4215.128418,4235.128418,4200.128418,4219.615234,4217.820313,4198.846191,4542.179688,4495.769043,4375.384766,4443.974121,3421.0,1.0,15.0,,,,0.0,4.0,4.0,4.0,4.0,4.0,4.0,4.0,4.0,4.0,4.0,4.0,4.0,4.0,4.0,100.0,,,,,,,,,,,,,,,,,,,,,,,,,,,,,,,,,,,,,,,,,,,,,,,,,,,,,,,,,,,,,,,,,,,,,,,,,,,,,,,,,,,,,,,,,,,,,,,,,,,,,,,,,,,,,,,,,,,,,,,,,,,,,,,,,,,
1725710407.188181,1725710407.190043,245.0,0.0,4250.769043,4231.153809,4255.897461,4291.538574,4214.358887,4234.230957,4199.102539,4220.641113,4218.589844,4198.846191,4539.102539,4499.230957,4373.974121,4441.922852,3926.0,1.0,15.0,,,,0.0,4.0,4.0,4.0,4.0,4.0,4.0,4.0,4.0,4.0,4.0,4.0,4.0,4.0,4.0,100.0,,,,,,,,,,,,,,,,,,,,,,,,,,,,,,,,,,,,,,,,,,,,,,,,,,,,,,,,,,,,,,,,,,,,,,,,,,,,,,,,,,,,,,,,,,,,,,,,,,,,,,,,,,,,,,,,,,,,,,,,,,,,,,,,,,,
1725710407.192085,1725710407.193948,246.0,0.0,4249.743652,4230.512695,4254.102539,4291.666504,4213.846191,4235.641113,4198.461426,4218.333496,4220.0,4200.128418,4535.512695,4502.436035,4372.436035,4437.436035,2907.0,1.0,15.0,,,,0.0,4.0,4.0,4.0,4.0,4.0,4.0,4.0,4.0,4.0,4.0,4.0,4.0,4.0,4.0,100.0,,,,,,,,,,,,,,,,,,,,,,,,,,,,,,,,,,,,,,,,,,,,,,,,,,,,,,,,,,,,,,,,,,,,,,,,,,,,,,,,,,,,,,,,,,,,,,,,,,,,,,,,,,,,,,,,,,,,,,,,,,,,,,,,,,,
1725710407.195989,1725710407.197752,247.0,0.0,4248.974121,4231.410156,4252.692383,4292.179688,4213.717773,4239.487305,4198.717773,4216.282227,4222.692383,4202.179688,4534.743652,4505.0,4372.05127,4435.128418,3139.0,1.0,15.0,,,,0.0,4.0,4.0,4.0,4.0,4.0,4.0,4.0,4.0,4.0,4.0,4.0,4.0,4.0,4.0,100.0,,,,,,,,,,,,,,,,,,,,,,,,,,,,,,,,,,,,,,,,,,,,,,,,,,,,,,,,,,,,,,,,,,,,,,,,,,,,,,,,,,,,,,,,,,,,,,,,,,,,,,,,,,,,,,,,,,,,,,,,,,,,,,,,,,,
1725710407.199894,1725710407.201656,248.0,0.0,4248.846191,4232.94873,4253.205078,4293.461426,4214.230957,4243.461426,4199.615234,4218.717773,4226.538574,4203.717773,4539.230957,4506.666504,4373.589844,4437.307617,3421.0,1.0,15.0,,,,0.0,4.0,4.0,4.0,4.0,4.0,4.0,4.0,4.0,4.0,4.0,4.0,4.0,4.0,4.0,100.0,,,,,,,,,,,,,,,,,,,,,,,,,,,,,,,,,,,,,,,,,,,,,,,,,,,,,,,,0.0,0.0,1.0,0.0,1024.0,0.002495,,,,,,,,,,,,,,,,,,,,,,,,,,,,,,,,,,,,,,,,,,,,,,,,,,,,,,,,,,,,,,,,,,,,,,
1725710407.203798,1725710407.20556,249.0,0.0,4249.487305,4233.589844,4255.384766,4295.256348,4214.871582,4245.256348,4200.769043,4225.769043,4230.512695,4203.717773,4547.436035,4507.307617,4375.769043,4442.94873,3926.0,1.0,15.0,,,,0.0,4.0,4.0,4.0,4.0,4.0,4.0,4.0,4.0,4.0,4.0,4.0,4.0,4.0,4.0,100.0,,,,,,,,,,,,,,,,,,,,,,,,,,,,,,,,,,,,,,,,,,,,,,,,,,,,,,,,,,,,,,,,,,,,,,,,,,,,,,,,,,,,,,,,,,,,,,,,,,,,,,,,,,,,,,,,,,,,,,,,,,,,,,,,,,,
1725710407.207702,1725710407.209464,250.0,0.0,4250.256348,4232.563965,4258.333496,4296.922852,4215.256348,4243.846191,4201.410156,4233.077148,4232.94873,4202.179688,4554.871582,4506.922852,4376.153809,4447.436035,2907.0,1.0,15.0,,,,0.0,4.0,4.0,4.0,4.0,4.0,4.0,4.0,4.0,4.0,4.0,4.0,4.0,4.0,4.0,100.0,,,,,,,,,,,,,,,,,,,,,,,,,,,,,,,,,,,,,,,,,,,,,,,,,,,,,,,,,,,,,,,,,,,,,,,,,,,,,,,,,,,,,,,,,,,,,,,,,,,,,,,,,,,,,,,,,,,,,,,,,,,,,,,,,,,
1725710407.211606,1725710407.213268,251.0,0.0,4250.384766,4230.512695,4261.025879,4297.179688,4215.128418,4241.025879,4201.410156,4234.871582,4232.563965,4200.128418,4557.307617,4505.897461,4373.077148,4447.05127,3139.0,1.0,15.0,,,,0.0,4.0,4.0,4.0,4.0,4.0,4.0,4.0,4.0,4.0,4.0,4.0,4.0,4.0,4.0,100.0,,,,,,,,,,,,,,,,,,,,,,,,,,,,,,,,,,,,,,,,,,,,,,,,,,,,,,,,,,,,,,,,,,,,,,,,,,,,,,,,,,,,,,,,,,,,,,,,,,,,,,,,,,,,,,,,,,,,,,,,,,,,,,,,,,,
1725710407.21551,1725710407.217172,252.0,0.0,4249.743652,4229.102539,4261.666504,4295.769043,4214.230957,4238.974121,4200.769043,4229.358887,4230.0,4198.974121,4553.589844,4504.615234,4367.563965,4442.05127,3421.0,1.0,15.0,,,,0.0,4.0,4.0,4.0,4.0,4.0,4.0,4.0,4.0,4.0,4.0,4.0,4.0,4.0,4.0,100.0,,,,,,,,,,,,,,,,,,,,,,,,,,,,,,,,,,,,,,,,,,,,,,,,,,,,,,,,,,,,,,,,,,,,,,,,,,,,,,,,,,,,,,,,,,,,,,,,,,,,,,,,,,,,,,,,,,,,,,,,,,,,,,,,,,,
1725710407.219414,1725710407.221077,253.0,0.0,4248.717773,4229.358887,4260.256348,4293.461426,4213.077148,4239.102539,4200.0,4221.025879,4227.563965,4199.615234,4546.666504,4503.846191,4363.077148,4436.153809,3926.0,1.0,15.0,,,,0.0,4.0,4.0,4.0,4.0,4.0,4.0,4.0,4.0,4.0,4.0,4.0,4.0,4.0,4.0,100.0,,,,,,,,,,,,,,,,,,,,,,,,,,,,,,,,,,,,,,,,,,,,,,,,,,,,,,,,,,,,,,,,,,,,,,,,,,,,,,,,,,,,,,,,,,,,,,,,,,,,,,,,,,,,,,,,,,,,,,,,,,,,,,,,,,,
1725710407.223318,1725710407.224981,254.0,0.0,4248.333496,4231.153809,4257.436035,4291.794922,4212.692383,4240.769043,4199.487305,4215.384766,4227.179688,4201.666504,4541.153809,4503.974121,4362.692383,4433.589844,2907.0,1.0,15.0,,,,0.0,4.0,4.0,4.0,4.0,4.0,4.0,4.0,4.0,4.0,4.0,4.0,4.0,4.0,4.0,100.0,,,,,,,,,,,,,,,,,,,,,,,,,,,,,,,,,,,,,,,,,,,,,,,,,,,,,,,,,,,,,,,,,,,,,,,,,,,,,,,,,,,,,,,,,,,,,,,,,,,,,,,,,,,,,,,,,,,,,,,,,,,,,,,,,,,
1725710407.227222,1725710407.228785,255.0,0.0,4248.974121,4233.717773,4255.256348,4291.538574,4213.077148,4242.05127,4199.615234,4215.256348,4228.974121,4203.717773,4539.743652,4504.871582,4367.307617,4435.641113,15.0,1.0,15.0,,,,0.0,4.0,4.0,4.0,4.0,4.0,4.0,4.0,4.0,4.0,4.0,4.0,4.0,4.0,4.0,100.0,,,,,,,,,,,,,,,,,,,,,,,,,,,,,,,,,,,,,,,,,,,,,,,,,,,,,,,,,,,,,,,,,,,,,,,,,,,,,,,,,,,,,,,,,,,,,,,,,,,,,,,,,,,,,,,,,,,,,,,,,,,,,,,,,,,
1725710407.231126,1725710407.232689,0.0,0.0,4250.256348,4235.769043,4254.743652,4292.307617,4212.820313,4241.410156,4200.256348,4218.846191,4231.410156,4204.487305,4541.025879,4505.384766,4374.615234,4440.128418,2708.0,1.0,15.0,,,,0.0,4.0,4.0,4.0,4.0,4.0,4.0,4.0,4.0,4.0,4.0,4.0,4.0,4.0,4.0,100.0,,,,,,,,,,,,,,,,,,,,,,,,,,,,,,,,,,,,,,,,,,,,,,,,,,,,,,,,0.0,0.0,1.0,0.0,1024.0,0.002495,,,,,,,,,,,,,,,,,,,,,,,,,,,,,,,,,,,,,,,,,,,,,,,,,,,,,,,,,,,,,,,,,,,,,,
1725710407.235031,1725710407.236593,1.0,0.0,4251.410156,4236.794922,4255.512695,4293.205078,4210.512695,4238.717773,4201.282227,4222.307617,4232.307617,4203.589844,4541.794922,4503.333496,4381.025879,4444.102539,2585.0,1.0,15.0,,,,0.0,4.0,4.0,4.0,4.0,4.0,4.0,4.0,4.0,4.0,4.0,4.0,4.0,4.0,4.0,100.0,,,,,,,,,,,,,,,,,,,,,,,,,,,,,,,,,,,,,,,,,,,,,,,,,,,,,,,,,,,,,,,,,,,,,,,,,,,,,,,,,,,,,,,,,,,,,,,,,,,,,,,,,,,,,,,,,,,,,,,,,,,,,,,,,,,
1725710407.238935,1725710407.240397,2.0,0.0,4251.794922,4236.282227,4256.282227,4293.461426,4206.025879,4235.256348,4202.179688,4222.94873,4231.025879,4202.05127,4540.641113,4498.077148,4383.461426,4445.641113,2515.0,1.0,15.0,,,,0.0,4.0,4.0,4.0,4.0,4.0,4.0,4.0,4.0,4.0,4.0,4.0,4.0,4.0,4.0,100.0,,,,,,,,,,,,,,,,,,,,,,,,,,,,,,,,,,,,,,,,,,,,,,,,,,,,,,,,,,,,,,,,,,,,,,,,,,,,,,,,,,,,,,,,,,,,,,,,,,,,,,,,,,,,,,,,,,,,,,,,,,,,,,,,,,,
1725710407.242839,1725710407.244301,3.0,0.0,4251.153809,4234.615234,4256.025879,4293.461426,4202.307617,4232.94873,4202.563965,4220.769043,4228.589844,4200.897461,4538.974121,4491.794922,4381.153809,4444.487305,2484.0,1.0,15.0,,,,0.0,4.0,4.0,4.0,4.0,4.0,4.0,4.0,4.0,4.0,4.0,4.0,4.0,4.0,4.0,100.0,,,,,,,,,,,,,,,,,,,,,,,,,,,,,,,,,,,,,,,,,,,,,,,,,,,,,,,,,,,,,,,,,,,,,,,,,,,,,,,,,,,,,,,,,,,,,,,,,,,,,,,,,,,,,,,,,,,,,,,,,,,,,,,,,,,
1725710407.246743,1725710407.248205,4.0,0.0,4250.256348,4232.820313,4254.743652,4293.974121,4202.563965,4232.692383,4202.94873,4219.230957,4226.794922,4200.769043,4538.974121,4488.717773,4376.538574,4442.436035,2449.0,1.0,15.0,,,,0.0,4.0,4.0,4.0,4.0,4.0,4.0,4.0,4.0,4.0,4.0,4.0,4.0,4.0,4.0,100.0,,,,,,,,,,,,,,,,,,,,,,,,,,,,,,,,,,,,,,,,,,,,,,,,,,,,,,,,,,,,,,,,,,,,,,,,,,,,,,,,,,,,,,,,,,,,,,,,,,,,,,,,,,,,,,,,,,,,,,,,,,,,,,,,,,,
1725710407.250647,1725710407.252209,5.0,0.0,4249.871582,4231.922852,4253.205078,4295.256348,4207.563965,4233.846191,4203.589844,4221.666504,4227.05127,4201.922852,4541.153809,4491.794922,4373.077148,4441.153809,2411.0,1.0,15.0,,,,0.0,4.0,4.0,4.0,4.0,4.0,4.0,4.0,4.0,4.0,4.0,4.0,4.0,4.0,4.0,100.0,,,,,,,,,,,,,,,,,,,,,,,,,,,,,,,,,,,,,,,,,,,,,,,,,,,,,,,,,,,,,,,,,,,,,,,,,,,,,,,,,,,,,,,,,,,,,,,,,,,,,,,,,,,,,,,,,,,,,,,,,,,,,,,,,,,
1725710407.254551,1725710407.256114,6.0,0.0,4250.512695,4232.94873,4252.05127,4296.410156,4213.717773,4235.128418,4204.743652,4228.717773,4229.230957,4203.717773,4543.974121,4499.743652,4372.692383,4441.666504,2439.0,1.0,15.0,,,,0.0,4.0,4.0,4.0,4.0,4.0,4.0,4.0,4.0,4.0,4.0,4.0,4.0,4.0,4.0,100.0,,,,,,,,,,,,,,,,,,,,,,,,,,,,,,,,,,,,,,,,,,,,,,,,,,,,,,,,,,,,,,,,,,,,,,,,,,,,,,,,,,,,,,,,,,,,,,,,,,,,,,,,,,,,,,,,,,,,,,,,,,,,,,,,,,,
1725710407.258455,1725710407.260018,7.0,0.0,4251.922852,4235.128418,4251.410156,4296.282227,4216.282227,4235.769043,4205.641113,4236.282227,4231.794922,4204.871582,4545.0,4507.179688,4374.743652,4443.077148,2486.0,1.0,15.0,,,,0.0,4.0,4.0,4.0,4.0,4.0,4.0,4.0,4.0,4.0,4.0,4.0,4.0,4.0,4.0,100.0,,,,,,,,,,,,,,,,,,,,,,,,,,,,,,,,,,,,,,,,,,,,,,,,,,,,,,,,,,,,,,,,,,,,,,,,,,,,,,,,,,,,,,,,,,,,,,,,,,,,,,,,,,,,,,,,,,,,,,,,,,,,,,,,,,,
1725710407.262359,1725710407.263922,8.0,0.0,4252.94873,4237.05127,4251.025879,4294.615234,4213.205078,4235.897461,4205.512695,4239.358887,4232.692383,4204.102539,4543.589844,4508.717773,4376.282227,4443.333496,2471.0,1.0,15.0,,,,0.0,4.0,4.0,4.0,4.0,4.0,4.0,4.0,4.0,4.0,4.0,4.0,4.0,4.0,4.0,100.0,,,,,,,,,,,,,,,,,,,,,,,,,,,,,,,,,,,,,,,,,,,,,,,,,,,,,,,,0.0,0.0,1.0,0.0,1024.0,0.002495,,,,,,,,,,,,,,,,,,,,,,,,,,,,,,,,,,,,,,,,,,,,,,,,,,,,,,,,,,,,,,,,,,,,,,
1725710407.266263,1725710407.267926,9.0,0.0,4252.692383,4237.179688,4251.025879,4293.461426,4207.179688,4236.025879,4203.846191,4235.769043,4230.256348,4201.410156,4540.769043,4503.333496,4375.384766,4442.05127,2558.0,1.0,15.0,,,,0.0,4.0,4.0,4.0,4.0,4.0,4.0,4.0,4.0,4.0,4.0,4.0,4.0,4.0,4.0,100.0,,,,,,,,,,,,,,,,,,,,,,,,,,,,,,,,,,,,,,,,,,,,,,,,,,,,,,,,,,,,,,,,,,,,,,,,,,,,,,,,,,,,,,,,,,,,,,,,,,,,,,,,,,,,,,,,,,,,,,,,,,,,,,,,,,,
1725710407.270167,1725710407.27183,10.0,0.0,4250.897461,4235.128418,4251.410156,4294.102539,4203.077148,4236.282227,4201.410156,4228.077148,4225.0,4198.205078,4538.333496,4494.871582,4371.922852,4439.743652,2905.0,1.0,15.0,,,,0.0,4.0,4.0,4.0,4.0,4.0,4.0,4.0,4.0,4.0,4.0,4.0,4.0,4.0,4.0,100.0,,,,,,,,,,,,,,,,,,,,,,,,,,,,,,,,,,,,,,,,,,,,,,,,,,,,,,,,,,,,,,,,,,,,,,,,,,,,,,,,,,,,,,,,,,,,,,,,,,,,,,,,,,,,,,,,,,,,,,,,,,,,,,,,,,,
1725710407.274072,1725710407.275734,11.0,0.0,4248.205078,4232.05127,4251.794922,4296.025879,4204.358887,4236.282227,4199.487305,4220.512695,4219.487305,4196.666504,4535.769043,4488.589844,4367.563965,4438.205078,3139.0,1.0,15.0,,,,0.0,4.0,4.0,4.0,4.0,4.0,4.0,4.0,4.0,4.0,4.0,4.0,4.0,4.0,4.0,100.0,,,,,,,,,,,,,,,,,,,,,,,,,,,,,,,,,,,,,,,,,,,,,,,,,,,,,,,,,,,,,,,,,,,,,,,,,,,,,,,,,,,,,,,,,,,,,,,,,,,,,,,,,,,,,,,,,,,,,,,,,,,,,,,,,,,
1725710407.277976,1725710407.279638,12.0,0.0,4246.153809,4229.487305,4251.410156,4296.794922,4210.128418,4235.897461,4198.846191,4216.025879,4216.410156,4197.179688,4532.179688,4487.307617,4364.230957,4437.307617,3421.0,1.0,15.0,,,,0.0,4.0,4.0,4.0,4.0,4.0,4.0,4.0,4.0,4.0,4.0,4.0,4.0,4.0,4.0,100.0,,,,,,,,,,,,,,,,,,,,,,,,,,,,,,,,,,,,,,,,,,,,,,,,,,,,,,,,,,,,,,,,,,,,,,,,,,,,,,,,,,,,,,,,,,,,,,,,,,,,,,,,,,,,,,,,,,,,,,,,,,,,,,,,,,,
1725710407.28188,1725710407.283642,13.0,0.0,4246.025879,4229.102539,4250.512695,4294.102539,4216.025879,4235.897461,4199.230957,4215.0,4216.666504,4198.205078,4527.307617,4489.487305,4362.820313,4435.897461,3917.0,1.0,15.0,,,,0.0,4.0,4.0,4.0,4.0,4.0,4.0,4.0,4.0,4.0,4.0,4.0,4.0,4.0,4.0,100.0,,,,,,,,,,,,,,,,,,,,,,,,,,,,,,,,,,,,,,,,,,,,,,,,,,,,,,,,,,,,,,,,,,,,,,,,,,,,,,,,,,,,,,,,,,,,,,,,,,,,,,,,,,,,,,,,,,,,,,,,,,,,,,,,,,,
1725710407.285784,1725710407.287546,14.0,0.0,4247.563965,4230.769043,4249.487305,4288.589844,4218.205078,4236.282227,4199.487305,4215.897461,4219.230957,4197.94873,4522.94873,4491.922852,4363.974121,4433.333496,2905.0,1.0,15.0,,,,0.0,4.0,4.0,4.0,4.0,4.0,4.0,4.0,4.0,4.0,4.0,4.0,4.0,4.0,4.0,100.0,,,,,,,,,,,,,,,,,,,,,,,,,,,,,,,,,,,,,,,,,,,,,,,,,,,,,,,,,,,,,,,,,,,,,,,,,,,,,,,,,,,,,,,,,,,,,,,,,,,,,,,,,,,,,,,,,,,,,,,,,,,,,,,,,,,
1725710407.289688,1725710407.29145,15.0,0.0,4249.487305,4233.461426,4248.974121,4283.333496,4215.769043,4236.666504,4199.871582,4217.05127,4221.282227,4195.641113,4521.666504,4492.436035,4367.436035,4430.641113,3139.0,1.0,15.0,,,,0.0,4.0,4.0,4.0,4.0,4.0,4.0,4.0,4.0,4.0,4.0,4.0,4.0,4.0,4.0,100.0,,,,,,,,,,,,,,,,,,,,,,,,,,,,,,,,,,,,,,,,,,,,,,,,,,,,,,,,,,,,,,,,,,,,,,,,,,,,,,,,,,,,,,,,,,,,,,,,,,,,,,,,,,,,,,,,,,,,,,,,,,,,,,,,,,,
1725710407.293592,1725710407.295354,16.0,0.0,4250.128418,4235.641113,4248.717773,4281.410156,4212.05127,4236.538574,4200.769043,4217.436035,4221.410156,4192.692383,4524.615234,4491.282227,4372.563965,4429.615234,3421.0,1.0,15.0,,,,0.0,4.0,4.0,4.0,4.0,4.0,4.0,4.0,4.0,4.0,4.0,4.0,4.0,4.0,4.0,100.0,1.0,75.0,4.0,4.0,4.0,4.0,4.0,4.0,1.0,4.0,4.0,4.0,4.0,4.0,4.0,4.0,1.0,0.0,0.0,,,,,,,,,,,,,,,,,,,,,,,,,,,,,,,,,,,,,0.0,0.0,1.0,0.0,1024.0,0.001126,0.691427,0.590512,0.215819,0.102679,0.039334,0.735371,0.668891,0.334261,0.254006,0.107769,0.808039,0.398214,0.179181,0.1146,0.054162,0.98919,0.942074,0.147871,0.267292,0.137921,0.406544,0.261257,0.055202,0.063148,0.034678,0.127823,0.345596,0.090426,0.052601,0.028439,3.37215,0.599676,0.423162,0.142592,0.084669,0.6035,0.678233,0.319579,0.076669,0.107339,1.404457,0.735934,0.336201,0.127411,0.067775,1.508346,1.320564,0.366066,0.155516,0.07487,2.045177,2.122532,0.405747,0.614657,0.295525,3.205582,2.621926,0.445199,0.249849,0.174681,1.56004,1.054753,0.474272,0.59576,0.172753,2.379431,1.727953,0.304791,0.193841,0.105871
1725710407.297496,1725710407.299259,17.0,0.0,4249.487305,4236.282227,4248.974121,4284.487305,4210.512695,4235.769043,4202.179688,4217.307617,4220.0,4191.922852,4530.769043,4490.0,4377.436035,4431.282227,3917.0,1.0,15.0,,,,0.0,4.0,4.0,4.0,4.0,4.0,4.0,4.0,4.0,4.0,4.0,4.0,4.0,4.0,4.0,100.0,,,,,,,,,,,,,,,,,,,,,,,,,,,,,,,,,,,,,,,,,,,,,,,,,,,,,,,,,,,,,,,,,,,,,,,,,,,,,,,,,,,,,,,,,,,,,,,,,,,,,,,,,,,,,,,,,,,,,,,,,,,,,,,,,,,
1725710407.3014,1725710407.303063,18.0,0.0,4248.974121,4235.897461,4249.871582,4290.897461,4212.563965,4235.0,4202.563965,4217.820313,4219.230957,4194.615234,4537.563965,4490.128418,4379.743652,4434.871582,2905.0,1.0,15.0,,,,0.0,4.0,4.0,4.0,4.0,4.0,4.0,4.0,4.0,4.0,4.0,4.0,4.0,4.0,4.0,100.0,,,,,,,,,,,,,,,,,,,,,,,,,,,,,,,,,,,,,,,,,,,,,,,,,,,,,,,,,,,,,,,,,,,,,,,,,,,,,,,,,,,,,,,,,,,,,,,,,,,,,,,,,,,,,,,,,,,,,,,,,,,,,,,,,,,
1725710407.305304,1725710407.306967,19.0,0.0,4250.128418,4235.0,4251.282227,4297.436035,4216.025879,4234.615234,4200.256348,4219.358887,4221.025879,4199.358887,4541.922852,4492.307617,4378.205078,4439.102539,3139.0,1.0,15.0,,,,0.0,4.0,4.0,4.0,4.0,4.0,4.0,4.0,4.0,4.0,4.0,4.0,4.0,4.0,4.0,100.0,,,,,,,,,,,,,,,,,,,,,,,,,,,,,,,,,,,,,,,,,,,,,,,,,,,,,,,,,,,,,,,,,,,,,,,,,,,,,,,,,,,,,,,,,,,,,,,,,,,,,,,,,,,,,,,,,,,,,,,,,,,,,,,,,,,
1725710407.309209,1725710407.310871,20.0,0.0,4253.077148,4234.743652,4252.436035,4301.025879,4218.077148,4234.871582,4195.256348,4221.282227,4225.128418,4203.589844,4542.692383,4495.641113,4373.589844,4442.436035,3421.0,1.0,15.0,,,,0.0,4.0,4.0,4.0,4.0,4.0,4.0,4.0,4.0,4.0,4.0,4.0,4.0,4.0,4.0,100.0,,,,,,,,,,,,,,,,,,,,,,,,,,,,,,,,,,,,,,,,,,,,,,,,,,,,,,,,,,,,,,,,,,,,,,,,,,,,,,,,,,,,,,,,,,,,,,,,,,,,,,,,,,,,,,,,,,,,,,,,,,,,,,,,,,,
1725710407.313113,1725710407.314775,21.0,0.0,4256.410156,4234.871582,4252.692383,4300.769043,4217.05127,4235.128418,4190.128418,4221.538574,4229.358887,4204.871582,4541.025879,4498.461426,4368.589844,4443.974121,3917.0,1.0,15.0,,,,0.0,4.0,4.0,4.0,4.0,4.0,4.0,4.0,4.0,4.0,4.0,4.0,4.0,4.0,4.0,100.0,,,,,,,,,,,,,,,,,,,,,,,,,,,,,,,,,,,,,,,,,,,,,,,,,,,,,,,,,,,,,,,,,,,,,,,,,,,,,,,,,,,,,,,,,,,,,,,,,,,,,,,,,,,,,,,,,,,,,,,,,,,,,,,,,,,
1725710407.317017,1725710407.318579,22.0,0.0,4257.94873,4235.128418,4252.307617,4298.333496,4214.358887,4235.256348,4187.692383,4219.871582,4231.538574,4203.077148,4539.230957,4499.487305,4366.538574,4443.974121,2905.0,1.0,15.0,,,,0.0,4.0,4.0,4.0,4.0,4.0,4.0,4.0,4.0,4.0,4.0,4.0,4.0,4.0,4.0,100.0,,,,,,,,,,,,,,,,,,,,,,,,,,,,,,,,,,,,,,,,,,,,,,,,,,,,,,,,,,,,,,,,,,,,,,,,,,,,,,,,,,,,,,,,,,,,,,,,,,,,,,,,,,,,,,,,,,,,,,,,,,,,,,,,,,,
1725710407.320921,1725710407.322483,23.0,0.0,4256.794922,4234.871582,4251.794922,4296.282227,4212.692383,4235.0,4189.487305,4218.077148,4230.769043,4200.256348,4538.717773,4498.717773,4368.717773,4443.077148,3139.0,1.0,15.0,,,,0.0,4.0,4.0,4.0,4.0,4.0,4.0,4.0,4.0,4.0,4.0,4.0,4.0,4.0,4.0,100.0,,,,,,,,,,,,,,,,,,,,,,,,,,,,,,,,,,,,,,,,,,,,,,,,,,,,,,,,,,,,,,,,,,,,,,,,,,,,,,,,,,,,,,,,,,,,,,,,,,,,,,,,,,,,,,,,,,,,,,,,,,,,,,,,,,,
1725710407.324825,1725710407.326387,24.0,0.0,4253.846191,4234.358887,4251.794922,4295.769043,4213.589844,4234.487305,4194.743652,4219.230957,4228.589844,4199.230957,4539.358887,4497.307617,4373.333496,4442.179688,3421.0,1.0,15.0,,,,0.0,4.0,4.0,4.0,4.0,4.0,4.0,4.0,4.0,4.0,4.0,4.0,4.0,4.0,4.0,100.0,,,,,,,,,,,,,,,,,,,,,,,,,,,,,,,,,,,,,,,,,,,,,,,,,,,,,,,,0.0,0.0,1.0,0.0,1024.0,0.001126,,,,,,,,,,,,,,,,,,,,,,,,,,,,,,,,,,,,,,,,,,,,,,,,,,,,,,,,,,,,,,,,,,,,,,
1725710407.328729,1725710407.330292,25.0,0.0,4251.282227,4233.846191,4252.05127,4296.282227,4215.769043,4233.846191,4200.384766,4223.974121,4227.820313,4201.153809,4540.128418,4496.538574,4376.922852,4442.179688,3917.0,1.0,15.0,,,,0.0,4.0,4.0,4.0,4.0,4.0,4.0,4.0,4.0,4.0,4.0,4.0,4.0,4.0,4.0,100.0,,,,,,,,,,,,,,,,,,,,,,,,,,,,,,,,,,,,,,,,,,,,,,,,,,,,,,,,,,,,,,,,,,,,,,,,,,,,,,,,,,,,,,,,,,,,,,,,,,,,,,,,,,,,,,,,,,,,,,,,,,,,,,,,,,,
1725710407.332633,1725710407.334096,26.0,0.0,4250.384766,4233.461426,4252.307617,4296.666504,4216.922852,4233.205078,4203.205078,4229.871582,4229.615234,4204.743652,4540.384766,4496.538574,4376.538574,4442.820313,2905.0,1.0,15.0,,,,0.0,4.0,4.0,4.0,4.0,4.0,4.0,4.0,4.0,4.0,4.0,4.0,4.0,4.0,4.0,100.0,,,,,,,,,,,,,,,,,,,,,,,,,,,,,,,,,,,,,,,,,,,,,,,,,,,,,,,,,,,,,,,,,,,,,,,,,,,,,,,,,,,,,,,,,,,,,,,,,,,,,,,,,,,,,,,,,,,,,,,,,,,,,,,,,,,
1725710407.336537,1725710407.338,27.0,0.0,4250.512695,4233.205078,4252.179688,4296.153809,4215.512695,4232.692383,4201.922852,4232.692383,4233.333496,4207.179688,4539.871582,4496.538574,4372.820313,4443.461426,3139.0,1.0,15.0,,,,0.0,4.0,4.0,4.0,4.0,4.0,4.0,4.0,4.0,4.0,4.0,4.0,4.0,4.0,4.0,100.0,,,,,,,,,,,,,,,,,,,,,,,,,,,,,,,,,,,,,,,,,,,,,,,,,,,,,,,,,,,,,,,,,,,,,,,,,,,,,,,,,,,,,,,,,,,,,,,,,,,,,,,,,,,,,,,,,,,,,,,,,,,,,,,,,,,
1725710407.340441,1725710407.341904,28.0,0.0,4250.384766,4233.077148,4251.794922,4295.0,4211.794922,4232.179688,4197.94873,4230.128418,4236.282227,4206.666504,4539.102539,4495.641113,4369.487305,4443.974121,3421.0,1.0,15.0,,,,0.0,4.0,4.0,4.0,4.0,4.0,4.0,4.0,4.0,4.0,4.0,4.0,4.0,4.0,4.0,100.0,,,,,,,,,,,,,,,,,,,,,,,,,,,,,,,,,,,,,,,,,,,,,,,,,,,,,,,,,,,,,,,,,,,,,,,,,,,,,,,,,,,,,,,,,,,,,,,,,,,,,,,,,,,,,,,,,,,,,,,,,,,,,,,,,,,
1725710407.344345,1725710407.345708,29.0,0.0,4249.871582,4233.461426,4251.922852,4293.974121,4207.179688,4231.666504,4195.0,4223.846191,4236.153809,4204.102539,4538.333496,4494.102539,4370.0,4444.615234,3917.0,1.0,15.0,,,,0.0,4.0,4.0,4.0,4.0,4.0,4.0,4.0,4.0,4.0,4.0,4.0,4.0,4.0,4.0,100.0,,,,,,,,,,,,,,,,,,,,,,,,,,,,,,,,,,,,,,,,,,,,,,,,,,,,,,,,,,,,,,,,,,,,,,,,,,,,,,,,,,,,,,,,,,,,,,,,,,,,,,,,,,,,,,,,,,,,,,,,,,,,,,,,,,,
1725710407.34825,1725710407.349612,30.0,0.0,4250.128418,4234.230957,4252.563965,4293.717773,4203.589844,4230.897461,4195.769043,4218.077148,4233.077148,4201.794922,4538.333496,4493.461426,4375.128418,4445.512695,2905.0,1.0,15.0,,,,0.0,4.0,4.0,4.0,4.0,4.0,4.0,4.0,4.0,4.0,4.0,4.0,4.0,4.0,4.0,100.0,,,,,,,,,,,,,,,,,,,,,,,,,,,,,,,,,,,,,,,,,,,,,,,,,,,,,,,,,,,,,,,,,,,,,,,,,,,,,,,,,,,,,,,,,,,,,,,,,,,,,,,,,,,,,,,,,,,,,,,,,,,,,,,,,,,
1725710407.352154,1725710407.353516,31.0,0.0,4252.563965,4235.384766,4252.94873,4293.974121,4202.05127,4230.128418,4198.846191,4216.025879,4229.487305,4201.025879,4538.974121,4494.615234,4381.922852,4446.282227,3139.0,1.0,15.0,,,,0.0,4.0,4.0,4.0,4.0,4.0,4.0,4.0,4.0,4.0,4.0,4.0,4.0,4.0,4.0,100.0,,,,,,,,,,,,,,,,,,,,,,,,,,,,,,,,,,,,,,,,,,,,,,,,,,,,,,,,,,,,,,,,,,,,,,,,,,,,,,,,,,,,,,,,,,,,,,,,,,,,,,,,,,,,,,,,,,,,,,,,,,,,,,,,,,,
1725710407.356058,1725710407.35752,32.0,0.0,4257.05127,4236.282227,4252.307617,4294.743652,4202.563965,4229.743652,4200.769043,4217.820313,4227.94873,4201.153809,4539.230957,4497.692383,4386.153809,4446.410156,0.0,1.0,15.0,,,,0.0,4.0,4.0,4.0,4.0,4.0,4.0,4.0,4.0,4.0,4.0,4.0,4.0,4.0,4.0,100.0,,,,,,,,,,,,,,,,,,,,,,,,,,,,,,,,,,,,,,,,,,,,,,,,,,,,,,,,0.0,0.0,1.0,0.0,1024.0,0.001126,,,,,,,,,,,,,,,,,,,,,,,,,,,,,,,,,,,,,,,,,,,,,,,,,,,,,,,,,,,,,,,,,,,,,,
1725710407.359962,1725710407.361424,33.0,0.0,4260.897461,4236.794922,4251.282227,4295.512695,4203.846191,4229.871582,4199.358887,4221.153809,4228.717773,4200.897461,4538.974121,4501.153809,4385.641113,4446.025879,0.0,1.0,15.0,,,,0.0,4.0,4.0,4.0,4.0,4.0,4.0,4.0,4.0,4.0,4.0,4.0,4.0,4.0,4.0,100.0,,,,,,,,,,,,,,,,,,,,,,,,,,,,,,,,,,,,,,,,,,,,,,,,,,,,,,,,,,,,,,,,,,,,,,,,,,,,,,,,,,,,,,,,,,,,,,,,,,,,,,,,,,,,,,,,,,,,,,,,,,,,,,,,,,,
1725710407.363866,1725710407.365329,34.0,0.0,4261.282227,4236.666504,4250.641113,4295.897461,4204.615234,4230.256348,4195.256348,4222.820313,4230.128418,4200.384766,4537.820313,4502.179688,4380.769043,4445.641113,0.0,1.0,15.0,,,,0.0,4.0,4.0,4.0,4.0,4.0,4.0,4.0,4.0,4.0,4.0,4.0,4.0,4.0,4.0,100.0,,,,,,,,,,,,,,,,,,,,,,,,,,,,,,,,,,,,,,,,,,,,,,,,,,,,,,,,,,,,,,,,,,,,,,,,,,,,,,,,,,,,,,,,,,,,,,,,,,,,,,,,,,,,,,,,,,,,,,,,,,,,,,,,,,,
1725710407.36777,1725710407.369233,35.0,0.0,4257.563965,4236.025879,4251.538574,4295.512695,4204.358887,4230.512695,4190.769043,4220.897461,4229.615234,4200.256348,4536.666504,4499.230957,4374.230957,4445.256348,0.0,1.0,15.0,,,,0.0,4.0,4.0,4.0,4.0,4.0,4.0,4.0,4.0,4.0,4.0,4.0,4.0,4.0,4.0,100.0,,,,,,,,,,,,,,,,,,,,,,,,,,,,,,,,,,,,,,,,,,,,,,,,,,,,,,,,,,,,,,,,,,,,,,,,,,,,,,,,,,,,,,,,,,,,,,,,,,,,,,,,,,,,,,,,,,,,,,,,,,,,,,,,,,,
1725710407.371674,1725710407.373237,36.0,0.0,4252.179688,4235.384766,4253.846191,4294.358887,4203.846191,4230.641113,4187.94873,4216.666504,4226.153809,4200.384766,4536.153809,4493.461426,4369.230957,4444.487305,0.0,1.0,15.0,,,,0.0,4.0,4.0,4.0,4.0,4.0,4.0,4.0,4.0,4.0,4.0,4.0,4.0,4.0,4.0,100.0,,,,,,,,,,,,,,,,,,,,,,,,,,,,,,,,,,,,,,,,,,,,,,,,,,,,,,,,,,,,,,,,,,,,,,,,,,,,,,,,,,,,,,,,,,,,,,,,,,,,,,,,,,,,,,,,,,,,,,,,,,,,,,,,,,,
1725710407.375578,1725710407.377141,37.0,0.0,4248.461426,4234.743652,4256.153809,4292.94873,4203.461426,4230.769043,4186.922852,4212.94873,4220.897461,4199.615234,4536.922852,4489.102539,4368.205078,4443.461426,0.0,1.0,15.0,,,,0.0,4.0,4.0,4.0,4.0,4.0,4.0,4.0,4.0,4.0,4.0,4.0,4.0,4.0,4.0,100.0,,,,,,,,,,,,,,,,,,,,,,,,,,,,,,,,,,,,,,,,,,,,,,,,,,,,,,,,,,,,,,,,,,,,,,,,,,,,,,,,,,,,,,,,,,,,,,,,,,,,,,,,,,,,,,,,,,,,,,,,,,,,,,,,,,,
1725710407.379482,1725710407.381045,38.0,0.0,4248.333496,4234.615234,4256.794922,4292.436035,4203.717773,4231.025879,4187.307617,4212.436035,4216.794922,4197.692383,4538.846191,4490.0,4371.025879,4442.94873,0.0,1.0,15.0,,,,0.0,4.0,4.0,4.0,4.0,4.0,4.0,4.0,4.0,4.0,4.0,4.0,4.0,4.0,4.0,100.0,,,,,,,,,,,,,,,,,,,,,,,,,,,,,,,,,,,,,,,,,,,,,,,,,,,,,,,,,,,,,,,,,,,,,,,,,,,,,,,,,,,,,,,,,,,,,,,,,,,,,,,,,,,,,,,,,,,,,,,,,,,,,,,,,,,
1725710407.383386,1725710407.384949,39.0,0.0,4250.641113,4234.743652,4255.128418,4292.94873,4203.974121,4231.538574,4188.974121,4215.384766,4216.025879,4194.871582,4541.025879,4496.025879,4374.615234,4443.205078,0.0,1.0,15.0,,,,0.0,4.0,4.0,4.0,4.0,4.0,4.0,4.0,4.0,4.0,4.0,4.0,4.0,4.0,4.0,100.0,,,,,,,,,,,,,,,,,,,,,,,,,,,,,,,,,,,,,,,,,,,,,,,,,,,,,,,,,,,,,,,,,,,,,,,,,,,,,,,,,,,,,,,,,,,,,,,,,,,,,,,,,,,,,,,,,,,,,,,,,,,,,,,,,,,
1725710407.38729,1725710407.388953,40.0,0.0,4252.563965,4234.743652,4251.794922,4293.974121,4204.102539,4231.922852,4191.666504,4219.615234,4218.461426,4193.077148,4541.922852,4503.461426,4375.256348,4443.974121,0.0,1.0,15.0,,,,0.0,4.0,4.0,4.0,4.0,4.0,4.0,4.0,4.0,4.0,4.0,4.0,4.0,4.0,4.0,100.0,,,,,,,,,,,,,,,,,,,,,,,,,,,,,,,,,,,,,,,,,,,,,,,,,,,,,,,,0.0,0.0,1.0,0.0,1024.0,0.001126,,,,,,,,,,,,,,,,,,,,,,,,,,,,,,,,,,,,,,,,,,,,,,,,,,,,,,,,,,,,,,,,,,,,,,
1725710407.391194,1725710407.392857,41.0,0.0,4252.179688,4234.487305,4248.846191,4294.871582,4203.717773,4231.794922,4194.743652,4222.94873,4222.179688,4193.717773,4540.769043,4506.794922,4371.153809,4444.358887,0.0,1.0,15.0,,,,0.0,4.0,4.0,4.0,4.0,4.0,4.0,4.0,4.0,4.0,4.0,4.0,4.0,4.0,4.0,100.0,,,,,,,,,,,,,,,,,,,,,,,,,,,,,,,,,,,,,,,,,,,,,,,,,,,,,,,,,,,,,,,,,,,,,,,,,,,,,,,,,,,,,,,,,,,,,,,,,,,,,,,,,,,,,,,,,,,,,,,,,,,,,,,,,,,
1725710407.395099,1725710407.396761,42.0,0.0,4250.0,4233.461426,4248.333496,4295.0,4203.589844,4230.769043,4197.05127,4223.589844,4224.871582,4196.282227,4538.205078,4503.461426,4363.846191,4443.589844,0.0,1.0,15.0,,,,0.0,4.0,4.0,4.0,4.0,4.0,4.0,4.0,4.0,4.0,4.0,4.0,4.0,4.0,4.0,100.0,,,,,,,,,,,,,,,,,,,,,,,,,,,,,,,,,,,,,,,,,,,,,,,,,,,,,,,,,,,,,,,,,,,,,,,,,,,,,,,,,,,,,,,,,,,,,,,,,,,,,,,,,,,,,,,,,,,,,,,,,,,,,,,,,,,
1725710407.399003,1725710407.400665,43.0,0.0,4247.820313,4232.307617,4250.384766,4294.743652,4203.717773,4229.358887,4198.461426,4221.666504,4225.384766,4199.871582,4535.897461,4496.153809,4357.94873,4441.922852,0.0,1.0,15.0,,,,0.0,4.0,4.0,4.0,4.0,4.0,4.0,4.0,4.0,4.0,4.0,4.0,4.0,4.0,4.0,100.0,,,,,,,,,,,,,,,,,,,,,,,,,,,,,,,,,,,,,,,,,,,,,,,,,,,,,,,,,,,,,,,,,,,,,,,,,,,,,,,,,,,,,,,,,,,,,,,,,,,,,,,,,,,,,,,,,,,,,,,,,,,,,,,,,,,
1725710407.402907,1725710407.404569,44.0,0.0,4247.436035,4231.666504,4253.846191,4294.743652,4204.102539,4228.461426,4199.230957,4218.333496,4224.615234,4202.820313,4535.128418,4490.384766,4357.179688,4440.897461,0.0,1.0,15.0,,,,0.0,4.0,4.0,4.0,4.0,4.0,4.0,4.0,4.0,4.0,4.0,4.0,4.0,4.0,4.0,100.0,,,,,,,,,,,,,,,,,,,,,,,,,,,,,,,,,,,,,,,,,,,,,,,,,,,,,,,,,,,,,,,,,,,,,,,,,,,,,,,,,,,,,,,,,,,,,,,,,,,,,,,,,,,,,,,,,,,,,,,,,,,,,,,,,,,
1725710407.406811,1725710407.408374,45.0,0.0,4248.846191,4232.307617,4256.153809,4295.128418,4204.102539,4228.461426,4199.615234,4215.641113,4224.743652,4204.487305,4536.153809,4489.743652,4362.436035,4441.025879,0.0,1.0,15.0,,,,0.0,4.0,4.0,4.0,4.0,4.0,4.0,4.0,4.0,4.0,4.0,4.0,4.0,4.0,4.0,100.0,,,,,,,,,,,,,,,,,,,,,,,,,,,,,,,,,,,,,,,,,,,,,,,,,,,,,,,,,,,,,,,,,,,,,,,,,,,,,,,,,,,,,,,,,,,,,,,,,,,,,,,,,,,,,,,,,,,,,,,,,,,,,,,,,,,
1725710407.410715,1725710407.412278,46.0,0.0,4250.769043,4234.102539,4255.769043,4295.769043,4203.589844,4229.230957,4199.871582,4215.641113,4227.05127,4204.871582,4537.563965,4494.358887,4371.410156,4442.563965,0.0,1.0,15.0,,,,0.0,4.0,4.0,4.0,4.0,4.0,4.0,4.0,4.0,4.0,4.0,4.0,4.0,4.0,4.0,100.0,,,,,,,,,,,,,,,,,,,,,,,,,,,,,,,,,,,,,,,,,,,,,,,,,,,,,,,,,,,,,,,,,,,,,,,,,,,,,,,,,,,,,,,,,,,,,,,,,,,,,,,,,,,,,,,,,,,,,,,,,,,,,,,,,,,
1725710407.414619,1725710407.416182,47.0,0.0,4251.410156,4236.282227,4253.461426,4296.282227,4203.205078,4230.0,4199.615234,4218.717773,4230.256348,4204.102539,4537.94873,4500.897461,4379.487305,4444.230957,0.0,1.0,15.0,,,,0.0,4.0,4.0,4.0,4.0,4.0,4.0,4.0,4.0,4.0,4.0,4.0,4.0,4.0,4.0,100.0,,,,,,,,,,,,,,,,,,,,,,,,,,,,,,,,,,,,,,,,,,,,,,,,,,,,,,,,,,,,,,,,,,,,,,,,,,,,,,,,,,,,,,,,,,,,,,,,,,,,,,,,,,,,,,,,,,,,,,,,,,,,,,,,,,,
1725710407.418523,1725710407.420086,48.0,0.0,4250.641113,4237.307617,4250.641113,4296.538574,4202.820313,4230.256348,4199.615234,4223.589844,4232.179688,4202.820313,4537.563965,4506.025879,4382.820313,4444.871582,0.0,1.0,15.0,,,,0.0,4.0,4.0,4.0,4.0,4.0,4.0,4.0,4.0,4.0,4.0,4.0,4.0,4.0,4.0,100.0,,,,,,,,,,,,,,,,,1.0,0.0,0.0,,,,,,,,,,,,,,,,,,,,,,,,,,,,,,,,,,,,,0.0,0.0,1.0,0.0,1024.0,0.002067,0.808019,0.769084,0.284873,0.107573,0.046167,0.802665,0.760413,0.412161,0.257713,0.116072,0.807096,0.41378,0.179104,0.097861,0.051241,1.316752,1.184243,0.152842,0.25339,0.129799,0.504112,0.305589,0.064611,0.079364,0.043695,0.152782,0.345175,0.092618,0.061251,0.027677,3.101659,0.573693,0.514582,0.135421,0.074451,0.526719,0.871714,0.342158,0.091589,0.132203,1.277277,0.84988,0.32959,0.149357,0.075431,1.578545,1.376439,0.46676,0.162994,0.081671,2.03135,2.43915,0.353173,0.571551,0.289063,3.022521,2.877339,0.441829,0.256126,0.143328,1.734661,1.22294,0.491959,0.547976,0.18078,2.594405,1.863371,0.337152,0.218887,0.104308
1725710407.422427,1725710407.42389,49.0,0.0,4249.230957,4236.922852,4249.102539,4296.794922,4202.692383,4230.0,4199.871582,4227.692383,4231.794922,4201.538574,4537.94873,4508.205078,4380.769043,4444.230957,0.0,1.0,15.0,,,,0.0,4.0,4.0,4.0,4.0,4.0,4.0,4.0,4.0,4.0,4.0,4.0,4.0,4.0,4.0,100.0,,,,,,,,,,,,,,,,,,,,,,,,,,,,,,,,,,,,,,,,,,,,,,,,,,,,,,,,,,,,,,,,,,,,,,,,,,,,,,,,,,,,,,,,,,,,,,,,,,,,,,,,,,,,,,,,,,,,,,,,,,,,,,,,,,,
1725710407.426331,1725710407.427794,50.0,0.0,4248.589844,4235.897461,4249.102539,4297.179688,4202.563965,4229.487305,4199.871582,4230.0,4230.769043,4201.153809,4540.512695,4507.563965,4377.179688,4443.461426,0.0,1.0,15.0,,,,0.0,4.0,4.0,4.0,4.0,4.0,4.0,4.0,4.0,4.0,4.0,4.0,4.0,4.0,4.0,100.0,,,,,,,,,,,,,,,,,,,,,,,,,,,,,,,,,,,,,,,,,,,,,,,,,,,,,,,,,,,,,,,,,,,,,,,,,,,,,,,,,,,,,,,,,,,,,,,,,,,,,,,,,,,,,,,,,,,,,,,,,,,,,,,,,,,
1725710407.430236,1725710407.431698,51.0,0.0,4248.461426,4235.256348,4249.487305,4297.94873,4202.820313,4229.487305,4199.358887,4230.641113,4231.666504,4203.205078,4545.641113,4505.769043,4377.179688,4443.717773,0.0,1.0,15.0,,,,0.0,4.0,4.0,4.0,4.0,4.0,4.0,4.0,4.0,4.0,4.0,4.0,4.0,4.0,4.0,100.0,,,,,,,,,,,,,,,,,,,,,,,,,,,,,,,,,,,,,,,,,,,,,,,,,,,,,,,,,,,,,,,,,,,,,,,,,,,,,,,,,,,,,,,,,,,,,,,,,,,,,,,,,,,,,,,,,,,,,,,,,,,,,,,,,,,
1725710407.43414,1725710407.435602,52.0,0.0,4248.205078,4235.384766,4249.615234,4298.589844,4203.205078,4230.384766,4198.974121,4231.538574,4235.128418,4207.94873,4550.897461,4504.871582,4382.307617,4445.0,0.0,1.0,15.0,,,,0.0,4.0,4.0,4.0,4.0,4.0,4.0,4.0,4.0,4.0,4.0,4.0,4.0,4.0,4.0,100.0,,,,,,,,,,,,,,,,,,,,,,,,,,,,,,,,,,,,,,,,,,,,,,,,,,,,,,,,,,,,,,,,,,,,,,,,,,,,,,,,,,,,,,,,,,,,,,,,,,,,,,,,,,,,,,,,,,,,,,,,,,,,,,,,,,,
1725710407.438044,1725710407.439407,53.0,0.0,4247.436035,4235.512695,4249.358887,4298.589844,4203.589844,4231.410156,4200.256348,4233.461426,4239.871582,4214.102539,4553.461426,4505.769043,4388.461426,4446.282227,0.0,1.0,15.0,,,,0.0,4.0,4.0,4.0,4.0,4.0,4.0,4.0,4.0,4.0,4.0,4.0,4.0,4.0,4.0,100.0,,,,,,,,,,,,,,,,,,,,,,,,,,,,,,,,,,,,,,,,,,,,,,,,,,,,,,,,,,,,,,,,,,,,,,,,,,,,,,,,,,,,,,,,,,,,,,,,,,,,,,,,,,,,,,,,,,,,,,,,,,,,,,,,,,,
1725710407.441948,1725710407.443311,54.0,0.0,4246.153809,4234.743652,4249.102539,4297.820313,4203.974121,4232.179688,4202.94873,4236.025879,4243.077148,4218.589844,4551.025879,4507.179688,4388.461426,4446.153809,0.0,1.0,15.0,,,,0.0,4.0,4.0,4.0,4.0,4.0,4.0,4.0,4.0,4.0,4.0,4.0,4.0,4.0,4.0,100.0,,,,,,,,,,,,,,,,,,,,,,,,,,,,,,,,,,,,,,,,,,,,,,,,,,,,,,,,,,,,,,,,,,,,,,,,,,,,,,,,,,,,,,,,,,,,,,,,,,,,,,,,,,,,,,,,,,,,,,,,,,,,,,,,,,,
1725710407.445852,1725710407.447215,55.0,0.0,4245.128418,4232.692383,4249.102539,4297.05127,4203.717773,4232.05127,4204.743652,4237.307617,4243.077148,4218.589844,4544.358887,4507.563965,4379.230957,4444.615234,0.0,1.0,15.0,,,,0.0,4.0,4.0,4.0,4.0,4.0,4.0,4.0,4.0,4.0,4.0,4.0,4.0,4.0,4.0,100.0,,,,,,,,,,,,,,,,,,,,,,,,,,,,,,,,,,,,,,,,,,,,,,,,,,,,,,,,,,,,,,,,,,,,,,,,,,,,,,,,,,,,,,,,,,,,,,,,,,,,,,,,,,,,,,,,,,,,,,,,,,,,,,,,,,,
1725710407.449756,1725710407.451119,56.0,0.0,4244.743652,4230.128418,4249.487305,4296.410156,4202.820313,4230.897461,4202.94873,4236.025879,4239.871582,4213.589844,4537.307617,4506.538574,4365.641113,4442.05127,0.0,1.0,15.0,,,,0.0,4.0,4.0,4.0,4.0,4.0,4.0,4.0,4.0,4.0,4.0,4.0,4.0,4.0,4.0,100.0,,,,,,,,,,,,,,,,,,,,,,,,,,,,,,,,,,,,,,,,,,,,,,,,,,,,,,,,0.0,0.0,1.0,0.0,1024.0,0.002067,,,,,,,,,,,,,,,,,,,,,,,,,,,,,,,,,,,,,,,,,,,,,,,,,,,,,,,,,,,,,,,,,,,,,,
1725710407.45366,1725710407.455023,57.0,0.0,4245.0,4228.589844,4250.128418,4295.897461,4201.922852,4229.487305,4197.563965,4233.461426,4236.025879,4206.410156,4534.487305,4505.384766,4357.307617,4440.256348,0.0,1.0,15.0,,,,0.0,4.0,4.0,4.0,4.0,4.0,4.0,4.0,4.0,4.0,4.0,4.0,4.0,4.0,4.0,100.0,,,,,,,,,,,,,,,,,,,,,,,,,,,,,,,,,,,,,,,,,,,,,,,,,,,,,,,,,,,,,,,,,,,,,,,,,,,,,,,,,,,,,,,,,,,,,,,,,,,,,,,,,,,,,,,,,,,,,,,,,,,,,,,,,,,
1725710407.457564,1725710407.458927,58.0,0.0,4245.897461,4228.974121,4250.384766,4295.512695,4201.153809,4228.461426,4191.538574,4232.05127,4233.974121,4201.410156,4538.589844,4505.769043,4361.282227,4440.512695,0.0,1.0,15.0,,,,0.0,4.0,4.0,4.0,4.0,4.0,4.0,4.0,4.0,4.0,4.0,4.0,4.0,4.0,4.0,100.0,,,,,,,,,,,,,,,,,,,,,,,,,,,,,,,,,,,,,,,,,,,,,,,,,,,,,,,,,,,,,,,,,,,,,,,,,,,,,,,,,,,,,,,,,,,,,,,,,,,,,,,,,,,,,,,,,,,,,,,,,,,,,,,,,,,
1725710407.461468,1725710407.462931,59.0,0.0,4246.922852,4230.641113,4250.256348,4294.871582,4201.282227,4228.589844,4188.077148,4233.205078,4234.615234,4201.153809,4547.436035,4507.05127,4376.025879,4443.461426,0.0,1.0,15.0,,,,0.0,4.0,4.0,4.0,4.0,4.0,4.0,4.0,4.0,4.0,4.0,4.0,4.0,4.0,4.0,100.0,,,,,,,,,,,,,,,,,,,,,,,,,,,,,,,,,,,,,,,,,,,,,,,,,,,,,,,,,,,,,,,,,,,,,,,,,,,,,,,,,,,,,,,,,,,,,,,,,,,,,,,,,,,,,,,,,,,,,,,,,,,,,,,,,,,
1725710407.465372,1725710407.466835,60.0,0.0,4247.563965,4232.563965,4249.615234,4293.846191,4202.05127,4229.487305,4188.846191,4235.384766,4236.538574,4203.974121,4555.769043,4507.820313,4392.820313,4447.179688,0.0,1.0,15.0,,,,0.0,4.0,4.0,4.0,4.0,4.0,4.0,4.0,4.0,4.0,4.0,4.0,4.0,4.0,4.0,100.0,,,,,,,,,,,,,,,,,,,,,,,,,,,,,,,,,,,,,,,,,,,,,,,,,,,,,,,,,,,,,,,,,,,,,,,,,,,,,,,,,,,,,,,,,,,,,,,,,,,,,,,,,,,,,,,,,,,,,,,,,,,,,,,,,,,
1725710407.469277,1725710407.470739,61.0,0.0,4247.436035,4233.461426,4248.974121,4292.692383,4202.94873,4230.641113,4192.94873,4235.641113,4237.692383,4206.282227,4557.94873,4506.153809,4401.410156,4448.846191,0.0,1.0,15.0,,,,0.0,4.0,4.0,4.0,4.0,4.0,4.0,4.0,4.0,4.0,4.0,4.0,4.0,4.0,4.0,100.0,,,,,,,,,,,,,,,,,,,,,,,,,,,,,,,,,,,,,,,,,,,,,,,,,,,,,,,,,,,,,,,,,,,,,,,,,,,,,,,,,,,,,,,,,,,,,,,,,,,,,,,,,,,,,,,,,,,,,,,,,,,,,,,,,,,
1725710407.473181,1725710407.474644,62.0,0.0,4246.410156,4233.846191,4248.846191,4292.05127,4202.820313,4231.153809,4197.94873,4232.05127,4237.179688,4205.256348,4552.436035,4501.410156,4397.820313,4446.794922,0.0,1.0,15.0,,,,0.0,4.0,4.0,4.0,4.0,4.0,4.0,4.0,4.0,4.0,4.0,4.0,4.0,4.0,4.0,100.0,,,,,,,,,,,,,,,,,,,,,,,,,,,,,,,,,,,,,,,,,,,,,,,,,,,,,,,,,,,,,,,,,,,,,,,,,,,,,,,,,,,,,,,,,,,,,,,,,,,,,,,,,,,,,,,,,,,,,,,,,,,,,,,,,,,
1725710407.477085,1725710407.478648,63.0,0.0,4245.256348,4233.974121,4248.974121,4292.692383,4201.922852,4231.025879,4201.410156,4225.384766,4235.0,4202.179688,4542.563965,4495.0,4385.769043,4441.666504,0.0,1.0,15.0,,,,0.0,4.0,4.0,4.0,4.0,4.0,4.0,4.0,4.0,4.0,4.0,4.0,4.0,4.0,4.0,100.0,,,,,,,,,,,,,,,,,,,,,,,,,,,,,,,,,,,,,,,,,,,,,,,,,,,,,,,,,,,,,,,,,,,,,,,,,,,,,,,,,,,,,,,,,,,,,,,,,,,,,,,,,,,,,,,,,,,,,,,,,,,,,,,,,,,
1725710407.480989,1725710407.482552,64.0,0.0,4244.487305,4234.230957,4248.974121,4294.102539,4200.897461,4230.641113,4201.794922,4218.846191,4232.05127,4199.487305,4534.615234,4489.102539,4373.461426,4436.794922,0.0,1.0,15.0,,,,0.0,4.0,4.0,4.0,4.0,4.0,4.0,4.0,4.0,4.0,4.0,4.0,4.0,4.0,4.0,100.0,,,,,,,,,,,,,,,,,,,,,,,,,,,,,,,,,,,,,,,,,,,,,,,,,,,,,,,,0.0,0.0,1.0,0.0,1024.0,0.002067,,,,,,,,,,,,,,,,,,,,,,,,,,,,,,,,,,,,,,,,,,,,,,,,,,,,,,,,,,,,,,,,,,,,,,
1725710407.484893,1725710407.486456,65.0,0.0,4244.743652,4234.230957,4248.589844,4295.384766,4201.153809,4230.384766,4200.128418,4215.384766,4228.846191,4198.589844,4532.307617,4486.025879,4367.820313,4434.871582,0.0,1.0,15.0,,,,0.0,4.0,4.0,4.0,4.0,4.0,4.0,4.0,4.0,4.0,4.0,4.0,4.0,4.0,4.0,100.0,,,,,,,,,,,,,,,,,,,,,,,,,,,,,,,,,,,,,,,,,,,,,,,,,,,,,,,,,,,,,,,,,,,,,,,,,,,,,,,,,,,,,,,,,,,,,,,,,,,,,,,,,,,,,,,,,,,,,,,,,,,,,,,,,,,
1725710407.488797,1725710407.49036,66.0,0.0,4245.897461,4233.333496,4248.333496,4295.384766,4203.461426,4230.384766,4198.461426,4215.512695,4225.384766,4198.589844,4535.512695,4486.282227,4369.615234,4436.538574,0.0,1.0,15.0,,,,0.0,4.0,4.0,4.0,4.0,4.0,4.0,4.0,4.0,4.0,4.0,4.0,4.0,4.0,4.0,100.0,,,,,,,,,,,,,,,,,,,,,,,,,,,,,,,,,,,,,,,,,,,,,,,,,,,,,,,,,,,,,,,,,,,,,,,,,,,,,,,,,,,,,,,,,,,,,,,,,,,,,,,,,,,,,,,,,,,,,,,,,,,,,,,,,,,
1725710407.492701,1725710407.494364,67.0,0.0,4247.307617,4231.410156,4248.589844,4294.230957,4207.563965,4230.769043,4198.846191,4217.563965,4221.666504,4197.436035,4539.615234,4488.589844,4374.615234,4440.256348,0.0,1.0,15.0,,,,0.0,4.0,4.0,4.0,4.0,4.0,4.0,4.0,4.0,4.0,4.0,4.0,4.0,4.0,4.0,100.0,,,,,,,,,,,,,,,,,,,,,,,,,,,,,,,,,,,,,,,,,,,,,,,,,,,,,,,,,,,,,,,,,,,,,,,,,,,,,,,,,,,,,,,,,,,,,,,,,,,,,,,,,,,,,,,,,,,,,,,,,,,,,,,,,,,
1725710407.496605,1725710407.498268,68.0,0.0,4248.461426,4229.487305,4249.102539,4293.077148,4212.179688,4231.025879,4201.153809,4218.717773,4218.205078,4194.230957,4539.487305,4491.282227,4377.307617,4442.820313,0.0,1.0,15.0,,,,0.0,4.0,4.0,4.0,4.0,4.0,4.0,4.0,4.0,4.0,4.0,4.0,4.0,4.0,4.0,100.0,,,,,,,,,,,,,,,,,,,,,,,,,,,,,,,,,,,,,,,,,,,,,,,,,,,,,,,,,,,,,,,,,,,,,,,,,,,,,,,,,,,,,,,,,,,,,,,,,,,,,,,,,,,,,,,,,,,,,,,,,,,,,,,,,,,
1725710407.500509,1725710407.502172,69.0,0.0,4248.717773,4228.717773,4249.615234,4292.692383,4215.641113,4231.153809,4203.846191,4217.94873,4215.641113,4189.743652,4533.077148,4492.563965,4375.897461,4441.794922,0.0,1.0,15.0,,,,0.0,4.0,4.0,4.0,4.0,4.0,4.0,4.0,4.0,4.0,4.0,4.0,4.0,4.0,4.0,100.0,,,,,,,,,,,,,,,,,,,,,,,,,,,,,,,,,,,,,,,,,,,,,,,,,,,,,,,,,,,,,,,,,,,,,,,,,,,,,,,,,,,,,,,,,,,,,,,,,,,,,,,,,,,,,,,,,,,,,,,,,,,,,,,,,,,
1725710407.504413,1725710407.506076,70.0,0.0,4248.205078,4229.487305,4249.743652,4292.307617,4217.563965,4230.641113,4205.256348,4215.769043,4214.230957,4185.384766,4523.077148,4492.179688,4372.307617,4437.436035,0.0,1.0,15.0,,,,0.0,4.0,4.0,4.0,4.0,4.0,4.0,4.0,4.0,4.0,4.0,4.0,4.0,4.0,4.0,100.0,,,,,,,,,,,,,,,,,,,,,,,,,,,,,,,,,,,,,,,,,,,,,,,,,,,,,,,,,,,,,,,,,,,,,,,,,,,,,,,,,,,,,,,,,,,,,,,,,,,,,,,,,,,,,,,,,,,,,,,,,,,,,,,,,,,
1725710407.508318,1725710407.50998,71.0,0.0,4247.05127,4230.897461,4249.230957,4290.897461,4217.563965,4230.256348,4204.487305,4213.589844,4213.974121,4183.077148,4514.358887,4491.025879,4369.487305,4432.05127,0.0,1.0,15.0,,,,0.0,4.0,4.0,4.0,4.0,4.0,4.0,4.0,4.0,4.0,4.0,4.0,4.0,4.0,4.0,100.0,,,,,,,,,,,,,,,,,,,,,,,,,,,,,,,,,,,,,,,,,,,,,,,,,,,,,,,,,,,,,,,,,,,,,,,,,,,,,,,,,,,,,,,,,,,,,,,,,,,,,,,,,,,,,,,,,,,,,,,,,,,,,,,,,,,
1725710407.512222,1725710407.513784,72.0,0.0,4246.153809,4231.922852,4248.589844,4288.077148,4216.410156,4230.256348,4202.436035,4212.94873,4214.230957,4183.461426,4510.769043,4489.871582,4368.077148,4428.974121,0.0,1.0,15.0,,,,0.0,4.0,4.0,4.0,4.0,4.0,4.0,4.0,4.0,4.0,4.0,4.0,4.0,4.0,4.0,100.0,,,,,,,,,,,,,,,,,,,,,,,,,,,,,,,,,,,,,,,,,,,,,,,,,,,,,,,,0.0,0.0,1.0,0.0,1024.0,0.002067,,,,,,,,,,,,,,,,,,,,,,,,,,,,,,,,,,,,,,,,,,,,,,,,,,,,,,,,,,,,,,,,,,,,,,
1725710407.516126,1725710407.517689,73.0,0.0,4245.769043,4232.05127,4248.205078,4285.128418,4214.743652,4231.025879,4200.897461,4213.974121,4215.128418,4186.282227,4512.05127,4489.230957,4366.794922,4430.256348,0.0,1.0,15.0,,,,0.0,4.0,4.0,4.0,4.0,4.0,4.0,4.0,4.0,4.0,4.0,4.0,4.0,4.0,4.0,100.0,,,,,,,,,,,,,,,,,,,,,,,,,,,,,,,,,,,,,,,,,,,,,,,,,,,,,,,,,,,,,,,,,,,,,,,,,,,,,,,,,,,,,,,,,,,,,,,,,,,,,,,,,,,,,,,,,,,,,,,,,,,,,,,,,,,
1725710407.52003,1725710407.521593,74.0,0.0,4246.025879,4231.666504,4248.333496,4284.102539,4213.717773,4232.05127,4200.512695,4215.641113,4216.410156,4190.512695,4516.153809,4489.487305,4365.128418,4434.871582,0.0,1.0,15.0,,,,0.0,4.0,4.0,4.0,4.0,4.0,4.0,4.0,4.0,4.0,4.0,4.0,4.0,4.0,4.0,100.0,,,,,,,,,,,,,,,,,,,,,,,,,,,,,,,,,,,,,,,,,,,,,,,,,,,,,,,,,,,,,,,,,,,,,,,,,,,,,,,,,,,,,,,,,,,,,,,,,,,,,,,,,,,,,,,,,,,,,,,,,,,,,,,,,,,
1725710407.523934,1725710407.525497,75.0,0.0,4246.538574,4231.666504,4248.974121,4286.282227,4213.974121,4232.692383,4200.512695,4217.05127,4217.820313,4194.871582,4520.897461,4490.897461,4363.974121,4440.256348,0.0,1.0,15.0,,,,0.0,4.0,4.0,4.0,4.0,4.0,4.0,4.0,4.0,4.0,4.0,4.0,4.0,4.0,4.0,100.0,,,,,,,,,,,,,,,,,,,,,,,,,,,,,,,,,,,,,,,,,,,,,,,,,,,,,,,,,,,,,,,,,,,,,,,,,,,,,,,,,,,,,,,,,,,,,,,,,,,,,,,,,,,,,,,,,,,,,,,,,,,,,,,,,,,
1725710407.527838,1725710407.529301,76.0,0.0,4246.794922,4232.563965,4249.615234,4291.538574,4215.897461,4232.307617,4199.743652,4217.692383,4218.717773,4197.94873,4526.153809,4493.205078,4364.358887,4443.333496,0.0,1.0,15.0,,,,0.0,4.0,4.0,4.0,4.0,4.0,4.0,4.0,4.0,4.0,4.0,4.0,4.0,4.0,4.0,100.0,,,,,,,,,,,,,,,,,,,,,,,,,,,,,,,,,,,,,,,,,,,,,,,,,,,,,,,,,,,,,,,,,,,,,,,,,,,,,,,,,,,,,,,,,,,,,,,,,,,,,,,,,,,,,,,,,,,,,,,,,,,,,,,,,,,
1725710407.531742,1725710407.533205,77.0,0.0,4246.794922,4233.974121,4249.743652,4297.563965,4218.077148,4230.769043,4197.563965,4217.692383,4218.717773,4199.230957,4531.666504,4495.0,4366.538574,4443.205078,0.0,1.0,15.0,,,,0.0,4.0,4.0,4.0,4.0,4.0,4.0,4.0,4.0,4.0,4.0,4.0,4.0,4.0,4.0,100.0,,,,,,,,,,,,,,,,,,,,,,,,,,,,,,,,,,,,,,,,,,,,,,,,,,,,,,,,,,,,,,,,,,,,,,,,,,,,,,,,,,,,,,,,,,,,,,,,,,,,,,,,,,,,,,,,,,,,,,,,,,,,,,,,,,,
1725710407.535646,1725710407.537109,78.0,0.0,4246.794922,4235.128418,4249.358887,4301.282227,4218.077148,4229.358887,4193.846191,4218.077148,4218.589844,4198.846191,4536.666504,4494.871582,4369.487305,4441.282227,0.0,1.0,15.0,,,,0.0,4.0,4.0,4.0,4.0,4.0,4.0,4.0,4.0,4.0,4.0,4.0,4.0,4.0,4.0,100.0,,,,,,,,,,,,,,,,,,,,,,,,,,,,,,,,,,,,,,,,,,,,,,,,,,,,,,,,,,,,,,,,,,,,,,,,,,,,,,,,,,,,,,,,,,,,,,,,,,,,,,,,,,,,,,,,,,,,,,,,,,,,,,,,,,,
1725710407.53955,1725710407.541013,79.0,0.0,4247.307617,4234.871582,4248.589844,4301.410156,4214.743652,4229.230957,4189.487305,4220.256348,4220.128418,4197.563965,4539.487305,4493.461426,4372.179688,4439.487305,0.0,1.0,15.0,,,,0.0,4.0,4.0,4.0,4.0,4.0,4.0,4.0,4.0,4.0,4.0,4.0,4.0,4.0,4.0,100.0,,,,,,,,,,,,,,,,,,,,,,,,,,,,,,,,,,,,,,,,,,,,,,,,,,,,,,,,,,,,,,,,,,,,,,,,,,,,,,,,,,,,,,,,,,,,,,,,,,,,,,,,,,,,,,,,,,,,,,,,,,,,,,,,,,,
1725710407.543455,1725710407.544817,80.0,0.0,4247.94873,4233.333496,4247.94873,4298.717773,4209.102539,4230.897461,4185.384766,4224.615234,4224.230957,4197.179688,4539.358887,4492.820313,4374.487305,4439.230957,0.0,1.0,15.0,,,,0.0,4.0,4.0,4.0,4.0,4.0,4.0,4.0,4.0,4.0,4.0,4.0,4.0,4.0,4.0,100.0,,,,,,,,,,,,,,,,,1.0,0.0,0.0,,,,,,,,,,,,,,,,,,,,,,,,,,,,,,,,,,,,,0.0,0.0,1.0,0.0,1024.0,0.152923,0.98614,0.944859,0.343697,0.109931,0.057235,0.928443,0.837374,0.483846,0.260642,0.129262,0.889169,0.421948,0.175341,0.081244,0.049191,1.784307,1.400469,0.159024,0.240184,0.124855,0.648267,0.348658,0.076586,0.096489,0.055128,0.20219,0.321717,0.096937,0.069908,0.027678,3.231894,0.602377,0.598952,0.12803,0.065385,0.505471,1.084942,0.36826,0.121527,0.161442,1.166099,0.974998,0.332536,0.180646,0.082658,1.781739,1.433585,0.569046,0.179422,0.090306,2.121405,2.647454,0.304682,0.538881,0.300152,3.072482,3.070997,0.417583,0.26809,0.124226,2.021887,1.392112,0.537305,0.488241,0.187664,2.845787,1.943188,0.363442,0.253574,0.107318
1725710407.547359,1725710407.548722,81.0,0.0,4248.333496,4231.666504,4248.205078,4295.769043,4204.358887,4233.205078,4182.820313,4230.512695,4230.0,4198.205078,4537.179688,4495.128418,4376.794922,4440.512695,0.0,1.0,15.0,,,,0.0,4.0,4.0,4.0,4.0,4.0,4.0,4.0,4.0,4.0,4.0,4.0,4.0,4.0,4.0,100.0,,,,,,,,,,,,,,,,,,,,,,,,,,,,,,,,,,,,,,,,,,,,,,,,,,,,,,,,,,,,,,,,,,,,,,,,,,,,,,,,,,,,,,,,,,,,,,,,,,,,,,,,,,,,,,,,,,,,,,,,,,,,,,,,,,,
1725710407.551263,1725710407.552626,82.0,0.0,4248.333496,4230.641113,4248.974121,4294.615234,4203.461426,4234.615234,4182.692383,4235.128418,4234.615234,4200.256348,4535.512695,4499.230957,4378.974121,4442.436035,0.0,1.0,15.0,,,,0.0,4.0,4.0,4.0,4.0,4.0,4.0,4.0,4.0,4.0,4.0,4.0,4.0,4.0,4.0,100.0,,,,,,,,,,,,,,,,,,,,,,,,,,,,,,,,,,,,,,,,,,,,,,,,,,,,,,,,,,,,,,,,,,,,,,,,,,,,,,,,,,,,,,,,,,,,,,,,,,,,,,,,,,,,,,,,,,,,,,,,,,,,,,,,,,,
1725710407.555167,1725710407.55643,83.0,0.0,4248.461426,4230.897461,4249.871582,4296.153809,4207.179688,4233.974121,4184.871582,4235.897461,4236.282227,4201.922852,4536.025879,4502.05127,4380.128418,4443.974121,0.0,1.0,15.0,,,,0.0,4.0,4.0,4.0,4.0,4.0,4.0,4.0,4.0,4.0,4.0,4.0,4.0,4.0,4.0,100.0,,,,,,,,,,,,,,,,,,,,,,,,,,,,,,,,,,,,,,,,,,,,,,,,,,,,,,,,,,,,,,,,,,,,,,,,,,,,,,,,,,,,,,,,,,,,,,,,,,,,,,,,,,,,,,,,,,,,,,,,,,,,,,,,,,,
1725710407.559071,1725710407.560334,84.0,0.0,4249.358887,4231.794922,4250.128418,4299.102539,4212.820313,4232.307617,4188.077148,4231.794922,4235.0,4202.179688,4538.461426,4501.153809,4379.871582,4444.615234,0.0,1.0,15.0,,,,0.0,4.0,4.0,4.0,4.0,4.0,4.0,4.0,4.0,4.0,4.0,4.0,4.0,4.0,4.0,100.0,,,,,,,,,,,,,,,,,,,,,,,,,,,,,,,,,,,,,,,,,,,,,,,,,,,,,,,,,,,,,,,,,,,,,,,,,,,,,,,,,,,,,,,,,,,,,,,,,,,,,,,,,,,,,,,,,,,,,,,,,,,,,,,,,,,
1725710407.562975,1725710407.564238,85.0,0.0,4250.512695,4232.563965,4249.743652,4300.769043,4216.153809,4231.410156,4190.512695,4224.743652,4232.436035,4201.666504,4540.384766,4496.794922,4378.974121,4443.589844,0.0,1.0,15.0,,,,0.0,4.0,4.0,4.0,4.0,4.0,4.0,4.0,4.0,4.0,4.0,4.0,4.0,4.0,4.0,100.0,,,,,,,,,,,,,,,,,,,,,,,,,,,,,,,,,,,,,,,,,,,,,,,,,,,,,,,,,,,,,,,,,,,,,,,,,,,,,,,,,,,,,,,,,,,,,,,,,,,,,,,,,,,,,,,,,,,,,,,,,,,,,,,,,,,
1725710407.566879,1725710407.568242,86.0,0.0,4250.769043,4232.563965,4249.358887,4299.358887,4214.358887,4232.179688,4190.512695,4218.333496,4230.128418,4201.153809,4539.743652,4492.05127,4378.461426,4441.025879,0.0,1.0,15.0,,,,0.0,4.0,4.0,4.0,4.0,4.0,4.0,4.0,4.0,4.0,4.0,4.0,4.0,4.0,4.0,100.0,,,,,,,,,,,,,,,,,,,,,,,,,,,,,,,,,,,,,,,,,,,,,,,,,,,,,,,,,,,,,,,,,,,,,,,,,,,,,,,,,,,,,,,,,,,,,,,,,,,,,,,,,,,,,,,,,,,,,,,,,,,,,,,,,,,
1725710407.570783,1725710407.572146,87.0,0.0,4248.717773,4231.666504,4249.230957,4295.384766,4208.461426,4233.333496,4187.94873,4214.871582,4228.461426,4200.641113,4536.794922,4489.358887,4378.974121,4437.436035,0.0,1.0,15.0,,,,0.0,4.0,4.0,4.0,4.0,4.0,4.0,4.0,4.0,4.0,4.0,4.0,4.0,4.0,4.0,100.0,,,,,,,,,,,,,,,,,,,,,,,,,,,,,,,,,,,,,,,,,,,,,,,,,,,,,,,,,,,,,,,,,,,,,,,,,,,,,,,,,,,,,,,,,,,,,,,,,,,,,,,,,,,,,,,,,,,,,,,,,,,,,,,,,,,
1725710407.574687,1725710407.57605,88.0,0.0,4244.358887,4230.0,4248.846191,4290.769043,4202.179688,4232.563965,4184.871582,4214.615234,4227.05127,4199.230957,4533.846191,4488.974121,4379.743652,4433.846191,0.0,1.0,15.0,,,,0.0,4.0,4.0,4.0,4.0,4.0,4.0,4.0,4.0,4.0,4.0,4.0,4.0,4.0,4.0,100.0,,,,,,,,,,,,,,,,,,,,,,,,,,,,,,,,,,,,,,,,,,,,,,,,,,,,,,,,0.0,0.0,1.0,0.0,1024.0,0.152923,,,,,,,,,,,,,,,,,,,,,,,,,,,,,,,,,,,,,,,,,,,,,,,,,,,,,,,,,,,,,,,,,,,,,,
1725710407.578591,1725710407.579954,89.0,0.0,4239.230957,4228.717773,4246.922852,4287.692383,4198.974121,4228.717773,4184.102539,4215.512695,4224.743652,4196.538574,4533.717773,4488.846191,4379.615234,4431.025879,0.0,1.0,15.0,,,,0.0,4.0,4.0,4.0,4.0,4.0,4.0,4.0,4.0,4.0,4.0,4.0,4.0,4.0,4.0,100.0,,,,,,,,,,,,,,,,,,,,,,,,,,,,,,,,,,,,,,,,,,,,,,,,,,,,,,,,,,,,,,,,,,,,,,,,,,,,,,,,,,,,,,,,,,,,,,,,,,,,,,,,,,,,,,,,,,,,,,,,,,,,,,,,,,,
1725710407.582495,1725710407.583958,90.0,0.0,4235.0,4229.102539,4243.077148,4287.05127,4199.615234,4223.077148,4187.05127,4216.153809,4221.538574,4192.94873,4536.282227,4486.794922,4378.077148,4429.743652,0.0,1.0,15.0,,,,0.0,4.0,4.0,4.0,4.0,4.0,4.0,4.0,4.0,4.0,4.0,4.0,4.0,4.0,4.0,100.0,,,,,,,,,,,,,,,,,,,,,,,,,,,,,,,,,,,,,,,,,,,,,,,,,,,,,,,,,,,,,,,,,,,,,,,,,,,,,,,,,,,,,,,,,,,,,,,,,,,,,,,,,,,,,,,,,,,,,,,,,,,,,,,,,,,
1725710407.586399,1725710407.587863,91.0,0.0,4232.692383,4231.666504,4238.077148,4287.94873,4202.307617,4217.94873,4192.94873,4215.512695,4217.563965,4189.358887,4538.205078,4481.794922,4375.128418,4429.358887,0.0,1.0,15.0,,,,0.0,4.0,4.0,4.0,4.0,4.0,4.0,4.0,4.0,4.0,4.0,4.0,4.0,4.0,4.0,100.0,,,,,,,,,,,,,,,,,,,,,,,,,,,,,,,,,,,,,,,,,,,,,,,,,,,,,,,,,,,,,,,,,,,,,,,,,,,,,,,,,,,,,,,,,,,,,,,,,,,,,,,,,,,,,,,,,,,,,,,,,,,,,,,,,,,
1725710407.590304,1725710407.591767,92.0,0.0,4232.179688,4234.871582,4233.589844,4288.333496,4203.974121,4215.384766,4198.589844,4214.230957,4214.102539,4186.025879,4535.384766,4475.897461,4371.153809,4428.589844,0.0,1.0,15.0,,,,0.0,4.0,4.0,4.0,4.0,4.0,4.0,4.0,4.0,4.0,4.0,4.0,4.0,4.0,4.0,100.0,,,,,,,,,,,,,,,,,,,,,,,,,,,,,,,,,,,,,,,,,,,,,,,,,,,,,,,,,,,,,,,,,,,,,,,,,,,,,,,,,,,,,,,,,,,,,,,,,,,,,,,,,,,,,,,,,,,,,,,,,,,,,,,,,,,
1725710407.594208,1725710407.595671,93.0,0.0,4232.436035,4235.897461,4231.153809,4286.922852,4203.205078,4215.897461,4201.410156,4213.205078,4212.563965,4183.077148,4527.05127,4471.666504,4367.436035,4426.666504,0.0,1.0,15.0,,,,0.0,4.0,4.0,4.0,4.0,4.0,4.0,4.0,4.0,4.0,4.0,4.0,4.0,4.0,4.0,100.0,,,,,,,,,,,,,,,,,,,,,,,,,,,,,,,,,,,,,,,,,,,,,,,,,,,,,,,,,,,,,,,,,,,,,,,,,,,,,,,,,,,,,,,,,,,,,,,,,,,,,,,,,,,,,,,,,,,,,,,,,,,,,,,,,,,
1725710407.598112,1725710407.599675,94.0,0.0,4232.692383,4233.077148,4231.282227,4283.846191,4201.025879,4218.205078,4201.025879,4213.589844,4214.102539,4181.666504,4516.282227,4471.025879,4365.128418,4424.102539,0.0,1.0,15.0,,,,0.0,4.0,4.0,4.0,4.0,4.0,4.0,4.0,4.0,4.0,4.0,4.0,4.0,4.0,4.0,100.0,,,,,,,,,,,,,,,,,,,,,,,,,,,,,,,,,,,,,,,,,,,,,,,,,,,,,,,,,,,,,,,,,,,,,,,,,,,,,,,,,,,,,,,,,,,,,,,,,,,,,,,,,,,,,,,,,,,,,,,,,,,,,,,,,,,
1725710407.602016,1725710407.603579,95.0,0.0,4232.692383,4227.563965,4232.692383,4281.025879,4199.230957,4220.0,4199.871582,4215.769043,4218.717773,4183.077148,4508.974121,4472.94873,4364.743652,4422.179688,0.0,1.0,15.0,,,,0.0,4.0,4.0,4.0,4.0,4.0,4.0,4.0,4.0,4.0,4.0,4.0,4.0,4.0,4.0,100.0,,,,,,,,,,,,,,,,,,,,,,,,,,,,,,,,,,,,,,,,,,,,,,,,,,,,,,,,,,,,,,,,,,,,,,,,,,,,,,,,,,,,,,,,,,,,,,,,,,,,,,,,,,,,,,,,,,,,,,,,,,,,,,,,,,,
1725710407.60592,1725710407.607483,96.0,0.0,4232.692383,4222.05127,4233.974121,4280.769043,4199.230957,4219.871582,4201.794922,4219.102539,4225.0,4187.820313,4508.589844,4475.128418,4365.897461,4422.436035,0.0,1.0,15.0,,,,0.0,4.0,4.0,4.0,4.0,4.0,4.0,4.0,4.0,4.0,4.0,4.0,4.0,4.0,4.0,100.0,,,,,,,,,,,,,,,,,,,,,,,,,,,,,,,,,,,,,,,,,,,,,,,,,,,,,,,,0.0,0.0,1.0,0.0,1024.0,0.152923,,,,,,,,,,,,,,,,,,,,,,,,,,,,,,,,,,,,,,,,,,,,,,,,,,,,,,,,,,,,,,,,,,,,,,
1725710407.609824,1725710407.611387,97.0,0.0,4233.205078,4220.0,4234.102539,4283.461426,4200.512695,4218.461426,4208.974121,4221.794922,4230.769043,4194.487305,4514.871582,4476.282227,4367.563965,4424.487305,0.0,1.0,15.0,,,,0.0,4.0,4.0,4.0,4.0,4.0,4.0,4.0,4.0,4.0,4.0,4.0,4.0,4.0,4.0,100.0,,,,,,,,,,,,,,,,,,,,,,,,,,,,,,,,,,,,,,,,,,,,,,,,,,,,,,,,,,,,,,,,,,,,,,,,,,,,,,,,,,,,,,,,,,,,,,,,,,,,,,,,,,,,,,,,,,,,,,,,,,,,,,,,,,,
1725710407.613728,1725710407.615291,98.0,0.0,4234.615234,4222.436035,4233.205078,4288.205078,4201.794922,4217.692383,4218.974121,4223.461426,4234.358887,4200.769043,4523.717773,4477.179688,4369.487305,4426.922852,0.0,1.0,15.0,,,,0.0,4.0,4.0,4.0,4.0,4.0,4.0,4.0,4.0,4.0,4.0,4.0,4.0,4.0,4.0,100.0,,,,,,,,,,,,,,,,,,,,,,,,,,,,,,,,,,,,,,,,,,,,,,,,,,,,,,,,,,,,,,,,,,,,,,,,,,,,,,,,,,,,,,,,,,,,,,,,,,,,,,,,,,,,,,,,,,,,,,,,,,,,,,,,,,,
1725710407.617632,1725710407.619095,99.0,0.0,4236.410156,4227.692383,4232.692383,4292.820313,4201.794922,4218.846191,4227.179688,4225.128418,4235.512695,4204.615234,4531.410156,4479.615234,4371.666504,4428.589844,0.0,1.0,15.0,,,,0.0,4.0,4.0,4.0,4.0,4.0,4.0,4.0,4.0,4.0,4.0,4.0,4.0,4.0,4.0,100.0,,,,,,,,,,,,,,,,,,,,,,,,,,,,,,,,,,,,,,,,,,,,,,,,,,,,,,,,,,,,,,,,,,,,,,,,,,,,,,,,,,,,,,,,,,,,,,,,,,,,,,,,,,,,,,,,,,,,,,,,,,,,,,,,,,,
1725710407.621536,1725710407.622999,100.0,0.0,4237.692383,4232.692383,4233.589844,4295.769043,4200.769043,4221.282227,4230.0,4227.820313,4235.384766,4205.256348,4536.666504,4483.974121,4373.717773,4429.230957,0.0,1.0,15.0,,,,0.0,4.0,4.0,4.0,4.0,4.0,4.0,4.0,4.0,4.0,4.0,4.0,4.0,4.0,4.0,100.0,,,,,,,,,,,,,,,,,,,,,,,,,,,,,,,,,,,,,,,,,,,,,,,,,,,,,,,,,,,,,,,,,,,,,,,,,,,,,,,,,,,,,,,,,,,,,,,,,,,,,,,,,,,,,,,,,,,,,,,,,,,,,,,,,,,
1725710407.62544,1725710407.626904,101.0,0.0,4237.436035,4234.743652,4235.128418,4296.666504,4199.615234,4223.333496,4228.077148,4231.153809,4234.743652,4203.589844,4540.0,4488.846191,4374.871582,4428.974121,0.0,1.0,15.0,,,,0.0,4.0,4.0,4.0,4.0,4.0,4.0,4.0,4.0,4.0,4.0,4.0,4.0,4.0,4.0,100.0,,,,,,,,,,,,,,,,,,,,,,,,,,,,,,,,,,,,,,,,,,,,,,,,,,,,,,,,,,,,,,,,,,,,,,,,,,,,,,,,,,,,,,,,,,,,,,,,,,,,,,,,,,,,,,,,,,,,,,,,,,,,,,,,,,,
1725710407.629345,1725710407.630808,102.0,0.0,4236.025879,4233.717773,4236.025879,4295.512695,4199.102539,4223.717773,4225.897461,4232.820313,4234.487305,4201.538574,4541.410156,4491.922852,4374.102539,4428.461426,0.0,1.0,15.0,,,,0.0,4.0,4.0,4.0,4.0,4.0,4.0,4.0,4.0,4.0,4.0,4.0,4.0,4.0,4.0,100.0,,,,,,,,,,,,,,,,,,,,,,,,,,,,,,,,,,,,,,,,,,,,,,,,,,,,,,,,,,,,,,,,,,,,,,,,,,,,,,,,,,,,,,,,,,,,,,,,,,,,,,,,,,,,,,,,,,,,,,,,,,,,,,,,,,,
1725710407.633249,1725710407.634612,103.0,0.0,4234.743652,4231.282227,4235.256348,4292.94873,4199.487305,4222.563965,4227.692383,4231.153809,4234.230957,4200.641113,4539.743652,4492.179688,4371.794922,4428.205078,0.0,1.0,15.0,,,,0.0,4.0,4.0,4.0,4.0,4.0,4.0,4.0,4.0,4.0,4.0,4.0,4.0,4.0,4.0,100.0,,,,,,,,,,,,,,,,,,,,,,,,,,,,,,,,,,,,,,,,,,,,,,,,,,,,,,,,,,,,,,,,,,,,,,,,,,,,,,,,,,,,,,,,,,,,,,,,,,,,,,,,,,,,,,,,,,,,,,,,,,,,,,,,,,,
1725710407.637153,1725710407.638516,104.0,0.0,4234.871582,4230.0,4233.846191,4289.743652,4201.025879,4220.897461,4234.230957,4225.769043,4233.974121,4201.538574,4534.743652,4489.871582,4369.230957,4428.589844,0.0,1.0,15.0,,,,0.0,4.0,4.0,4.0,4.0,4.0,4.0,4.0,4.0,4.0,4.0,4.0,4.0,4.0,4.0,100.0,,,,,,,,,,,,,,,,,,,,,,,,,,,,,,,,,,,,,,,,,,,,,,,,,,,,,,,,0.0,0.0,1.0,0.0,1024.0,0.152923,,,,,,,,,,,,,,,,,,,,,,,,,,,,,,,,,,,,,,,,,,,,,,,,,,,,,,,,,,,,,,,,,,,,,,
1725710407.641057,1725710407.64242,105.0,0.0,4236.922852,4231.025879,4233.974121,4287.436035,4202.820313,4219.743652,4242.436035,4218.974121,4233.717773,4203.589844,4528.333496,4487.307617,4368.717773,4430.384766,0.0,1.0,15.0,,,,0.0,4.0,4.0,4.0,4.0,4.0,4.0,4.0,4.0,4.0,4.0,4.0,4.0,4.0,4.0,100.0,,,,,,,,,,,,,,,,,,,,,,,,,,,,,,,,,,,,,,,,,,,,,,,,,,,,,,,,,,,,,,,,,,,,,,,,,,,,,,,,,,,,,,,,,,,,,,,,,,,,,,,,,,,,,,,,,,,,,,,,,,,,,,,,,,,
1725710407.644961,1725710407.646224,106.0,0.0,4240.641113,4233.589844,4236.922852,4287.563965,4204.358887,4219.102539,4248.077148,4214.230957,4234.102539,4205.256348,4524.358887,4486.922852,4371.153809,4433.589844,0.0,1.0,15.0,,,,0.0,4.0,4.0,4.0,4.0,4.0,4.0,4.0,4.0,4.0,4.0,4.0,4.0,4.0,4.0,100.0,,,,,,,,,,,,,,,,,,,,,,,,,,,,,,,,,,,,,,,,,,,,,,,,,,,,,,,,,,,,,,,,,,,,,,,,,,,,,,,,,,,,,,,,,,,,,,,,,,,,,,,,,,,,,,,,,,,,,,,,,,,,,,,,,,,
1725710407.648865,1725710407.650128,107.0,0.0,4245.128418,4235.641113,4241.922852,4290.512695,4205.128418,4219.102539,4249.230957,4213.846191,4234.487305,4205.256348,4525.641113,4489.615234,4376.410156,4437.820313,0.0,1.0,15.0,,,,0.0,4.0,4.0,4.0,4.0,4.0,4.0,4.0,4.0,4.0,4.0,4.0,4.0,4.0,4.0,100.0,,,,,,,,,,,,,,,,,,,,,,,,,,,,,,,,,,,,,,,,,,,,,,,,,,,,,,,,,,,,,,,,,,,,,,,,,,,,,,,,,,,,,,,,,,,,,,,,,,,,,,,,,,,,,,,,,,,,,,,,,,,,,,,,,,,
1725710407.652769,1725710407.654033,108.0,0.0,4248.846191,4235.641113,4246.666504,4295.641113,4205.128418,4219.487305,4247.436035,4216.922852,4234.102539,4203.846191,4531.282227,4494.358887,4382.307617,4442.436035,0.0,1.0,15.0,,,,0.0,4.0,4.0,4.0,4.0,4.0,4.0,4.0,4.0,4.0,4.0,4.0,4.0,4.0,4.0,100.0,,,,,,,,,,,,,,,,,,,,,,,,,,,,,,,,,,,,,,,,,,,,,,,,,,,,,,,,,,,,,,,,,,,,,,,,,,,,,,,,,,,,,,,,,,,,,,,,,,,,,,,,,,,,,,,,,,,,,,,,,,,,,,,,,,,
1725710407.656673,1725710407.657937,109.0,0.0,4251.025879,4233.846191,4249.615234,4300.897461,4204.743652,4220.0,4245.512695,4219.102539,4231.410156,4201.538574,4537.05127,4498.205078,4385.897461,4446.025879,0.0,1.0,15.0,,,,0.0,4.0,4.0,4.0,4.0,4.0,4.0,4.0,4.0,4.0,4.0,4.0,4.0,4.0,4.0,100.0,,,,,,,,,,,,,,,,,,,,,,,,,,,,,,,,,,,,,,,,,,,,,,,,,,,,,,,,,,,,,,,,,,,,,,,,,,,,,,,,,,,,,,,,,,,,,,,,,,,,,,,,,,,,,,,,,,,,,,,,,,,,,,,,,,,
1725710407.660577,1725710407.661741,110.0,0.0,4251.282227,4232.436035,4250.384766,4304.230957,4204.358887,4220.256348,4245.897461,4216.410156,4226.153809,4199.743652,4539.102539,4499.230957,4385.256348,4447.436035,0.0,1.0,15.0,,,,0.0,4.0,4.0,4.0,4.0,4.0,4.0,4.0,4.0,4.0,4.0,4.0,4.0,4.0,4.0,100.0,,,,,,,,,,,,,,,,,,,,,,,,,,,,,,,,,,,,,,,,,,,,,,,,,,,,,,,,,,,,,,,,,,,,,,,,,,,,,,,,,,,,,,,,,,,,,,,,,,,,,,,,,,,,,,,,,,,,,,,,,,,,,,,,,,,
1725710407.664482,1725710407.665645,111.0,0.0,4250.641113,4233.461426,4249.871582,4304.871582,4204.230957,4220.0,4248.077148,4208.974121,4219.871582,4199.102539,4537.179688,4497.179688,4381.282227,4446.666504,0.0,1.0,15.0,,,,0.0,4.0,4.0,4.0,4.0,4.0,4.0,4.0,4.0,4.0,4.0,4.0,4.0,4.0,4.0,100.0,,,,,,,,,,,,,,,,,,,,,,,,,,,,,,,,,,,,,,,,,,,,,,,,,,,,,,,,,,,,,,,,,,,,,,,,,,,,,,,,,,,,,,,,,,,,,,,,,,,,,,,,,,,,,,,,,,,,,,,,,,,,,,,,,,,
1725710407.668386,1725710407.669549,112.0,0.0,4250.256348,4237.563965,4248.974121,4303.717773,4204.487305,4219.230957,4250.384766,4201.025879,4215.641113,4200.0,4535.0,4494.358887,4376.666504,4445.256348,0.0,1.0,15.0,,,,0.0,4.0,4.0,4.0,4.0,4.0,4.0,4.0,4.0,4.0,4.0,4.0,4.0,4.0,4.0,100.0,,,,,,,,,,,,,,,,,1.0,0.0,0.0,,,,,,,,,,,,,,,,,,,,,,,,,,,,,,,,,,,,,0.0,0.0,1.0,0.0,1024.0,0.06123,1.130457,1.037398,0.369871,0.105757,0.068835,1.058172,0.845402,0.516964,0.257537,0.145215,0.988792,0.412471,0.167296,0.06615,0.04893,2.240608,1.502047,0.166646,0.222797,0.120642,0.822421,0.383424,0.088539,0.107675,0.068287,0.273987,0.282007,0.101915,0.076138,0.028202,3.722362,0.637319,0.653457,0.122254,0.058886,0.525745,1.248229,0.376952,0.157408,0.18826,1.0621,1.084124,0.335067,0.204447,0.088273,2.011781,1.429524,0.62371,0.189746,0.096285,2.193882,2.651751,0.259837,0.510887,0.321084,3.282047,3.106465,0.363848,0.272804,0.120121,2.2245,1.459262,0.552497,0.425385,0.195089,2.975415,1.905051,0.363643,0.280035,0.113298
1725710407.67229,1725710407.673553,113.0,0.0,4250.0,4242.820313,4248.461426,4302.179688,4205.0,4218.717773,4251.025879,4198.077148,4215.0,4201.153809,4535.897461,4493.461426,4373.974121,4444.487305,0.0,1.0,15.0,,,,0.0,4.0,4.0,4.0,4.0,4.0,4.0,4.0,4.0,4.0,4.0,4.0,4.0,4.0,4.0,100.0,,,,,,,,,,,,,,,,,,,,,,,,,,,,,,,,,,,,,,,,,,,,,,,,,,,,,,,,,,,,,,,,,,,,,,,,,,,,,,,,,,,,,,,,,,,,,,,,,,,,,,,,,,,,,,,,,,,,,,,,,,,,,,,,,,,
