Timestamp,OriginalTimestamp,EEG.Counter,EEG.Interpolated,EEG.AF3,EEG.F7,EEG.F3,EEG.FC5,EEG.T7,EEG.P7,EEG.O1,EEG.O2,EEG.P8,EEG.T8,EEG.FC6,EEG.F4,EEG.F8,EEG.AF4,EEG.RawCq,EEG.Battery,EEG.BatteryPercent,MarkerIndex,MarkerType,MarkerValueInt,EEG.MarkerHardware,CQ.AF3,CQ.F7,CQ.F3,CQ.FC5,CQ.T7,CQ.P7,CQ.O1,CQ.O2,CQ.P8,CQ.T8,CQ.FC6,CQ.F4,CQ.F8,CQ.AF4,CQ.Overall,EQ.SampleRateQuality,EQ.OVERALL,EQ.AF3,EQ.F7,EQ.F3,EQ.FC5,EQ.T7,EQ.P7,EQ.O1,EQ.O2,EQ.P8,EQ.T8,EQ.FC6,EQ.F4,EQ.F8,EQ.AF4,MC.Action,MC.ActionPower,MC.IsActive,PM.Attention.IsActive,PM.Attention.Scaled,PM.Attention.Raw,PM.Attention.Min,PM.Attention.Max,PM.Engagement.IsActive,PM.Engagement.Scaled,PM.Engagement.Raw,PM.Engagement.Min,PM.Engagement.Max,PM.Excitement.IsActive,PM.Excitement.Scaled,PM.Excitement.Raw,PM.Excitement.Min,PM.Excitement.Max,PM.LongTermExcitement,PM.Stress.IsActive,PM.Stress.Scaled,PM.Stress.Raw,PM.Stress.Min,PM.Stress.Max,PM.Relaxation.IsActive,PM.Relaxation.Scaled,PM.Relaxation.Raw,PM.Relaxation.Min,PM.Relaxation.Max,PM.Interest.IsActive,PM.Interest.Scaled,PM.Interest.Raw,PM.Interest.Min,PM.Interest.Max,PM.Focus.IsActive,PM.Focus.Scaled,PM.Focus.Raw,PM.Focus.Min,PM.Focus.Max,FE.BlinkWink,FE.HorizontalEyesDirection,FE.UpperFaceAction,FE.UpperFaceActionPower,FE.LowerFaceAction,FE.LowerFaceActionPower,POW.AF3.Theta,POW.AF3.Alpha,POW.AF3.BetaL,POW.AF3.BetaH,POW.AF3.Gamma,POW.F7.Theta,POW.F7.Alpha,POW.F7.BetaL,POW.F7.BetaH,POW.F7.Gamma,POW.F3.Theta,POW.F3.Alpha,POW.F3.BetaL,POW.F3.BetaH,POW.F3.Gamma,POW.FC5.Theta,POW.FC5.Alpha,POW.FC5.BetaL,POW.FC5.BetaH,POW.FC5.Gamma,POW.T7.Theta,POW.T7.Alpha,POW.T7.BetaL,POW.T7.BetaH,POW.T7.Gamma,POW.P7.Theta,POW.P7.Alpha,POW.P7.BetaL,POW.P7.BetaH,POW.P7.Gamma,POW.O1.Theta,POW.O1.Alpha,POW.O1.BetaL,POW.O1.BetaH,POW.O1.Gamma,POW.O2.Theta,POW.O2.Alpha,POW.O2.BetaL,POW.O2.BetaH,POW.O2.Gamma,POW.P8.Theta,POW.P8.Alpha,POW.P8.BetaL,POW.P8.BetaH,POW.P8.Gamma,POW.T8.Theta,POW.T8.Alpha,POW.T8.BetaL,POW.T8.BetaH,POW.T8.Gamma,POW.FC6.Theta,POW.FC6.Alpha,POW.FC6.BetaL,POW.FC6.BetaH,POW.FC6.Gamma,POW.F4.Theta,POW.F4.Alpha,POW.F4.BetaL,POW.F4.BetaH,POW.F4.Gamma,POW.F8.Theta,POW.F8.Alpha,POW.F8.BetaL,POW.F8.BetaH,POW.F8.Gamma,POW.AF4.Theta,POW.AF4.Alpha,POW.AF4.BetaL,POW.AF4.BetaH,POW.AF4.Gamma
1725716001.279756,1725716001.281527,172.0,0.0,4333.974121,4279.487305,4270.641113,4211.922852,4263.589844,4377.05127,4266.282227,4254.871582,4262.692383,4245.384766,4464.102539,4521.025879,4348.846191,4411.153809,3403.0,1.0,15.0,9.0,1.0,1.0,0.0,4.0,4.0,4.0,4.0,4.0,4.0,4.0,4.0,4.0,4.0,4.0,4.0,4.0,4.0,100.0,,,,,,,,,,,,,,,,,,,,,,,,,,,,,,,,,,,,,,,,,,,,,,,,,,,,,,,,0.0,0.0,1.0,0.0,1.0,0.0,,,,,,,,,,,,,,,,,,,,,,,,,,,,,,,,,,,,,,,,,,,,,,,,,,,,,,,,,,,,,,,,,,,,,,
1725716001.28366,1725716001.285431,173.0,0.0,4336.410156,4278.974121,4273.333496,4212.94873,4262.820313,4374.615234,4264.743652,4259.743652,4262.563965,4244.871582,4470.128418,4522.436035,4351.153809,4412.179688,3812.0,1.0,15.0,,,,0.0,4.0,4.0,4.0,4.0,4.0,4.0,4.0,4.0,4.0,4.0,4.0,4.0,4.0,4.0,100.0,,,,,,,,,,,,,,,,,,,,,,,,,,,,,,,,,,,,,,,,,,,,,,,,,,,,,,,,,,,,,,,,,,,,,,,,,,,,,,,,,,,,,,,,,,,,,,,,,,,,,,,,,,,,,,,,,,,,,,,,,,,,,,,,,,,
1725716001.287564,1725716001.289335,174.0,0.0,4339.487305,4278.205078,4273.974121,4214.358887,4261.666504,4372.436035,4260.384766,4262.94873,4262.692383,4244.871582,4476.025879,4523.589844,4354.230957,4413.077148,2879.0,1.0,15.0,,,,0.0,4.0,4.0,4.0,4.0,4.0,4.0,4.0,4.0,4.0,4.0,4.0,4.0,4.0,4.0,100.0,,,,,,,,,,,,,,,,,,,,,,,,,,,,,,,,,,,,,,,,,,,,,,,,,,,,,,,,,,,,,,,,,,,,,,,,,,,,,,,,,,,,,,,,,,,,,,,,,,,,,,,,,,,,,,,,,,,,,,,,,,,,,,,,,,,
1725716001.291469,1725716001.293239,175.0,0.0,4341.794922,4277.179688,4271.922852,4215.256348,4260.897461,4371.282227,4254.230957,4262.692383,4262.436035,4245.641113,4478.717773,4523.846191,4356.153809,4413.077148,3109.0,1.0,15.0,,,,0.0,4.0,4.0,4.0,4.0,4.0,4.0,4.0,4.0,4.0,4.0,4.0,4.0,4.0,4.0,100.0,,,,,,,,,,,,,,,,,,,,,,,,,,,,,,,,,,,,,,,,,,,,,,,,,,,,,,,,,,,,,,,,,,,,,,,,,,,,,,,,,,,,,,,,,,,,,,,,,,,,,,,,,,,,,,,,,,,,,,,,,,,,,,,,,,,
1725716001.295373,1725716001.297043,176.0,0.0,4342.820313,4276.538574,4268.846191,4215.641113,4260.897461,4371.666504,4248.717773,4259.102539,4260.769043,4247.179688,4476.922852,4523.461426,4355.897461,4412.307617,3403.0,1.0,15.0,,,,0.0,4.0,4.0,4.0,4.0,4.0,4.0,4.0,4.0,4.0,4.0,4.0,4.0,4.0,4.0,100.0,,,,,,,,,,,,,,,,,,,,,,,,,,,,,,,,,,,,,,,,,,,,,,,,,,,,,,,,,,,,,,,,,,,,,,,,,,,,,,,,,,,,,,,,,,,,,,,,,,,,,,,,,,,,,,,,,,,,,,,,,,,,,,,,,,,
1725716001.299277,1725716001.300947,177.0,0.0,4343.461426,4276.282227,4266.794922,4216.282227,4262.179688,4373.846191,4246.282227,4254.102539,4257.436035,4248.589844,4471.922852,4522.563965,4353.846191,4411.666504,3812.0,1.0,15.0,,,,0.0,4.0,4.0,4.0,4.0,4.0,4.0,4.0,4.0,4.0,4.0,4.0,4.0,4.0,4.0,100.0,,,,,,,,,,,,,,,,,,,,,,,,,,,,,,,,,,,,,,,,,,,,,,,,,,,,,,,,,,,,,,,,,,,,,,,,,,,,,,,,,,,,,,,,,,,,,,,,,,,,,,,,,,,,,,,,,,,,,,,,,,,,,,,,,,,
1725716001.303181,1725716001.304852,178.0,0.0,4344.487305,4276.666504,4267.307617,4217.307617,4264.102539,4377.563965,4247.05127,4250.128418,4253.589844,4248.846191,4466.538574,4521.922852,4351.153809,4411.666504,2879.0,1.0,15.0,,,,0.0,4.0,4.0,4.0,4.0,4.0,4.0,4.0,4.0,4.0,4.0,4.0,4.0,4.0,4.0,100.0,,,,,,,,,,,,,,,,,,,,,,,,,,,,,,,,,,,,,,,,,,,,,,,,,,,,,,,,,,,,,,,,,,,,,,,,,,,,,,,,,,,,,,,,,,,,,,,,,,,,,,,,,,,,,,,,,,,,,,,,,,,,,,,,,,,
1725716001.307085,1725716001.308856,179.0,0.0,4346.153809,4277.436035,4270.0,4218.717773,4265.897461,4381.538574,4249.487305,4248.333496,4250.256348,4247.436035,4463.461426,4521.794922,4349.358887,4412.307617,3109.0,1.0,15.0,,,,0.0,4.0,4.0,4.0,4.0,4.0,4.0,4.0,4.0,4.0,4.0,4.0,4.0,4.0,4.0,100.0,,,,,,,,,,,,,,,,,,,,,,,,,,,,,,,,,,,,,,,,,,,,,,,,,,,,,,,,,,,,,,,,,,,,,,,,,,,,,,,,,,,,,,,,,,,,,,,,,,,,,,,,,,,,,,,,,,,,,,,,,,,,,,,,,,,
1725716001.310989,1725716001.31276,180.0,0.0,4348.205078,4278.589844,4273.205078,4220.897461,4266.666504,4383.717773,4250.512695,4248.589844,4248.589844,4245.128418,4463.333496,4521.922852,4349.358887,4412.820313,3403.0,1.0,15.0,,,,0.0,4.0,4.0,4.0,4.0,4.0,4.0,4.0,4.0,4.0,4.0,4.0,4.0,4.0,4.0,100.0,1.0,41.666668,3.0,4.0,4.0,1.0,4.0,1.0,3.0,4.0,4.0,4.0,4.0,4.0,4.0,4.0,1.0,0.0,0.0,,,,,,,,,,,,,,,,,,,,,,,,,,,,,,,,,,,,,0.0,0.0,1.0,0.0,1.0,0.0,3.05591,2.826649,0.669881,0.587824,0.13915,0.808843,0.791673,0.247049,0.227386,0.0556,2.596306,2.332323,0.517213,0.184585,0.10216,43.603542,18.186255,6.562081,2.172312,0.817679,0.877395,0.511909,0.220377,0.131426,0.05767,1.155312,0.329436,0.289286,0.071259,0.03406,12.966115,2.73433,1.404899,0.195862,0.067111,1.909147,2.151391,0.370341,0.202113,0.12119,1.253868,2.051577,0.484693,0.206761,0.089439,1.372681,2.122676,0.698639,0.172438,0.100353,3.076307,2.232235,0.645705,0.281834,0.153808,4.326478,4.481233,0.559085,0.542346,0.145321,1.953319,2.045063,1.275054,0.328078,0.227785,3.030256,2.604062,0.579439,0.270634,0.106215
1725716001.314893,1725716001.316664,181.0,0.0,4350.384766,4279.743652,4275.769043,4224.358887,4266.410156,4382.94873,4248.589844,4249.615234,4249.102539,4243.589844,4465.512695,4522.05127,4350.897461,4412.692383,3812.0,1.0,15.0,,,,0.0,4.0,4.0,4.0,4.0,4.0,4.0,4.0,4.0,4.0,4.0,4.0,4.0,4.0,4.0,100.0,,,,,,,,,,,,,,,,,,,,,,,,,,,,,,,,,,,,,,,,,,,,,,,,,,,,,,,,,,,,,,,,,,,,,,,,,,,,,,,,,,,,,,,,,,,,,,,,,,,,,,,,,,,,,,,,,,,,,,,,,,,,,,,,,,,
1725716001.318797,1725716001.320568,182.0,0.0,4352.179688,4280.384766,4276.666504,4228.589844,4265.641113,4379.743652,4243.974121,4250.384766,4251.666504,4243.717773,4468.846191,4522.05127,4353.333496,4412.307617,2879.0,1.0,15.0,,,,0.0,4.0,4.0,4.0,4.0,4.0,4.0,4.0,4.0,4.0,4.0,4.0,4.0,4.0,4.0,100.0,,,,,,,,,,,,,,,,,,,,,,,,,,,,,,,,,,,,,,,,,,,,,,,,,,,,,,,,,,,,,,,,,,,,,,,,,,,,,,,,,,,,,,,,,,,,,,,,,,,,,,,,,,,,,,,,,,,,,,,,,,,,,,,,,,,
1725716001.322701,1725716001.324572,183.0,0.0,4352.94873,4280.256348,4275.897461,4231.538574,4264.615234,4375.897461,4238.717773,4250.256348,4254.871582,4245.384766,4471.794922,4521.666504,4355.641113,4412.05127,3109.0,1.0,15.0,,,,0.0,4.0,4.0,4.0,4.0,4.0,4.0,4.0,4.0,4.0,4.0,4.0,4.0,4.0,4.0,100.0,,,,,,,,,,,,,,,,,,,,,,,,,,,,,,,,,,,,,,,,,,,,,,,,,,,,,,,,,,,,,,,,,,,,,,,,,,,,,,,,,,,,,,,,,,,,,,,,,,,,,,,,,,,,,,,,,,,,,,,,,,,,,,,,,,,
1725716001.326605,1725716001.328476,184.0,0.0,4352.307617,4279.102539,4274.102539,4231.410156,4263.846191,4373.717773,4234.487305,4249.615234,4256.794922,4247.563965,4473.205078,4520.897461,4357.05127,4412.307617,3403.0,1.0,15.0,,,,0.0,4.0,4.0,4.0,4.0,4.0,4.0,4.0,4.0,4.0,4.0,4.0,4.0,4.0,4.0,100.0,,,,,,,,,,,,,,,,,,,,,,,,,,,,,,,,,,,,,,,,,,,,,,,,,,,,,,,,,,,,,,,,,,,,,,,,,,,,,,,,,,,,,,,,,,,,,,,,,,,,,,,,,,,,,,,,,,,,,,,,,,,,,,,,,,,
1725716001.33051,1725716001.33238,185.0,0.0,4351.025879,4277.692383,4272.436035,4228.461426,4263.333496,4373.589844,4232.436035,4248.974121,4256.538574,4248.974121,4472.94873,4520.256348,4356.922852,4412.563965,3812.0,1.0,15.0,,,,0.0,4.0,4.0,4.0,4.0,4.0,4.0,4.0,4.0,4.0,4.0,4.0,4.0,4.0,4.0,100.0,,,,,,,,,,,,,,,,,,,,,,,,,,,,,,,,,,,,,,,,,,,,,,,,,,,,,,,,,,,,,,,,,,,,,,,,,,,,,,,,,,,,,,,,,,,,,,,,,,,,,,,,,,,,,,,,,,,,,,,,,,,,,,,,,,,
1725716001.334414,1725716001.336284,186.0,0.0,4350.641113,4276.922852,4272.05127,4224.743652,4262.820313,4374.743652,4232.307617,4248.461426,4254.230957,4249.102539,4472.179688,4520.0,4356.025879,4412.436035,2879.0,1.0,15.0,,,,0.0,4.0,4.0,4.0,4.0,4.0,4.0,4.0,4.0,4.0,4.0,4.0,4.0,4.0,4.0,100.0,,,,,,,,,,,,,,,,,,,,,,,,,,,,,,,,,,,,,,,,,,,,,,,,,,,,,,,,,,,,,,,,,,,,,,,,,,,,,,,,,,,,,,,,,,,,,,,,,,,,,,,,,,,,,,,,,,,,,,,,,,,,,,,,,,,
1725716001.338318,1725716001.340188,187.0,0.0,4351.666504,4277.436035,4273.461426,4222.692383,4262.692383,4375.512695,4233.077148,4248.461426,4251.922852,4248.077148,4472.05127,4520.641113,4355.769043,4412.179688,3109.0,1.0,15.0,,,,0.0,4.0,4.0,4.0,4.0,4.0,4.0,4.0,4.0,4.0,4.0,4.0,4.0,4.0,4.0,100.0,,,,,,,,,,,,,,,,,,,,,,,,,,,,,,,,,,,,,,,,,,,,,,,,,,,,,,,,,,,,,,,,,,,,,,,,,,,,,,,,,,,,,,,,,,,,,,,,,,,,,,,,,,,,,,,,,,,,,,,,,,,,,,,,,,,
1725716001.342222,1725716001.343993,188.0,0.0,4354.230957,4278.974121,4275.897461,4223.461426,4262.820313,4375.0,4233.589844,4248.717773,4251.153809,4246.794922,4473.461426,4521.538574,4357.436035,4412.563965,3403.0,1.0,15.0,,,,0.0,4.0,4.0,4.0,4.0,4.0,4.0,4.0,4.0,4.0,4.0,4.0,4.0,4.0,4.0,100.0,,,,,,,,,,,,,,,,,,,,,,,,,,,,,,,,,,,,,,,,,,,,,,,,,,,,,,,,0.0,0.0,1.0,0.0,1.0,0.0,,,,,,,,,,,,,,,,,,,,,,,,,,,,,,,,,,,,,,,,,,,,,,,,,,,,,,,,,,,,,,,,,,,,,,
1725716001.346126,1725716001.347897,189.0,0.0,4357.820313,4280.384766,4277.94873,4226.153809,4263.461426,4373.974121,4233.461426,4249.358887,4253.077148,4246.538574,4475.769043,4522.179688,4360.641113,4414.743652,3812.0,1.0,15.0,,,,0.0,4.0,4.0,4.0,4.0,4.0,4.0,4.0,4.0,4.0,4.0,4.0,4.0,4.0,4.0,100.0,,,,,,,,,,,,,,,,,,,,,,,,,,,,,,,,,,,,,,,,,,,,,,,,,,,,,,,,,,,,,,,,,,,,,,,,,,,,,,,,,,,,,,,,,,,,,,,,,,,,,,,,,,,,,,,,,,,,,,,,,,,,,,,,,,,
1725716001.35003,1725716001.351901,190.0,0.0,4362.436035,4280.897461,4279.230957,4229.230957,4264.358887,4374.102539,4232.436035,4250.641113,4257.820313,4247.94873,4477.94873,4522.820313,4364.743652,4418.974121,2879.0,1.0,15.0,,,,0.0,4.0,4.0,4.0,4.0,4.0,4.0,4.0,4.0,4.0,4.0,4.0,4.0,4.0,4.0,100.0,,,,,,,,,,,,,,,,,,,,,,,,,,,,,,,,,,,,,,,,,,,,,,,,,,,,,,,,,,,,,,,,,,,,,,,,,,,,,,,,,,,,,,,,,,,,,,,,,,,,,,,,,,,,,,,,,,,,,,,,,,,,,,,,,,,
1725716001.353934,1725716001.355805,191.0,0.0,4368.077148,4280.384766,4279.871582,4231.794922,4265.256348,4376.153809,4230.128418,4252.563965,4263.846191,4251.282227,4479.230957,4524.487305,4367.820313,4424.230957,3109.0,1.0,15.0,,,,0.0,4.0,4.0,4.0,4.0,4.0,4.0,4.0,4.0,4.0,4.0,4.0,4.0,4.0,4.0,100.0,,,,,,,,,,,,,,,,,,,,,,,,,,,,,,,,,,,,,,,,,,,,,,,,,,,,,,,,,,,,,,,,,,,,,,,,,,,,,,,,,,,,,,,,,,,,,,,,,,,,,,,,,,,,,,,,,,,,,,,,,,,,,,,,,,,
1725716001.357838,1725716001.359709,192.0,0.0,4374.102539,4279.487305,4280.769043,4233.589844,4266.025879,4379.615234,4226.794922,4253.846191,4268.333496,4255.128418,4479.615234,4527.563965,4368.846191,4428.333496,3403.0,1.0,15.0,,,,0.0,4.0,4.0,4.0,4.0,4.0,4.0,4.0,4.0,4.0,4.0,4.0,4.0,4.0,4.0,100.0,,,,,,,,,,,,,,,,,,,,,,,,,,,,,,,,,,,,,,,,,,,,,,,,,,,,,,,,,,,,,,,,,,,,,,,,,,,,,,,,,,,,,,,,,,,,,,,,,,,,,,,,,,,,,,,,,,,,,,,,,,,,,,,,,,,
1725716001.361742,1725716001.363613,193.0,0.0,4379.615234,4279.871582,4281.666504,4234.743652,4266.538574,4382.563965,4222.692383,4253.461426,4267.94873,4257.692383,4479.487305,4531.282227,4367.436035,4429.743652,3812.0,1.0,15.0,,,,0.0,4.0,4.0,4.0,4.0,4.0,4.0,4.0,4.0,4.0,4.0,4.0,4.0,4.0,4.0,100.0,,,,,,,,,,,,,,,,,,,,,,,,,,,,,,,,,,,,,,,,,,,,,,,,,,,,,,,,,,,,,,,,,,,,,,,,,,,,,,,,,,,,,,,,,,,,,,,,,,,,,,,,,,,,,,,,,,,,,,,,,,,,,,,,,,,
1725716001.365646,1725716001.367517,194.0,0.0,4383.974121,4282.179688,4282.05127,4235.0,4266.794922,4383.717773,4219.358887,4251.538574,4262.563965,4257.820313,4479.358887,4534.358887,4365.0,4428.333496,2879.0,1.0,15.0,,,,0.0,4.0,4.0,4.0,4.0,4.0,4.0,4.0,4.0,4.0,4.0,4.0,4.0,4.0,4.0,100.0,,,,,,,,,,,,,,,,,,,,,,,,,,,,,,,,,,,,,,,,,,,,,,,,,,,,,,,,,,,,,,,,,,,,,,,,,,,,,,,,,,,,,,,,,,,,,,,,,,,,,,,,,,,,,,,,,,,,,,,,,,,,,,,,,,,
1725716001.36955,1725716001.371321,195.0,0.0,4386.025879,4286.282227,4282.179688,4234.871582,4266.794922,4383.205078,4217.94873,4249.743652,4255.641113,4255.512695,4479.358887,4535.897461,4363.846191,4425.769043,3109.0,1.0,15.0,,,,0.0,4.0,4.0,4.0,4.0,4.0,4.0,4.0,4.0,4.0,4.0,4.0,4.0,4.0,4.0,100.0,,,,,,,,,,,,,,,,,,,,,,,,,,,,,,,,,,,,,,,,,,,,,,,,,,,,,,,,,,,,,,,,,,,,,,,,,,,,,,,,,,,,,,,,,,,,,,,,,,,,,,,,,,,,,,,,,,,,,,,,,,,,,,,,,,,
1725716001.373454,1725716001.375225,196.0,0.0,4385.128418,4290.128418,4282.05127,4234.743652,4266.410156,4382.436035,4218.846191,4250.0,4251.410156,4252.179688,4479.358887,4535.384766,4364.871582,4423.846191,3403.0,1.0,15.0,,,,0.0,4.0,4.0,4.0,4.0,4.0,4.0,4.0,4.0,4.0,4.0,4.0,4.0,4.0,4.0,100.0,,,,,,,,,,,,,,,,,,,,,,,,,,,,,,,,,,,,,,,,,,,,,,,,,,,,,,,,0.0,0.0,1.0,0.0,1.0,0.0,,,,,,,,,,,,,,,,,,,,,,,,,,,,,,,,,,,,,,,,,,,,,,,,,,,,,,,,,,,,,,,,,,,,,,
1725716001.377359,1725716001.379129,197.0,0.0,4381.025879,4291.282227,4281.922852,4235.512695,4266.025879,4382.307617,4220.512695,4252.05127,4251.410156,4249.358887,4478.846191,4532.820313,4366.922852,4423.589844,3812.0,1.0,15.0,,,,0.0,4.0,4.0,4.0,4.0,4.0,4.0,4.0,4.0,4.0,4.0,4.0,4.0,4.0,4.0,100.0,,,,,,,,,,,,,,,,,,,,,,,,,,,,,,,,,,,,,,,,,,,,,,,,,,,,,,,,,,,,,,,,,,,,,,,,,,,,,,,,,,,,,,,,,,,,,,,,,,,,,,,,,,,,,,,,,,,,,,,,,,,,,,,,,,,
1725716001.381263,1725716001.383034,198.0,0.0,4374.230957,4288.846191,4281.538574,4237.692383,4265.769043,4382.94873,4220.512695,4254.358887,4253.717773,4248.077148,4478.077148,4528.717773,4367.94873,4424.358887,2879.0,1.0,15.0,,,,0.0,4.0,4.0,4.0,4.0,4.0,4.0,4.0,4.0,4.0,4.0,4.0,4.0,4.0,4.0,100.0,,,,,,,,,,,,,,,,,,,,,,,,,,,,,,,,,,,,,,,,,,,,,,,,,,,,,,,,,,,,,,,,,,,,,,,,,,,,,,,,,,,,,,,,,,,,,,,,,,,,,,,,,,,,,,,,,,,,,,,,,,,,,,,,,,,
1725716001.385167,1725716001.386838,199.0,0.0,4367.179688,4284.615234,4281.153809,4241.025879,4265.897461,4383.333496,4216.794922,4255.512695,4255.641113,4248.077148,4477.307617,4525.0,4366.666504,4425.0,3109.0,1.0,15.0,,,,0.0,4.0,4.0,4.0,4.0,4.0,4.0,4.0,4.0,4.0,4.0,4.0,4.0,4.0,4.0,100.0,,,,,,,,,,,,,,,,,,,,,,,,,,,,,,,,,,,,,,,,,,,,,,,,,,,,,,,,,,,,,,,,,,,,,,,,,,,,,,,,,,,,,,,,,,,,,,,,,,,,,,,,,,,,,,,,,,,,,,,,,,,,,,,,,,,
1725716001.389071,1725716001.390742,200.0,0.0,4362.94873,4281.666504,4281.538574,4244.743652,4266.282227,4382.820313,4210.0,4255.128418,4255.384766,4248.846191,4476.666504,4523.589844,4363.589844,4425.128418,3403.0,1.0,15.0,,,,0.0,4.0,4.0,4.0,4.0,4.0,4.0,4.0,4.0,4.0,4.0,4.0,4.0,4.0,4.0,100.0,,,,,,,,,,,,,,,,,,,,,,,,,,,,,,,,,,,,,,,,,,,,,,,,,,,,,,,,,,,,,,,,,,,,,,,,,,,,,,,,,,,,,,,,,,,,,,,,,,,,,,,,,,,,,,,,,,,,,,,,,,,,,,,,,,,
1725716001.392975,1725716001.394646,201.0,0.0,4363.077148,4282.05127,4283.077148,4247.692383,4266.794922,4381.538574,4203.589844,4253.717773,4253.717773,4250.128418,4475.641113,4525.512695,4360.641113,4424.871582,3812.0,1.0,15.0,,,,0.0,4.0,4.0,4.0,4.0,4.0,4.0,4.0,4.0,4.0,4.0,4.0,4.0,4.0,4.0,100.0,,,,,,,,,,,,,,,,,,,,,,,,,,,,,,,,,,,,,,,,,,,,,,,,,,,,,,,,,,,,,,,,,,,,,,,,,,,,,,,,,,,,,,,,,,,,,,,,,,,,,,,,,,,,,,,,,,,,,,,,,,,,,,,,,,,
1725716001.396879,1725716001.39855,202.0,0.0,4366.922852,4285.641113,4284.871582,4249.102539,4267.563965,4380.384766,4200.769043,4252.307617,4252.436035,4251.922852,4474.871582,4529.358887,4359.871582,4424.743652,2879.0,1.0,15.0,,,,0.0,4.0,4.0,4.0,4.0,4.0,4.0,4.0,4.0,4.0,4.0,4.0,4.0,4.0,4.0,100.0,,,,,,,,,,,,,,,,,,,,,,,,,,,,,,,,,,,,,,,,,,,,,,,,,,,,,,,,,,,,,,,,,,,,,,,,,,,,,,,,,,,,,,,,,,,,,,,,,,,,,,,,,,,,,,,,,,,,,,,,,,,,,,,,,,,
1725716001.400783,1725716001.402354,203.0,0.0,4371.410156,4290.256348,4286.282227,4249.487305,4268.333496,4380.256348,4202.05127,4250.641113,4252.820313,4254.230957,4475.128418,4532.563965,4361.666504,4424.487305,3109.0,1.0,15.0,,,,0.0,4.0,4.0,4.0,4.0,4.0,4.0,4.0,4.0,4.0,4.0,4.0,4.0,4.0,4.0,100.0,,,,,,,,,,,,,,,,,,,,,,,,,,,,,,,,,,,,,,,,,,,,,,,,,,,,,,,,,,,,,,,,,,,,,,,,,,,,,,,,,,,,,,,,,,,,,,,,,,,,,,,,,,,,,,,,,,,,,,,,,,,,,,,,,,,
1725716001.404687,1725716001.406258,204.0,0.0,4373.846191,4293.205078,4286.666504,4250.128418,4268.717773,4381.025879,4204.230957,4249.358887,4255.512695,4257.179688,4477.563965,4533.205078,4364.871582,4423.974121,3403.0,1.0,15.0,,,,0.0,4.0,4.0,4.0,4.0,4.0,4.0,4.0,4.0,4.0,4.0,4.0,4.0,4.0,4.0,100.0,,,,,,,,,,,,,,,,,,,,,,,,,,,,,,,,,,,,,,,,,,,,,,,,,,,,,,,,0.0,0.0,1.0,0.0,1.0,0.0,,,,,,,,,,,,,,,,,,,,,,,,,,,,,,,,,,,,,,,,,,,,,,,,,,,,,,,,,,,,,,,,,,,,,,
1725716001.408591,1725716001.410162,205.0,0.0,4373.589844,4293.461426,4285.897461,4251.153809,4268.461426,4382.05127,4203.974121,4249.487305,4259.358887,4259.743652,4481.538574,4531.153809,4367.05127,4423.461426,3812.0,1.0,15.0,,,,0.0,4.0,4.0,4.0,4.0,4.0,4.0,4.0,4.0,4.0,4.0,4.0,4.0,4.0,4.0,100.0,,,,,,,,,,,,,,,,,,,,,,,,,,,,,,,,,,,,,,,,,,,,,,,,,,,,,,,,,,,,,,,,,,,,,,,,,,,,,,,,,,,,,,,,,,,,,,,,,,,,,,,,,,,,,,,,,,,,,,,,,,,,,,,,,,,
1725716001.412495,1725716001.414166,206.0,0.0,4371.666504,4291.282227,4284.102539,4251.538574,4267.692383,4382.692383,4200.128418,4251.922852,4262.563965,4260.897461,4485.384766,4527.820313,4366.666504,4424.102539,2879.0,1.0,15.0,,,,0.0,4.0,4.0,4.0,4.0,4.0,4.0,4.0,4.0,4.0,4.0,4.0,4.0,4.0,4.0,100.0,,,,,,,,,,,,,,,,,,,,,,,,,,,,,,,,,,,,,,,,,,,,,,,,,,,,,,,,,,,,,,,,,,,,,,,,,,,,,,,,,,,,,,,,,,,,,,,,,,,,,,,,,,,,,,,,,,,,,,,,,,,,,,,,,,,
1725716001.4164,1725716001.418071,207.0,0.0,4369.487305,4288.077148,4282.05127,4250.641113,4266.538574,4382.563965,4194.230957,4256.410156,4263.461426,4260.256348,4487.179688,4525.256348,4363.846191,4425.897461,3109.0,1.0,15.0,,,,0.0,4.0,4.0,4.0,4.0,4.0,4.0,4.0,4.0,4.0,4.0,4.0,4.0,4.0,4.0,100.0,,,,,,,,,,,,,,,,,,,,,,,,,,,,,,,,,,,,,,,,,,,,,,,,,,,,,,,,,,,,,,,,,,,,,,,,,,,,,,,,,,,,,,,,,,,,,,,,,,,,,,,,,,,,,,,,,,,,,,,,,,,,,,,,,,,
1725716001.420304,1725716001.421975,208.0,0.0,4367.563965,4285.641113,4280.641113,4249.358887,4265.641113,4382.05127,4188.205078,4260.769043,4262.563965,4258.846191,4486.025879,4524.358887,4360.384766,4427.436035,3403.0,1.0,15.0,,,,0.0,4.0,4.0,4.0,4.0,4.0,4.0,4.0,4.0,4.0,4.0,4.0,4.0,4.0,4.0,100.0,,,,,,,,,,,,,,,,,,,,,,,,,,,,,,,,,,,,,,,,,,,,,,,,,,,,,,,,,,,,,,,,,,,,,,,,,,,,,,,,,,,,,,,,,,,,,,,,,,,,,,,,,,,,,,,,,,,,,,,,,,,,,,,,,,,
1725716001.424208,1725716001.425979,209.0,0.0,4366.153809,4285.256348,4280.256348,4249.743652,4265.384766,4381.410156,4183.717773,4262.307617,4261.282227,4258.461426,4483.077148,4525.0,4358.974121,4428.077148,3812.0,1.0,15.0,,,,0.0,4.0,4.0,4.0,4.0,4.0,4.0,4.0,4.0,4.0,4.0,4.0,4.0,4.0,4.0,100.0,,,,,,,,,,,,,,,,,,,,,,,,,,,,,,,,,,,,,,,,,,,,,,,,,,,,,,,,,,,,,,,,,,,,,,,,,,,,,,,,,,,,,,,,,,,,,,,,,,,,,,,,,,,,,,,,,,,,,,,,,,,,,,,,,,,
1725716001.428112,1725716001.429883,210.0,0.0,4364.615234,4286.922852,4280.641113,4252.820313,4265.256348,4381.025879,4180.641113,4259.615234,4260.769043,4260.512695,4480.128418,4526.153809,4360.897461,4427.820313,2879.0,1.0,15.0,,,,0.0,4.0,4.0,4.0,4.0,4.0,4.0,4.0,4.0,4.0,4.0,4.0,4.0,4.0,4.0,100.0,,,,,,,,,,,,,,,,,,,,,,,,,,,,,,,,,,,,,,,,,,,,,,,,,,,,,,,,,,,,,,,,,,,,,,,,,,,,,,,,,,,,,,,,,,,,,,,,,,,,,,,,,,,,,,,,,,,,,,,,,,,,,,,,,,,
1725716001.432016,1725716001.433787,211.0,0.0,4361.922852,4289.743652,4280.769043,4257.820313,4264.871582,4380.641113,4178.205078,4253.589844,4260.256348,4263.461426,4478.461426,4526.153809,4365.0,4427.563965,3109.0,1.0,15.0,,,,0.0,4.0,4.0,4.0,4.0,4.0,4.0,4.0,4.0,4.0,4.0,4.0,4.0,4.0,4.0,100.0,,,,,,,,,,,,,,,,,,,,,,,,,,,,,,,,,,,,,,,,,,,,,,,,,,,,,,,,,,,,,,,,,,,,,,,,,,,,,,,,,,,,,,,,,,,,,,,,,,,,,,,,,,,,,,,,,,,,,,,,,,,,,,,,,,,
1725716001.43592,1725716001.437691,212.0,0.0,4358.333496,4292.179688,4280.0,4262.307617,4263.974121,4380.128418,4175.384766,4247.307617,4258.333496,4265.0,4477.820313,4524.358887,4367.820313,4427.179688,3403.0,1.0,15.0,,,,0.0,4.0,4.0,4.0,4.0,4.0,4.0,4.0,4.0,4.0,4.0,4.0,4.0,4.0,4.0,100.0,,,,,,,,,,,,,,,,,1.0,0.0,0.0,,,,,,,,,,,,,,,,,,,,,,,,,,,,,,,,,,,,,0.0,0.0,1.0,0.0,1.0,0.0,3.356746,2.187338,0.540512,0.564444,0.131877,0.957217,0.640127,0.22075,0.216722,0.058488,2.668663,2.1297,0.513898,0.196453,0.097836,38.525902,14.804182,5.84725,1.825175,0.718103,0.777664,0.434996,0.212919,0.145113,0.060675,1.075548,0.284809,0.281957,0.060127,0.034191,10.50944,2.256864,1.19309,0.181452,0.059815,1.900445,2.120787,0.261193,0.196524,0.116006,1.187921,1.956537,0.370308,0.166082,0.080304,1.40294,1.969045,0.703364,0.166391,0.094323,2.892605,2.086188,0.701794,0.300353,0.148545,4.43003,4.005846,0.574362,0.477127,0.149688,1.932845,1.898222,1.180193,0.31574,0.229927,3.046008,2.168304,0.588916,0.257626,0.109622
1725716001.439824,1725716001.441595,213.0,0.0,4354.871582,4292.94873,4278.461426,4264.487305,4263.077148,4379.743652,4171.922852,4243.974121,4254.743652,4263.333496,4477.692383,4521.794922,4366.794922,4426.282227,3812.0,1.0,15.0,,,,0.0,4.0,4.0,4.0,4.0,4.0,4.0,4.0,4.0,4.0,4.0,4.0,4.0,4.0,4.0,100.0,,,,,,,,,,,,,,,,,,,,,,,,,,,,,,,,,,,,,,,,,,,,,,,,,,,,,,,,,,,,,,,,,,,,,,,,,,,,,,,,,,,,,,,,,,,,,,,,,,,,,,,,,,,,,,,,,,,,,,,,,,,,,,,,,,,
1725716001.443728,1725716001.445499,214.0,0.0,4353.461426,4292.05127,4277.05127,4264.230957,4262.820313,4380.256348,4168.205078,4245.0,4251.410156,4258.717773,4477.307617,4520.0,4362.179688,4424.743652,2879.0,1.0,15.0,,,,0.0,4.0,4.0,4.0,4.0,4.0,4.0,4.0,4.0,4.0,4.0,4.0,4.0,4.0,4.0,100.0,,,,,,,,,,,,,,,,,,,,,,,,,,,,,,,,,,,,,,,,,,,,,,,,,,,,,,,,,,,,,,,,,,,,,,,,,,,,,,,,,,,,,,,,,,,,,,,,,,,,,,,,,,,,,,,,,,,,,,,,,,,,,,,,,,,
1725716001.447632,1725716001.449403,215.0,0.0,4355.384766,4289.871582,4276.794922,4262.563965,4263.461426,4381.153809,4164.615234,4248.846191,4249.743652,4253.461426,4476.666504,4520.128418,4356.794922,4422.820313,3109.0,1.0,15.0,,,,0.0,4.0,4.0,4.0,4.0,4.0,4.0,4.0,4.0,4.0,4.0,4.0,4.0,4.0,4.0,100.0,,,,,,,,,,,,,,,,,,,,,,,,,,,,,,,,,,,,,,,,,,,,,,,,,,,,,,,,,,,,,,,,,,,,,,,,,,,,,,,,,,,,,,,,,,,,,,,,,,,,,,,,,,,,,,,,,,,,,,,,,,,,,,,,,,,
1725716001.451537,1725716001.453307,216.0,0.0,4360.0,4287.563965,4277.05127,4260.897461,4264.358887,4381.410156,4161.025879,4251.794922,4249.871582,4249.871582,4475.897461,4521.538574,4353.717773,4421.282227,3403.0,1.0,15.0,,,,0.0,4.0,4.0,4.0,4.0,4.0,4.0,4.0,4.0,4.0,4.0,4.0,4.0,4.0,4.0,100.0,,,,,,,,,,,,,,,,,,,,,,,,,,,,,,,,,,,,,,,,,,,,,,,,,,,,,,,,,,,,,,,,,,,,,,,,,,,,,,,,,,,,,,,,,,,,,,,,,,,,,,,,,,,,,,,,,,,,,,,,,,,,,,,,,,,
1725716001.455441,1725716001.457311,217.0,0.0,4365.256348,4286.666504,4276.922852,4260.384766,4264.615234,4380.256348,4156.666504,4251.538574,4250.128418,4248.846191,4475.384766,4522.436035,4355.128418,4421.410156,3812.0,1.0,15.0,,,,0.0,4.0,4.0,4.0,4.0,4.0,4.0,4.0,4.0,4.0,4.0,4.0,4.0,4.0,4.0,100.0,,,,,,,,,,,,,,,,,,,,,,,,,,,,,,,,,,,,,,,,,,,,,,,,,,,,,,,,,,,,,,,,,,,,,,,,,,,,,,,,,,,,,,,,,,,,,,,,,,,,,,,,,,,,,,,,,,,,,,,,,,,,,,,,,,,
1725716001.459345,1725716001.461216,218.0,0.0,4368.589844,4287.692383,4275.512695,4260.769043,4263.974121,4377.692383,4152.05127,4248.589844,4249.871582,4249.615234,4475.512695,4522.307617,4360.641113,4423.205078,2879.0,1.0,15.0,,,,0.0,4.0,4.0,4.0,4.0,4.0,4.0,4.0,4.0,4.0,4.0,4.0,4.0,4.0,4.0,100.0,,,,,,,,,,,,,,,,,,,,,,,,,,,,,,,,,,,,,,,,,,,,,,,,,,,,,,,,,,,,,,,,,,,,,,,,,,,,,,,,,,,,,,,,,,,,,,,,,,,,,,,,,,,,,,,,,,,,,,,,,,,,,,,,,,,
1725716001.463249,1725716001.46512,219.0,0.0,4368.077148,4290.128418,4273.589844,4261.410156,4262.820313,4375.128418,4148.717773,4246.153809,4249.230957,4250.256348,4476.666504,4521.410156,4367.94873,4425.769043,3109.0,1.0,15.0,,,,0.0,4.0,4.0,4.0,4.0,4.0,4.0,4.0,4.0,4.0,4.0,4.0,4.0,4.0,4.0,100.0,,,,,,,,,,,,,,,,,,,,,,,,,,,,,,,,,,,,,,,,,,,,,,,,,,,,,,,,,,,,,,,,,,,,,,,,,,,,,,,,,,,,,,,,,,,,,,,,,,,,,,,,,,,,,,,,,,,,,,,,,,,,,,,,,,,
1725716001.467153,1725716001.469024,220.0,0.0,4363.846191,4292.820313,4272.307617,4261.666504,4261.794922,4373.974121,4147.94873,4246.794922,4248.589844,4249.871582,4478.974121,4520.769043,4373.846191,4427.692383,3403.0,1.0,15.0,,,,0.0,4.0,4.0,4.0,4.0,4.0,4.0,4.0,4.0,4.0,4.0,4.0,4.0,4.0,4.0,100.0,,,,,,,,,,,,,,,,,,,,,,,,,,,,,,,,,,,,,,,,,,,,,,,,,,,,,,,,0.0,0.0,1.0,0.0,1.0,0.0,,,,,,,,,,,,,,,,,,,,,,,,,,,,,,,,,,,,,,,,,,,,,,,,,,,,,,,,,,,,,,,,,,,,,,
1725716001.471057,1725716001.472928,221.0,0.0,4358.333496,4294.871582,4272.820313,4261.538574,4261.538574,4375.256348,4149.487305,4250.512695,4248.333496,4248.461426,4482.179688,4520.897461,4376.282227,4428.205078,3812.0,1.0,15.0,,,,0.0,4.0,4.0,4.0,4.0,4.0,4.0,4.0,4.0,4.0,4.0,4.0,4.0,4.0,4.0,100.0,,,,,,,,,,,,,,,,,,,,,,,,,,,,,,,,,,,,,,,,,,,,,,,,,,,,,,,,,,,,,,,,,,,,,,,,,,,,,,,,,,,,,,,,,,,,,,,,,,,,,,,,,,,,,,,,,,,,,,,,,,,,,,,,,,,
1725716001.474961,1725716001.476732,222.0,0.0,4354.358887,4295.897461,4274.615234,4262.05127,4261.794922,4377.94873,4151.153809,4255.384766,4248.333496,4247.05127,4486.153809,4522.179688,4375.0,4427.563965,2879.0,1.0,15.0,,,,0.0,4.0,4.0,4.0,4.0,4.0,4.0,4.0,4.0,4.0,4.0,4.0,4.0,4.0,4.0,100.0,,,,,,,,,,,,,,,,,,,,,,,,,,,,,,,,,,,,,,,,,,,,,,,,,,,,,,,,,,,,,,,,,,,,,,,,,,,,,,,,,,,,,,,,,,,,,,,,,,,,,,,,,,,,,,,,,,,,,,,,,,,,,,,,,,,
1725716001.478865,1725716001.480636,223.0,0.0,4353.974121,4296.282227,4277.05127,4263.974121,4262.05127,4380.641113,4150.897461,4259.102539,4248.461426,4247.179688,4490.128418,4524.358887,4371.794922,4426.794922,3109.0,1.0,15.0,,,,0.0,4.0,4.0,4.0,4.0,4.0,4.0,4.0,4.0,4.0,4.0,4.0,4.0,4.0,4.0,100.0,,,,,,,,,,,,,,,,,,,,,,,,,,,,,,,,,,,,,,,,,,,,,,,,,,,,,,,,,,,,,,,,,,,,,,,,,,,,,,,,,,,,,,,,,,,,,,,,,,,,,,,,,,,,,,,,,,,,,,,,,,,,,,,,,,,
1725716001.482769,1725716001.48454,224.0,0.0,4357.436035,4296.410156,4279.230957,4266.538574,4262.05127,4381.538574,4147.94873,4260.769043,4248.589844,4248.717773,4492.436035,4526.282227,4368.461426,4426.666504,3403.0,1.0,15.0,,,,0.0,4.0,4.0,4.0,4.0,4.0,4.0,4.0,4.0,4.0,4.0,4.0,4.0,4.0,4.0,100.0,,,,,,,,,,,,,,,,,,,,,,,,,,,,,,,,,,,,,,,,,,,,,,,,,,,,,,,,,,,,,,,,,,,,,,,,,,,,,,,,,,,,,,,,,,,,,,,,,,,,,,,,,,,,,,,,,,,,,,,,,,,,,,,,,,,
1725716001.486673,1725716001.488444,225.0,0.0,4362.179688,4296.666504,4280.641113,4268.846191,4262.05127,4380.0,4143.717773,4260.897461,4248.717773,4250.641113,4492.179688,4526.410156,4366.410156,4427.179688,3812.0,1.0,15.0,,,,0.0,4.0,4.0,4.0,4.0,4.0,4.0,4.0,4.0,4.0,4.0,4.0,4.0,4.0,4.0,100.0,,,,,,,,,,,,,,,,,,,,,,,,,,,,,,,,,,,,,,,,,,,,,,,,,,,,,,,,,,,,,,,,,,,,,,,,,,,,,,,,,,,,,,,,,,,,,,,,,,,,,,,,,,,,,,,,,,,,,,,,,,,,,,,,,,,
1725716001.490578,1725716001.492249,226.0,0.0,4364.487305,4297.05127,4281.410156,4270.384766,4262.436035,4376.922852,4140.512695,4260.384766,4248.974121,4251.538574,4490.0,4524.615234,4365.641113,4427.692383,2879.0,1.0,15.0,,,,0.0,4.0,4.0,4.0,4.0,4.0,4.0,4.0,4.0,4.0,4.0,4.0,4.0,4.0,4.0,100.0,,,,,,,,,,,,,,,,,,,,,,,,,,,,,,,,,,,,,,,,,,,,,,,,,,,,,,,,,,,,,,,,,,,,,,,,,,,,,,,,,,,,,,,,,,,,,,,,,,,,,,,,,,,,,,,,,,,,,,,,,,,,,,,,,,,
1725716001.494482,1725716001.496153,227.0,0.0,4361.666504,4297.05127,4281.282227,4271.538574,4262.94873,4373.846191,4139.230957,4260.256348,4249.487305,4250.512695,4487.179688,4521.922852,4366.025879,4427.307617,3109.0,1.0,15.0,,,,0.0,4.0,4.0,4.0,4.0,4.0,4.0,4.0,4.0,4.0,4.0,4.0,4.0,4.0,4.0,100.0,,,,,,,,,,,,,,,,,,,,,,,,,,,,,,,,,,,,,,,,,,,,,,,,,,,,,,,,,,,,,,,,,,,,,,,,,,,,,,,,,,,,,,,,,,,,,,,,,,,,,,,,,,,,,,,,,,,,,,,,,,,,,,,,,,,
1725716001.498386,1725716001.500057,228.0,0.0,4354.615234,4296.794922,4280.512695,4272.820313,4263.077148,4372.307617,4139.230957,4260.897461,4249.615234,4248.333496,4485.256348,4521.153809,4367.307617,4426.410156,3403.0,1.0,15.0,,,,0.0,4.0,4.0,4.0,4.0,4.0,4.0,4.0,4.0,4.0,4.0,4.0,4.0,4.0,4.0,100.0,,,,,,,,,,,,,,,,,,,,,,,,,,,,,,,,,,,,,,,,,,,,,,,,,,,,,,,,0.0,0.0,1.0,0.0,1.0,0.0,,,,,,,,,,,,,,,,,,,,,,,,,,,,,,,,,,,,,,,,,,,,,,,,,,,,,,,,,,,,,,,,,,,,,,
1725716001.50229,1725716001.503961,229.0,0.0,4347.436035,4296.153809,4279.615234,4274.743652,4262.307617,4372.692383,4139.615234,4261.794922,4249.615234,4247.307617,4484.871582,4523.717773,4368.846191,4425.769043,3812.0,1.0,15.0,,,,0.0,4.0,4.0,4.0,4.0,4.0,4.0,4.0,4.0,4.0,4.0,4.0,4.0,4.0,4.0,100.0,,,,,,,,,,,,,,,,,,,,,,,,,,,,,,,,,,,,,,,,,,,,,,,,,,,,,,,,,,,,,,,,,,,,,,,,,,,,,,,,,,,,,,,,,,,,,,,,,,,,,,,,,,,,,,,,,,,,,,,,,,,,,,,,,,,
1725716001.506194,1725716001.507765,230.0,0.0,4343.589844,4295.512695,4279.487305,4277.179688,4260.769043,4374.487305,4139.871582,4261.666504,4249.743652,4248.589844,4486.025879,4529.358887,4370.0,4426.282227,2879.0,1.0,15.0,,,,0.0,4.0,4.0,4.0,4.0,4.0,4.0,4.0,4.0,4.0,4.0,4.0,4.0,4.0,4.0,100.0,,,,,,,,,,,,,,,,,,,,,,,,,,,,,,,,,,,,,,,,,,,,,,,,,,,,,,,,,,,,,,,,,,,,,,,,,,,,,,,,,,,,,,,,,,,,,,,,,,,,,,,,,,,,,,,,,,,,,,,,,,,,,,,,,,,
1725716001.510098,1725716001.511669,231.0,0.0,4344.230957,4295.641113,4281.410156,4279.743652,4259.615234,4376.794922,4140.128418,4259.358887,4250.641113,4252.179688,4488.205078,4535.256348,4370.641113,4427.563965,3109.0,1.0,15.0,,,,0.0,4.0,4.0,4.0,4.0,4.0,4.0,4.0,4.0,4.0,4.0,4.0,4.0,4.0,4.0,100.0,,,,,,,,,,,,,,,,,,,,,,,,,,,,,,,,,,,,,,,,,,,,,,,,,,,,,,,,,,,,,,,,,,,,,,,,,,,,,,,,,,,,,,,,,,,,,,,,,,,,,,,,,,,,,,,,,,,,,,,,,,,,,,,,,,,
1725716001.514002,1725716001.515573,232.0,0.0,4347.05127,4297.179688,4284.871582,4281.666504,4260.128418,4378.333496,4140.128418,4256.025879,4252.692383,4256.282227,4490.0,4538.717773,4371.025879,4429.230957,3403.0,1.0,15.0,,,,0.0,4.0,4.0,4.0,4.0,4.0,4.0,4.0,4.0,4.0,4.0,4.0,4.0,4.0,4.0,100.0,,,,,,,,,,,,,,,,,,,,,,,,,,,,,,,,,,,,,,,,,,,,,,,,,,,,,,,,,,,,,,,,,,,,,,,,,,,,,,,,,,,,,,,,,,,,,,,,,,,,,,,,,,,,,,,,,,,,,,,,,,,,,,,,,,,
1725716001.517906,1725716001.519577,233.0,0.0,4349.358887,4300.256348,4288.846191,4282.307617,4262.05127,4378.974121,4139.871582,4253.846191,4255.512695,4259.230957,4490.256348,4538.974121,4372.05127,4431.666504,3812.0,1.0,15.0,,,,0.0,4.0,4.0,4.0,4.0,4.0,4.0,4.0,4.0,4.0,4.0,4.0,4.0,4.0,4.0,100.0,,,,,,,,,,,,,,,,,,,,,,,,,,,,,,,,,,,,,,,,,,,,,,,,,,,,,,,,,,,,,,,,,,,,,,,,,,,,,,,,,,,,,,,,,,,,,,,,,,,,,,,,,,,,,,,,,,,,,,,,,,,,,,,,,,,
1725716001.52181,1725716001.523481,234.0,0.0,4350.256348,4303.589844,4291.538574,4281.538574,4263.846191,4378.589844,4139.358887,4254.743652,4258.333496,4260.769043,4489.615234,4537.94873,4373.589844,4435.0,2879.0,1.0,15.0,,,,0.0,4.0,4.0,4.0,4.0,4.0,4.0,4.0,4.0,4.0,4.0,4.0,4.0,4.0,4.0,100.0,,,,,,,,,,,,,,,,,,,,,,,,,,,,,,,,,,,,,,,,,,,,,,,,,,,,,,,,,,,,,,,,,,,,,,,,,,,,,,,,,,,,,,,,,,,,,,,,,,,,,,,,,,,,,,,,,,,,,,,,,,,,,,,,,,,
1725716001.525715,1725716001.527386,235.0,0.0,4350.512695,4305.769043,4292.94873,4280.769043,4263.846191,4377.692383,4138.717773,4258.717773,4260.384766,4262.179688,4489.358887,4538.461426,4375.384766,4438.846191,3109.0,1.0,15.0,,,,0.0,4.0,4.0,4.0,4.0,4.0,4.0,4.0,4.0,4.0,4.0,4.0,4.0,4.0,4.0,100.0,,,,,,,,,,,,,,,,,,,,,,,,,,,,,,,,,,,,,,,,,,,,,,,,,,,,,,,,,,,,,,,,,,,,,,,,,,,,,,,,,,,,,,,,,,,,,,,,,,,,,,,,,,,,,,,,,,,,,,,,,,,,,,,,,,,
1725716001.529619,1725716001.53139,236.0,0.0,4351.538574,4306.025879,4293.461426,4281.922852,4262.179688,4376.922852,4138.333496,4263.717773,4262.05127,4264.615234,4490.897461,4542.307617,4377.179688,4442.307617,3403.0,1.0,15.0,,,,0.0,4.0,4.0,4.0,4.0,4.0,4.0,4.0,4.0,4.0,4.0,4.0,4.0,4.0,4.0,100.0,,,,,,,,,,,,,,,,,,,,,,,,,,,,,,,,,,,,,,,,,,,,,,,,,,,,,,,,0.0,0.0,1.0,0.0,1.0,0.0,,,,,,,,,,,,,,,,,,,,,,,,,,,,,,,,,,,,,,,,,,,,,,,,,,,,,,,,,,,,,,,,,,,,,,
1725716001.533523,1725716001.535294,237.0,0.0,4353.333496,4304.743652,4293.974121,4285.512695,4260.128418,4376.922852,4138.333496,4267.179688,4263.589844,4268.333496,4494.230957,4548.077148,4379.615234,4444.743652,3812.0,1.0,15.0,,,,0.0,4.0,4.0,4.0,4.0,4.0,4.0,4.0,4.0,4.0,4.0,4.0,4.0,4.0,4.0,100.0,,,,,,,,,,,,,,,,,,,,,,,,,,,,,,,,,,,,,,,,,,,,,,,,,,,,,,,,,,,,,,,,,,,,,,,,,,,,,,,,,,,,,,,,,,,,,,,,,,,,,,,,,,,,,,,,,,,,,,,,,,,,,,,,,,,
1725716001.537427,1725716001.539198,238.0,0.0,4354.487305,4302.563965,4294.358887,4289.871582,4259.487305,4377.94873,4138.717773,4267.94873,4265.128418,4271.666504,4498.589844,4553.461426,4382.94873,4445.897461,2879.0,1.0,15.0,,,,0.0,4.0,4.0,4.0,4.0,4.0,4.0,4.0,4.0,4.0,4.0,4.0,4.0,4.0,4.0,100.0,,,,,,,,,,,,,,,,,,,,,,,,,,,,,,,,,,,,,,,,,,,,,,,,,,,,,,,,,,,,,,,,,,,,,,,,,,,,,,,,,,,,,,,,,,,,,,,,,,,,,,,,,,,,,,,,,,,,,,,,,,,,,,,,,,,
1725716001.541331,1725716001.543102,239.0,0.0,4353.589844,4301.282227,4294.102539,4292.179688,4260.384766,4378.846191,4139.102539,4266.538574,4266.538574,4272.692383,4502.94873,4556.410156,4386.794922,4446.538574,3109.0,1.0,15.0,,,,0.0,4.0,4.0,4.0,4.0,4.0,4.0,4.0,4.0,4.0,4.0,4.0,4.0,4.0,4.0,100.0,,,,,,,,,,,,,,,,,,,,,,,,,,,,,,,,,,,,,,,,,,,,,,,,,,,,,,,,,,,,,,,,,,,,,,,,,,,,,,,,,,,,,,,,,,,,,,,,,,,,,,,,,,,,,,,,,,,,,,,,,,,,,,,,,,,
1725716001.545235,1725716001.547006,240.0,0.0,4350.256348,4301.794922,4292.692383,4291.025879,4261.922852,4378.333496,4138.974121,4264.871582,4266.922852,4270.769043,4506.666504,4556.666504,4390.641113,4446.922852,3403.0,1.0,15.0,,,,0.0,4.0,4.0,4.0,4.0,4.0,4.0,4.0,4.0,4.0,4.0,4.0,4.0,4.0,4.0,100.0,,,,,,,,,,,,,,,,,,,,,,,,,,,,,,,,,,,,,,,,,,,,,,,,,,,,,,,,,,,,,,,,,,,,,,,,,,,,,,,,,,,,,,,,,,,,,,,,,,,,,,,,,,,,,,,,,,,,,,,,,,,,,,,,,,,
1725716001.549139,1725716001.55081,241.0,0.0,4345.897461,4303.717773,4290.641113,4287.179688,4262.436035,4376.410156,4138.077148,4264.743652,4266.410156,4267.05127,4508.205078,4555.512695,4392.94873,4447.692383,3812.0,1.0,15.0,,,,0.0,4.0,4.0,4.0,4.0,4.0,4.0,4.0,4.0,4.0,4.0,4.0,4.0,4.0,4.0,100.0,,,,,,,,,,,,,,,,,,,,,,,,,,,,,,,,,,,,,,,,,,,,,,,,,,,,,,,,,,,,,,,,,,,,,,,,,,,,,,,,,,,,,,,,,,,,,,,,,,,,,,,,,,,,,,,,,,,,,,,,,,,,,,,,,,,
1725716001.553043,1725716001.554714,242.0,0.0,4342.179688,4305.256348,4288.974121,4283.333496,4261.153809,4374.102539,4136.666504,4266.410156,4265.384766,4263.846191,4506.922852,4554.358887,4392.94873,4448.461426,2879.0,1.0,15.0,,,,0.0,4.0,4.0,4.0,4.0,4.0,4.0,4.0,4.0,4.0,4.0,4.0,4.0,4.0,4.0,100.0,,,,,,,,,,,,,,,,,,,,,,,,,,,,,,,,,,,,,,,,,,,,,,,,,,,,,,,,,,,,,,,,,,,,,,,,,,,,,,,,,,,,,,,,,,,,,,,,,,,,,,,,,,,,,,,,,,,,,,,,,,,,,,,,,,,
1725716001.556947,1725716001.558618,243.0,0.0,4340.128418,4305.128418,4288.461426,4282.307617,4258.717773,4372.94873,4135.512695,4268.205078,4264.615234,4262.820313,4502.820313,4554.102539,4390.897461,4448.333496,3109.0,1.0,15.0,,,,0.0,4.0,4.0,4.0,4.0,4.0,4.0,4.0,4.0,4.0,4.0,4.0,4.0,4.0,4.0,100.0,,,,,,,,,,,,,,,,,,,,,,,,,,,,,,,,,,,,,,,,,,,,,,,,,,,,,,,,,,,,,,,,,,,,,,,,,,,,,,,,,,,,,,,,,,,,,,,,,,,,,,,,,,,,,,,,,,,,,,,,,,,,,,,,,,,
1725716001.560851,1725716001.562622,244.0,0.0,4339.487305,4302.820313,4289.102539,4284.615234,4256.794922,4373.974121,4135.128418,4267.563965,4264.487305,4263.974121,4497.820313,4554.230957,4387.563965,4446.922852,3403.0,1.0,15.0,,,,0.0,4.0,4.0,4.0,4.0,4.0,4.0,4.0,4.0,4.0,4.0,4.0,4.0,4.0,4.0,100.0,,,,,,,,,,,,,,,,,1.0,0.0,0.0,,,,,,,,,,,,,,,,,,,,,,,,,,,,,,,,,,,,,0.0,0.0,1.0,0.0,1.0,0.0,3.707532,1.52451,0.481138,0.572414,0.130216,1.195176,0.54947,0.244262,0.218258,0.06018,2.658505,2.087655,0.498452,0.214017,0.093336,30.953108,10.765923,4.862473,1.446773,0.595868,0.68424,0.355378,0.22148,0.152496,0.060824,1.024268,0.223664,0.255445,0.057949,0.037335,7.695602,1.834927,0.940689,0.176705,0.052996,1.835393,1.964293,0.174195,0.198529,0.108967,1.243002,1.763928,0.291286,0.151942,0.076905,1.602043,1.822983,0.741841,0.182927,0.089412,2.875104,1.993257,0.796044,0.345018,0.153533,4.70316,3.470263,0.608897,0.410471,0.153832,2.155349,1.789472,1.126815,0.339103,0.221776,3.324856,1.770878,0.637898,0.26322,0.110763
1725716001.564755,1725716001.566526,245.0,0.0,4339.230957,4299.615234,4290.0,4288.974121,4256.922852,4376.794922,4135.641113,4264.487305,4264.743652,4265.897461,4494.230957,4553.974121,4384.615234,4444.743652,3812.0,1.0,15.0,,,,0.0,4.0,4.0,4.0,4.0,4.0,4.0,4.0,4.0,4.0,4.0,4.0,4.0,4.0,4.0,100.0,,,,,,,,,,,,,,,,,,,,,,,,,,,,,,,,,,,,,,,,,,,,,,,,,,,,,,,,,,,,,,,,,,,,,,,,,,,,,,,,,,,,,,,,,,,,,,,,,,,,,,,,,,,,,,,,,,,,,,,,,,,,,,,,,,,
1725716001.568659,1725716001.570431,246.0,0.0,4339.230957,4297.563965,4290.128418,4292.820313,4258.974121,4380.128418,4136.538574,4261.025879,4264.358887,4266.794922,4494.487305,4553.589844,4383.589844,4443.846191,2879.0,1.0,15.0,,,,0.0,4.0,4.0,4.0,4.0,4.0,4.0,4.0,4.0,4.0,4.0,4.0,4.0,4.0,4.0,100.0,,,,,,,,,,,,,,,,,,,,,,,,,,,,,,,,,,,,,,,,,,,,,,,,,,,,,,,,,,,,,,,,,,,,,,,,,,,,,,,,,,,,,,,,,,,,,,,,,,,,,,,,,,,,,,,,,,,,,,,,,,,,,,,,,,,
1725716001.572564,1725716001.574335,247.0,0.0,4340.0,4298.333496,4290.0,4294.487305,4261.538574,4382.692383,4137.179688,4260.641113,4262.820313,4266.410156,4499.102539,4553.589844,4385.384766,4445.641113,3109.0,1.0,15.0,,,,0.0,4.0,4.0,4.0,4.0,4.0,4.0,4.0,4.0,4.0,4.0,4.0,4.0,4.0,4.0,100.0,,,,,,,,,,,,,,,,,,,,,,,,,,,,,,,,,,,,,,,,,,,,,,,,,,,,,,,,,,,,,,,,,,,,,,,,,,,,,,,,,,,,,,,,,,,,,,,,,,,,,,,,,,,,,,,,,,,,,,,,,,,,,,,,,,,
1725716001.576468,1725716001.578239,248.0,0.0,4342.563965,4301.153809,4290.641113,4294.358887,4263.333496,4383.846191,4136.794922,4264.358887,4260.641113,4265.512695,4505.769043,4554.743652,4389.615234,4450.128418,3403.0,1.0,15.0,,,,0.0,4.0,4.0,4.0,4.0,4.0,4.0,4.0,4.0,4.0,4.0,4.0,4.0,4.0,4.0,100.0,,,,,,,,,,,,,,,,,,,,,,,,,,,,,,,,,,,,,,,,,,,,,,,,,,,,,,,,,,,,,,,,,,,,,,,,,,,,,,,,,,,,,,,,,,,,,,,,,,,,,,,,,,,,,,,,,,,,,,,,,,,,,,,,,,,
1725716001.580372,1725716001.582043,249.0,0.0,4346.666504,4304.102539,4292.436035,4293.846191,4263.589844,4383.589844,4135.384766,4270.128418,4259.487305,4265.0,4510.512695,4556.282227,4394.871582,4455.256348,3812.0,1.0,15.0,,,,0.0,4.0,4.0,4.0,4.0,4.0,4.0,4.0,4.0,4.0,4.0,4.0,4.0,4.0,4.0,100.0,,,,,,,,,,,,,,,,,,,,,,,,,,,,,,,,,,,,,,,,,,,,,,,,,,,,,,,,,,,,,,,,,,,,,,,,,,,,,,,,,,,,,,,,,,,,,,,,,,,,,,,,,,,,,,,,,,,,,,,,,,,,,,,,,,,
1725716001.584276,1725716001.585947,250.0,0.0,4350.512695,4304.615234,4293.974121,4294.230957,4262.436035,4382.692383,4133.205078,4274.230957,4260.641113,4265.0,4510.897461,4556.922852,4398.333496,4458.333496,2879.0,1.0,15.0,,,,0.0,4.0,4.0,4.0,4.0,4.0,4.0,4.0,4.0,4.0,4.0,4.0,4.0,4.0,4.0,100.0,,,,,,,,,,,,,,,,,,,,,,,,,,,,,,,,,,,,,,,,,,,,,,,,,,,,,,,,,,,,,,,,,,,,,,,,,,,,,,,,,,,,,,,,,,,,,,,,,,,,,,,,,,,,,,,,,,,,,,,,,,,,,,,,,,,
1725716001.58818,1725716001.589851,251.0,0.0,4352.179688,4302.563965,4293.717773,4295.128418,4261.282227,4381.666504,4130.384766,4274.102539,4263.077148,4265.0,4507.692383,4555.641113,4399.102539,4457.436035,3109.0,1.0,15.0,,,,0.0,4.0,4.0,4.0,4.0,4.0,4.0,4.0,4.0,4.0,4.0,4.0,4.0,4.0,4.0,100.0,,,,,,,,,,,,,,,,,,,,,,,,,,,,,,,,,,,,,,,,,,,,,,,,,,,,,,,,,,,,,,,,,,,,,,,,,,,,,,,,,,,,,,,,,,,,,,,,,,,,,,,,,,,,,,,,,,,,,,,,,,,,,,,,,,,
1725716001.592084,1725716001.593755,252.0,0.0,4351.538574,4299.743652,4291.025879,4295.897461,4260.641113,4380.897461,4127.563965,4270.512695,4264.743652,4264.743652,4504.358887,4553.589844,4397.436035,4452.820313,3403.0,1.0,15.0,,,,0.0,4.0,4.0,4.0,4.0,4.0,4.0,4.0,4.0,4.0,4.0,4.0,4.0,4.0,4.0,100.0,,,,,,,,,,,,,,,,,,,,,,,,,,,,,,,,,,,,,,,,,,,,,,,,,,,,,,,,0.0,0.0,1.0,0.0,1.0,0.0,,,,,,,,,,,,,,,,,,,,,,,,,,,,,,,,,,,,,,,,,,,,,,,,,,,,,,,,,,,,,,,,,,,,,,
1725716001.595988,1725716001.59756,253.0,0.0,4350.256348,4299.102539,4287.692383,4296.025879,4260.641113,4380.641113,4125.0,4266.282227,4263.846191,4264.487305,4503.589844,4552.307617,4394.487305,4447.179688,3812.0,1.0,15.0,,,,0.0,4.0,4.0,4.0,4.0,4.0,4.0,4.0,4.0,4.0,4.0,4.0,4.0,4.0,4.0,100.0,,,,,,,,,,,,,,,,,,,,,,,,,,,,,,,,,,,,,,,,,,,,,,,,,,,,,,,,,,,,,,,,,,,,,,,,,,,,,,,,,,,,,,,,,,,,,,,,,,,,,,,,,,,,,,,,,,,,,,,,,,,,,,,,,,,
1725716001.599892,1725716001.601464,254.0,0.0,4350.0,4301.153809,4286.282227,4296.025879,4261.025879,4381.025879,4122.94873,4263.974121,4260.512695,4264.743652,4505.256348,4552.563965,4391.538574,4443.589844,2879.0,1.0,15.0,,,,0.0,4.0,4.0,4.0,4.0,4.0,4.0,4.0,4.0,4.0,4.0,4.0,4.0,4.0,4.0,100.0,,,,,,,,,,,,,,,,,,,,,,,,,,,,,,,,,,,,,,,,,,,,,,,,,,,,,,,,,,,,,,,,,,,,,,,,,,,,,,,,,,,,,,,,,,,,,,,,,,,,,,,,,,,,,,,,,,,,,,,,,,,,,,,,,,,
1725716001.603796,1725716001.605368,255.0,0.0,4350.641113,4304.102539,4287.563965,4296.410156,4261.794922,4381.794922,4121.666504,4263.717773,4255.769043,4264.230957,4506.282227,4552.820313,4388.974121,4443.077148,15.0,1.0,15.0,,,,0.0,4.0,4.0,4.0,4.0,4.0,4.0,4.0,4.0,4.0,4.0,4.0,4.0,4.0,4.0,100.0,,,,,,,,,,,,,,,,,,,,,,,,,,,,,,,,,,,,,,,,,,,,,,,,,,,,,,,,,,,,,,,,,,,,,,,,,,,,,,,,,,,,,,,,,,,,,,,,,,,,,,,,,,,,,,,,,,,,,,,,,,,,,,,,,,,
1725716001.6077,1725716001.609272,0.0,0.0,4349.487305,4305.0,4290.641113,4297.179688,4262.94873,4382.436035,4120.897461,4263.589844,4251.153809,4261.538574,4503.589844,4550.897461,4386.794922,4444.615234,2682.0,1.0,15.0,,,,0.0,4.0,4.0,4.0,4.0,4.0,4.0,4.0,4.0,4.0,4.0,4.0,4.0,4.0,4.0,100.0,,,,,,,,,,,,,,,,,,,,,,,,,,,,,,,,,,,,,,,,,,,,,,,,,,,,,,,,,,,,,,,,,,,,,,,,,,,,,,,,,,,,,,,,,,,,,,,,,,,,,,,,,,,,,,,,,,,,,,,,,,,,,,,,,,,
1725716001.611605,1725716001.613076,1.0,0.0,4344.487305,4302.820313,4292.692383,4297.179688,4264.230957,4382.436035,4120.512695,4261.666504,4248.077148,4256.153809,4497.179688,4546.025879,4383.846191,4445.512695,2565.0,1.0,15.0,,,,0.0,4.0,4.0,4.0,4.0,4.0,4.0,4.0,4.0,4.0,4.0,4.0,4.0,4.0,4.0,100.0,,,,,,,,,,,,,,,,,,,,,,,,,,,,,,,,,,,,,,,,,,,,,,,,,,,,,,,,,,,,,,,,,,,,,,,,,,,,,,,,,,,,,,,,,,,,,,,,,,,,,,,,,,,,,,,,,,,,,,,,,,,,,,,,,,,
1725716001.615509,1725716001.61698,2.0,0.0,4336.922852,4299.102539,4292.05127,4296.025879,4264.871582,4381.922852,4120.256348,4258.974121,4246.922852,4250.384766,4490.384766,4539.871582,4380.256348,4444.358887,2501.0,1.0,15.0,,,,0.0,4.0,4.0,4.0,4.0,4.0,4.0,4.0,4.0,4.0,4.0,4.0,4.0,4.0,4.0,100.0,,,,,,,,,,,,,,,,,,,,,,,,,,,,,,,,,,,,,,,,,,,,,,,,,,,,,,,,,,,,,,,,,,,,,,,,,,,,,,,,,,,,,,,,,,,,,,,,,,,,,,,,,,,,,,,,,,,,,,,,,,,,,,,,,,,
1725716001.619413,1725716001.620884,3.0,0.0,4330.256348,4296.410156,4288.974121,4294.743652,4264.487305,4381.282227,4120.128418,4258.077148,4247.692383,4247.563965,4487.307617,4535.769043,4377.436035,4441.922852,2458.0,1.0,15.0,,,,0.0,4.0,4.0,4.0,4.0,4.0,4.0,4.0,4.0,4.0,4.0,4.0,4.0,4.0,4.0,100.0,,,,,,,,,,,,,,,,,,,,,,,,,,,,,,,,,,,,,,,,,,,,,,,,,,,,,,,,,,,,,,,,,,,,,,,,,,,,,,,,,,,,,,,,,,,,,,,,,,,,,,,,,,,,,,,,,,,,,,,,,,,,,,,,,,,
1725716001.623317,1725716001.624888,4.0,0.0,4327.563965,4296.666504,4285.641113,4294.102539,4263.333496,4381.025879,4120.0,4261.025879,4248.974121,4249.743652,4488.846191,4535.897461,4376.922852,4440.0,2438.0,1.0,15.0,,,,0.0,4.0,4.0,4.0,4.0,4.0,4.0,4.0,4.0,4.0,4.0,4.0,4.0,4.0,4.0,100.0,,,,,,,,,,,,,,,,,,,,,,,,,,,,,,,,,,,,,,,,,,,,,,,,,,,,,,,,0.0,0.0,1.0,0.0,1.0,0.0,,,,,,,,,,,,,,,,,,,,,,,,,,,,,,,,,,,,,,,,,,,,,,,,,,,,,,,,,,,,,,,,,,,,,,
1725716001.627221,1725716001.628792,5.0,0.0,4329.102539,4298.974121,4284.230957,4294.230957,4262.436035,4381.410156,4119.487305,4266.794922,4250.0,4255.641113,4492.436035,4539.102539,4378.974121,4439.871582,2388.0,1.0,15.0,,,,0.0,4.0,4.0,4.0,4.0,4.0,4.0,4.0,4.0,4.0,4.0,4.0,4.0,4.0,4.0,100.0,,,,,,,,,,,,,,,,,,,,,,,,,,,,,,,,,,,,,,,,,,,,,,,,,,,,,,,,,,,,,,,,,,,,,,,,,,,,,,,,,,,,,,,,,,,,,,,,,,,,,,,,,,,,,,,,,,,,,,,,,,,,,,,,,,,
1725716001.631125,1725716001.632696,6.0,0.0,4332.05127,4301.282227,4285.641113,4294.487305,4262.94873,4381.922852,4118.846191,4271.410156,4250.641113,4261.794922,4494.871582,4542.05127,4381.922852,4441.282227,2444.0,1.0,15.0,,,,0.0,4.0,4.0,4.0,4.0,4.0,4.0,4.0,4.0,4.0,4.0,4.0,4.0,4.0,4.0,100.0,,,,,,,,,,,,,,,,,,,,,,,,,,,,,,,,,,,,,,,,,,,,,,,,,,,,,,,,,,,,,,,,,,,,,,,,,,,,,,,,,,,,,,,,,,,,,,,,,,,,,,,,,,,,,,,,,,,,,,,,,,,,,,,,,,,
1725716001.635029,1725716001.6367,7.0,0.0,4333.333496,4301.794922,4289.102539,4294.615234,4264.743652,4382.05127,4118.846191,4272.05127,4251.410156,4265.0,4494.871582,4542.179688,4383.974121,4442.820313,2489.0,1.0,15.0,,,,0.0,4.0,4.0,4.0,4.0,4.0,4.0,4.0,4.0,4.0,4.0,4.0,4.0,4.0,4.0,100.0,,,,,,,,,,,,,,,,,,,,,,,,,,,,,,,,,,,,,,,,,,,,,,,,,,,,,,,,,,,,,,,,,,,,,,,,,,,,,,,,,,,,,,,,,,,,,,,,,,,,,,,,,,,,,,,,,,,,,,,,,,,,,,,,,,,
1725716001.638933,1725716001.640605,8.0,0.0,4331.922852,4300.641113,4292.563965,4295.256348,4266.922852,4382.05127,4119.743652,4268.846191,4252.307617,4264.102539,4493.077148,4540.128418,4384.358887,4443.589844,2468.0,1.0,15.0,,,,0.0,4.0,4.0,4.0,4.0,4.0,4.0,4.0,4.0,4.0,4.0,4.0,4.0,4.0,4.0,100.0,,,,,,,,,,,,,,,,,,,,,,,,,,,,,,,,,,,,,,,,,,,,,,,,,,,,,,,,,,,,,,,,,,,,,,,,,,,,,,,,,,,,,,,,,,,,,,,,,,,,,,,,,,,,,,,,,,,,,,,,,,,,,,,,,,,
1725716001.642837,1725716001.644509,9.0,0.0,4328.717773,4299.743652,4294.230957,4297.05127,4268.205078,4382.563965,4120.897461,4264.743652,4252.820313,4260.641113,4491.025879,4538.205078,4383.461426,4443.717773,2556.0,1.0,15.0,,,,0.0,4.0,4.0,4.0,4.0,4.0,4.0,4.0,4.0,4.0,4.0,4.0,4.0,4.0,4.0,100.0,,,,,,,,,,,,,,,,,,,,,,,,,,,,,,,,,,,,,,,,,,,,,,,,,,,,,,,,,,,,,,,,,,,,,,,,,,,,,,,,,,,,,,,,,,,,,,,,,,,,,,,,,,,,,,,,,,,,,,,,,,,,,,,,,,,
1725716001.646742,1725716001.648413,10.0,0.0,4325.512695,4301.153809,4293.333496,4300.384766,4267.94873,4383.974121,4121.025879,4262.820313,4252.179688,4257.307617,4490.0,4539.102539,4382.436035,4443.846191,2879.0,1.0,15.0,,,,0.0,4.0,4.0,4.0,4.0,4.0,4.0,4.0,4.0,4.0,4.0,4.0,4.0,4.0,4.0,100.0,,,,,,,,,,,,,,,,,,,,,,,,,,,,,,,,,,,,,,,,,,,,,,,,,,,,,,,,,,,,,,,,,,,,,,,,,,,,,,,,,,,,,,,,,,,,,,,,,,,,,,,,,,,,,,,,,,,,,,,,,,,,,,,,,,,
1725716001.650646,1725716001.652317,11.0,0.0,4322.820313,4304.871582,4290.897461,4303.846191,4266.282227,4386.025879,4119.102539,4263.589844,4250.641113,4256.410156,4489.743652,4542.436035,4381.794922,4443.974121,3109.0,1.0,15.0,,,,0.0,4.0,4.0,4.0,4.0,4.0,4.0,4.0,4.0,4.0,4.0,4.0,4.0,4.0,4.0,100.0,,,,,,,,,,,,,,,,,,,,,,,,,,,,,,,,,,,,,,,,,,,,,,,,,,,,,,,,,,,,,,,,,,,,,,,,,,,,,,,,,,,,,,,,,,,,,,,,,,,,,,,,,,,,,,,,,,,,,,,,,,,,,,,,,,,
1725716001.65455,1725716001.656221,12.0,0.0,4320.384766,4309.102539,4288.974121,4306.153809,4264.487305,4387.179688,4115.256348,4265.0,4249.358887,4257.94873,4489.871582,4545.641113,4381.794922,4444.358887,3411.0,1.0,15.0,,,,0.0,4.0,4.0,4.0,4.0,4.0,4.0,4.0,4.0,4.0,4.0,4.0,4.0,4.0,4.0,100.0,,,,,,,,,,,,,,,,,,,,,,,,,,,,,,,,,,,,,,,,,,,,,,,,,,,,,,,,0.0,0.0,1.0,0.0,1.0,0.0,,,,,,,,,,,,,,,,,,,,,,,,,,,,,,,,,,,,,,,,,,,,,,,,,,,,,,,,,,,,,,,,,,,,,,
1725716001.658454,1725716001.660025,13.0,0.0,4317.563965,4311.538574,4289.102539,4306.794922,4263.461426,4386.538574,4110.897461,4265.641113,4250.256348,4260.641113,4489.871582,4546.025879,4382.179688,4444.743652,3812.0,1.0,15.0,,,,0.0,4.0,4.0,4.0,4.0,4.0,4.0,4.0,4.0,4.0,4.0,4.0,4.0,4.0,4.0,100.0,,,,,,,,,,,,,,,,,,,,,,,,,,,,,,,,,,,,,,,,,,,,,,,,,,,,,,,,,,,,,,,,,,,,,,,,,,,,,,,,,,,,,,,,,,,,,,,,,,,,,,,,,,,,,,,,,,,,,,,,,,,,,,,,,,,
1725716001.662358,1725716001.663929,14.0,0.0,4314.358887,4310.769043,4290.641113,4306.538574,4263.461426,4384.358887,4107.820313,4265.641113,4253.333496,4262.436035,4489.871582,4543.333496,4382.307617,4444.871582,2879.0,1.0,15.0,,,,0.0,4.0,4.0,4.0,4.0,4.0,4.0,4.0,4.0,4.0,4.0,4.0,4.0,4.0,4.0,100.0,,,,,,,,,,,,,,,,,,,,,,,,,,,,,,,,,,,,,,,,,,,,,,,,,,,,,,,,,,,,,,,,,,,,,,,,,,,,,,,,,,,,,,,,,,,,,,,,,,,,,,,,,,,,,,,,,,,,,,,,,,,,,,,,,,,
1725716001.666262,1725716001.667833,15.0,0.0,4311.025879,4307.563965,4292.05127,4306.794922,4263.974121,4382.179688,4106.794922,4267.05127,4257.179688,4262.436035,4490.641113,4539.871582,4382.05127,4444.871582,3109.0,1.0,15.0,,,,0.0,4.0,4.0,4.0,4.0,4.0,4.0,4.0,4.0,4.0,4.0,4.0,4.0,4.0,4.0,100.0,,,,,,,,,,,,,,,,,,,,,,,,,,,,,,,,,,,,,,,,,,,,,,,,,,,,,,,,,,,,,,,,,,,,,,,,,,,,,,,,,,,,,,,,,,,,,,,,,,,,,,,,,,,,,,,,,,,,,,,,,,,,,,,,,,,
1725716001.670166,1725716001.671638,16.0,0.0,4308.589844,4303.717773,4291.922852,4307.94873,4264.230957,4381.666504,4107.05127,4270.512695,4259.871582,4261.153809,4491.794922,4539.102539,4381.153809,4444.358887,3411.0,1.0,15.0,,,,0.0,4.0,4.0,4.0,4.0,4.0,4.0,4.0,4.0,4.0,4.0,4.0,4.0,4.0,4.0,100.0,,,,,,,,,,,,,,,,,,,,,,,,,,,,,,,,,,,,,,,,,,,,,,,,,,,,,,,,,,,,,,,,,,,,,,,,,,,,,,,,,,,,,,,,,,,,,,,,,,,,,,,,,,,,,,,,,,,,,,,,,,,,,,,,,,,
1725716001.67407,1725716001.675542,17.0,0.0,4308.077148,4301.410156,4290.0,4309.487305,4264.230957,4383.205078,4106.922852,4274.871582,4260.641113,4259.615234,4492.179688,4541.922852,4379.743652,4443.205078,3812.0,1.0,15.0,,,,0.0,4.0,4.0,4.0,4.0,4.0,4.0,4.0,4.0,4.0,4.0,4.0,4.0,4.0,4.0,100.0,,,,,,,,,,,,,,,,,,,,,,,,,,,,,,,,,,,,,,,,,,,,,,,,,,,,,,,,,,,,,,,,,,,,,,,,,,,,,,,,,,,,,,,,,,,,,,,,,,,,,,,,,,,,,,,,,,,,,,,,,,,,,,,,,,,
1725716001.677974,1725716001.679446,18.0,0.0,4309.615234,4301.794922,4288.077148,4310.512695,4264.230957,4386.153809,4105.256348,4277.820313,4260.128418,4258.461426,4491.538574,4546.794922,4378.205078,4441.794922,2879.0,1.0,15.0,,,,0.0,4.0,4.0,4.0,4.0,4.0,4.0,4.0,4.0,4.0,4.0,4.0,4.0,4.0,4.0,100.0,,,,,,,,,,,,,,,,,,,,,,,,,,,,,,,,,,,,,,,,,,,,,,,,,,,,,,,,,,,,,,,,,,,,,,,,,,,,,,,,,,,,,,,,,,,,,,,,,,,,,,,,,,,,,,,,,,,,,,,,,,,,,,,,,,,
1725716001.681878,1725716001.68335,19.0,0.0,4312.05127,4304.615234,4288.077148,4310.384766,4264.487305,4388.461426,4102.94873,4277.692383,4259.615234,4258.205078,4491.410156,4551.153809,4377.820313,4441.025879,3109.0,1.0,15.0,,,,0.0,4.0,4.0,4.0,4.0,4.0,4.0,4.0,4.0,4.0,4.0,4.0,4.0,4.0,4.0,100.0,,,,,,,,,,,,,,,,,,,,,,,,,,,,,,,,,,,,,,,,,,,,,,,,,,,,,,,,,,,,,,,,,,,,,,,,,,,,,,,,,,,,,,,,,,,,,,,,,,,,,,,,,,,,,,,,,,,,,,,,,,,,,,,,,,,
1725716001.685783,1725716001.687154,20.0,0.0,4313.974121,4308.205078,4290.769043,4309.871582,4265.0,4389.358887,4101.153809,4275.128418,4260.384766,4259.102539,4493.077148,4553.461426,4379.615234,4441.794922,3411.0,1.0,15.0,,,,0.0,4.0,4.0,4.0,4.0,4.0,4.0,4.0,4.0,4.0,4.0,4.0,4.0,4.0,4.0,100.0,,,,,,,,,,,,,,,,,1.0,0.0,0.0,,,,,,,,,,,,,,,,,,,,,,,,,,,,,,,,,,,,,0.0,0.0,1.0,0.0,1.0,0.0,4.029431,0.962346,0.500457,0.607668,0.135632,1.441345,0.524602,0.296049,0.222643,0.059734,2.519712,2.131025,0.463767,0.227491,0.08897,24.001617,7.423306,3.946897,1.157415,0.501723,0.617531,0.283342,0.236738,0.149528,0.05732,0.857166,0.157404,0.219102,0.06552,0.042933,5.474915,1.603427,0.714356,0.183188,0.049744,1.717358,1.702761,0.124889,0.206534,0.103561,1.387478,1.49287,0.259495,0.166039,0.078657,1.910571,1.703173,0.810306,0.215635,0.086927,3.036907,1.925209,0.908124,0.400889,0.165997,5.02283,2.930373,0.649768,0.35763,0.156778,2.562211,1.699911,1.11658,0.384108,0.204168,3.766009,1.457916,0.70447,0.282669,0.10955
1725716001.689687,1725716001.691058,21.0,0.0,4315.384766,4311.025879,4294.487305,4310.0,4265.128418,4388.974121,4101.282227,4272.692383,4262.436035,4260.384766,4496.538574,4553.974121,4383.077148,4444.871582,3812.0,1.0,15.0,,,,0.0,4.0,4.0,4.0,4.0,4.0,4.0,4.0,4.0,4.0,4.0,4.0,4.0,4.0,4.0,100.0,,,,,,,,,,,,,,,,,,,,,,,,,,,,,,,,,,,,,,,,,,,,,,,,,,,,,,,,,,,,,,,,,,,,,,,,,,,,,,,,,,,,,,,,,,,,,,,,,,,,,,,,,,,,,,,,,,,,,,,,,,,,,,,,,,,
1725716001.693591,1725716001.694962,22.0,0.0,4316.794922,4311.666504,4296.922852,4310.641113,4265.0,4388.461426,4102.563965,4273.205078,4264.743652,4261.666504,4500.384766,4554.743652,4386.794922,4449.615234,2879.0,1.0,15.0,,,,0.0,4.0,4.0,4.0,4.0,4.0,4.0,4.0,4.0,4.0,4.0,4.0,4.0,4.0,4.0,100.0,,,,,,,,,,,,,,,,,,,,,,,,,,,,,,,,,,,,,,,,,,,,,,,,,,,,,,,,,,,,,,,,,,,,,,,,,,,,,,,,,,,,,,,,,,,,,,,,,,,,,,,,,,,,,,,,,,,,,,,,,,,,,,,,,,,
1725716001.697495,1725716001.698866,23.0,0.0,4319.358887,4310.256348,4297.05127,4311.153809,4264.487305,4388.205078,4103.974121,4277.179688,4266.410156,4262.94873,4504.102539,4557.94873,4390.0,4454.487305,3109.0,1.0,15.0,,,,0.0,4.0,4.0,4.0,4.0,4.0,4.0,4.0,4.0,4.0,4.0,4.0,4.0,4.0,4.0,100.0,,,,,,,,,,,,,,,,,,,,,,,,,,,,,,,,,,,,,,,,,,,,,,,,,,,,,,,,,,,,,,,,,,,,,,,,,,,,,,,,,,,,,,,,,,,,,,,,,,,,,,,,,,,,,,,,,,,,,,,,,,,,,,,,,,,
1725716001.701399,1725716001.702671,24.0,0.0,4322.307617,4308.589844,4295.769043,4311.025879,4264.487305,4387.820313,4104.230957,4282.820313,4267.307617,4264.743652,4507.820313,4563.846191,4393.333496,4458.333496,3411.0,1.0,15.0,,,,0.0,4.0,4.0,4.0,4.0,4.0,4.0,4.0,4.0,4.0,4.0,4.0,4.0,4.0,4.0,100.0,,,,,,,,,,,,,,,,,,,,,,,,,,,,,,,,,,,,,,,,,,,,,,,,,,,,,,,,,,,,,,,,,,,,,,,,,,,,,,,,,,,,,,,,,,,,,,,,,,,,,,,,,,,,,,,,,,,,,,,,,,,,,,,,,,,
1725716001.705303,1725716001.706575,25.0,0.0,4324.358887,4308.333496,4294.743652,4310.641113,4265.128418,4387.436035,4103.717773,4286.538574,4267.820313,4267.563965,4511.538574,4570.641113,4397.436035,4460.384766,3812.0,1.0,15.0,,,,0.0,4.0,4.0,4.0,4.0,4.0,4.0,4.0,4.0,4.0,4.0,4.0,4.0,4.0,4.0,100.0,,,,,,,,,,,,,,,,,,,,,,,,,,,,,,,,,,,,,,,,,,,,,,,,,,,,,,,,,,,,,,,,,,,,,,,,,,,,,,,,,,,,,,,,,,,,,,,,,,,,,,,,,,,,,,,,,,,,,,,,,,,,,,,,,,,
1725716001.709207,1725716001.710479,26.0,0.0,4323.846191,4309.487305,4295.256348,4311.282227,4266.282227,4387.692383,4103.205078,4286.153809,4267.94873,4270.641113,4514.871582,4575.384766,4401.538574,4460.897461,2879.0,1.0,15.0,,,,0.0,4.0,4.0,4.0,4.0,4.0,4.0,4.0,4.0,4.0,4.0,4.0,4.0,4.0,4.0,100.0,,,,,,,,,,,,,,,,,,,,,,,,,,,,,,,,,,,,,,,,,,,,,,,,,,,,,,,,,,,,,,,,,,,,,,,,,,,,,,,,,,,,,,,,,,,,,,,,,,,,,,,,,,,,,,,,,,,,,,,,,,,,,,,,,,,
1725716001.713111,1725716001.714483,27.0,0.0,4320.897461,4311.025879,4296.922852,4313.333496,4267.436035,4389.102539,4103.717773,4282.692383,4267.436035,4272.436035,4516.794922,4576.410156,4404.102539,4460.641113,3109.0,1.0,15.0,,,,0.0,4.0,4.0,4.0,4.0,4.0,4.0,4.0,4.0,4.0,4.0,4.0,4.0,4.0,4.0,100.0,,,,,,,,,,,,,,,,,,,,,,,,,,,,,,,,,,,,,,,,,,,,,,,,,,,,,,,,,,,,,,,,,,,,,,,,,,,,,,,,,,,,,,,,,,,,,,,,,,,,,,,,,,,,,,,,,,,,,,,,,,,,,,,,,,,
1725716001.717015,1725716001.718387,28.0,0.0,4316.794922,4312.05127,4298.205078,4316.025879,4268.205078,4391.153809,4104.615234,4279.615234,4266.538574,4271.794922,4516.538574,4574.358887,4403.589844,4460.641113,3411.0,1.0,15.0,,,,0.0,4.0,4.0,4.0,4.0,4.0,4.0,4.0,4.0,4.0,4.0,4.0,4.0,4.0,4.0,100.0,,,,,,,,,,,,,,,,,,,,,,,,,,,,,,,,,,,,,,,,,,,,,,,,,,,,,,,,0.0,0.0,1.0,0.0,1.0,0.0,,,,,,,,,,,,,,,,,,,,,,,,,,,,,,,,,,,,,,,,,,,,,,,,,,,,,,,,,,,,,,,,,,,,,,
1725716001.720919,1725716001.722291,29.0,0.0,4313.077148,4312.436035,4298.077148,4318.589844,4268.333496,4392.179688,4105.256348,4280.128418,4266.025879,4269.230957,4514.102539,4571.666504,4400.769043,4461.538574,3812.0,1.0,15.0,,,,0.0,4.0,4.0,4.0,4.0,4.0,4.0,4.0,4.0,4.0,4.0,4.0,4.0,4.0,4.0,100.0,,,,,,,,,,,,,,,,,,,,,,,,,,,,,,,,,,,,,,,,,,,,,,,,,,,,,,,,,,,,,,,,,,,,,,,,,,,,,,,,,,,,,,,,,,,,,,,,,,,,,,,,,,,,,,,,,,,,,,,,,,,,,,,,,,,
1725716001.724824,1725716001.726195,30.0,0.0,4310.512695,4312.563965,4296.794922,4320.128418,4267.94873,4391.538574,4105.0,4284.743652,4266.666504,4266.025879,4511.025879,4570.384766,4397.436035,4462.692383,2879.0,1.0,15.0,,,,0.0,4.0,4.0,4.0,4.0,4.0,4.0,4.0,4.0,4.0,4.0,4.0,4.0,4.0,4.0,100.0,,,,,,,,,,,,,,,,,,,,,,,,,,,,,,,,,,,,,,,,,,,,,,,,,,,,,,,,,,,,,,,,,,,,,,,,,,,,,,,,,,,,,,,,,,,,,,,,,,,,,,,,,,,,,,,,,,,,,,,,,,,,,,,,,,,
1725716001.728728,1725716001.730199,31.0,0.0,4308.974121,4312.820313,4295.641113,4320.256348,4267.179688,4390.256348,4104.358887,4290.769043,4268.589844,4264.230957,4509.230957,4571.153809,4395.0,4463.077148,3109.0,1.0,15.0,,,,0.0,4.0,4.0,4.0,4.0,4.0,4.0,4.0,4.0,4.0,4.0,4.0,4.0,4.0,4.0,100.0,,,,,,,,,,,,,,,,,,,,,,,,,,,,,,,,,,,,,,,,,,,,,,,,,,,,,,,,,,,,,,,,,,,,,,,,,,,,,,,,,,,,,,,,,,,,,,,,,,,,,,,,,,,,,,,,,,,,,,,,,,,,,,,,,,,
1725716001.732632,1725716001.734103,32.0,0.0,4307.436035,4312.94873,4295.384766,4319.743652,4266.922852,4390.128418,4103.846191,4294.743652,4270.769043,4264.743652,4509.230957,4572.179688,4392.94873,4461.153809,0.0,1.0,15.0,,,,0.0,4.0,4.0,4.0,4.0,4.0,4.0,4.0,4.0,4.0,4.0,4.0,4.0,4.0,4.0,100.0,,,,,,,,,,,,,,,,,,,,,,,,,,,,,,,,,,,,,,,,,,,,,,,,,,,,,,,,,,,,,,,,,,,,,,,,,,,,,,,,,,,,,,,,,,,,,,,,,,,,,,,,,,,,,,,,,,,,,,,,,,,,,,,,,,,
1725716001.736536,1725716001.738007,33.0,0.0,4304.743652,4312.179688,4295.641113,4318.846191,4267.820313,4392.05127,4103.846191,4293.974121,4271.282227,4266.538574,4509.615234,4571.025879,4389.871582,4456.666504,0.0,1.0,15.0,,,,0.0,4.0,4.0,4.0,4.0,4.0,4.0,4.0,4.0,4.0,4.0,4.0,4.0,4.0,4.0,100.0,,,,,,,,,,,,,,,,,,,,,,,,,,,,,,,,,,,,,,,,,,,,,,,,,,,,,,,,,,,,,,,,,,,,,,,,,,,,,,,,,,,,,,,,,,,,,,,,,,,,,,,,,,,,,,,,,,,,,,,,,,,,,,,,,,,
1725716001.74044,1725716001.742011,34.0,0.0,4301.153809,4310.512695,4294.743652,4317.307617,4269.102539,4394.615234,4104.358887,4288.717773,4269.230957,4267.563965,4508.333496,4566.538574,4384.871582,4450.384766,0.0,1.0,15.0,,,,0.0,4.0,4.0,4.0,4.0,4.0,4.0,4.0,4.0,4.0,4.0,4.0,4.0,4.0,4.0,100.0,,,,,,,,,,,,,,,,,,,,,,,,,,,,,,,,,,,,,,,,,,,,,,,,,,,,,,,,,,,,,,,,,,,,,,,,,,,,,,,,,,,,,,,,,,,,,,,,,,,,,,,,,,,,,,,,,,,,,,,,,,,,,,,,,,,
1725716001.744344,1725716001.745915,35.0,0.0,4297.563965,4308.205078,4292.307617,4315.0,4269.615234,4395.512695,4105.0,4282.05127,4265.769043,4266.538574,4505.128418,4560.256348,4379.358887,4444.358887,0.0,1.0,15.0,,,,0.0,4.0,4.0,4.0,4.0,4.0,4.0,4.0,4.0,4.0,4.0,4.0,4.0,4.0,4.0,100.0,,,,,,,,,,,,,,,,,,,,,,,,,,,,,,,,,,,,,,,,,,,,,,,,,,,,,,,,,,,,,,,,,,,,,,,,,,,,,,,,,,,,,,,,,,,,,,,,,,,,,,,,,,,,,,,,,,,,,,,,,,,,,,,,,,,
1725716001.748248,1725716001.74982,36.0,0.0,4295.256348,4306.410156,4289.358887,4312.563965,4269.102539,4393.589844,4105.769043,4277.563965,4263.077148,4264.358887,4501.282227,4555.256348,4375.769043,4440.897461,0.0,1.0,15.0,,,,0.0,4.0,4.0,4.0,4.0,4.0,4.0,4.0,4.0,4.0,4.0,4.0,4.0,4.0,4.0,100.0,,,,,,,,,,,,,,,,,,,,,,,,,,,,,,,,,,,,,,,,,,,,,,,,,,,,,,,,0.0,0.0,1.0,0.0,1.0,0.0,,,,,,,,,,,,,,,,,,,,,,,,,,,,,,,,,,,,,,,,,,,,,,,,,,,,,,,,,,,,,,,,,,,,,,
1725716001.752152,1725716001.753724,37.0,0.0,4293.846191,4306.153809,4287.94873,4311.153809,4267.820313,4389.743652,4106.666504,4277.692383,4262.94873,4262.94873,4499.615234,4553.589844,4375.384766,4440.641113,0.0,1.0,15.0,,,,0.0,4.0,4.0,4.0,4.0,4.0,4.0,4.0,4.0,4.0,4.0,4.0,4.0,4.0,4.0,100.0,,,,,,,,,,,,,,,,,,,,,,,,,,,,,,,,,,,,,,,,,,,,,,,,,,,,,,,,,,,,,,,,,,,,,,,,,,,,,,,,,,,,,,,,,,,,,,,,,,,,,,,,,,,,,,,,,,,,,,,,,,,,,,,,,,,
1725716001.756056,1725716001.757628,38.0,0.0,4292.05127,4307.436035,4289.102539,4311.538574,4266.922852,4386.922852,4107.692383,4281.794922,4264.743652,4263.205078,4500.897461,4554.615234,4377.692383,4443.077148,0.0,1.0,15.0,,,,0.0,4.0,4.0,4.0,4.0,4.0,4.0,4.0,4.0,4.0,4.0,4.0,4.0,4.0,4.0,100.0,,,,,,,,,,,,,,,,,,,,,,,,,,,,,,,,,,,,,,,,,,,,,,,,,,,,,,,,,,,,,,,,,,,,,,,,,,,,,,,,,,,,,,,,,,,,,,,,,,,,,,,,,,,,,,,,,,,,,,,,,,,,,,,,,,,
1725716001.759961,1725716001.761532,39.0,0.0,4289.358887,4309.487305,4292.05127,4313.974121,4267.563965,4387.692383,4108.846191,4287.179688,4266.153809,4264.615234,4504.102539,4556.666504,4380.512695,4446.153809,0.0,1.0,15.0,,,,0.0,4.0,4.0,4.0,4.0,4.0,4.0,4.0,4.0,4.0,4.0,4.0,4.0,4.0,4.0,100.0,,,,,,,,,,,,,,,,,,,,,,,,,,,,,,,,,,,,,,,,,,,,,,,,,,,,,,,,,,,,,,,,,,,,,,,,,,,,,,,,,,,,,,,,,,,,,,,,,,,,,,,,,,,,,,,,,,,,,,,,,,,,,,,,,,,
1725716001.763865,1725716001.765336,40.0,0.0,4286.666504,4311.025879,4295.256348,4317.436035,4270.512695,4391.922852,4109.871582,4290.256348,4265.769043,4265.769043,4506.922852,4557.820313,4382.820313,4447.94873,0.0,1.0,15.0,,,,0.0,4.0,4.0,4.0,4.0,4.0,4.0,4.0,4.0,4.0,4.0,4.0,4.0,4.0,4.0,100.0,,,,,,,,,,,,,,,,,,,,,,,,,,,,,,,,,,,,,,,,,,,,,,,,,,,,,,,,,,,,,,,,,,,,,,,,,,,,,,,,,,,,,,,,,,,,,,,,,,,,,,,,,,,,,,,,,,,,,,,,,,,,,,,,,,,
1725716001.767769,1725716001.76924,41.0,0.0,4284.615234,4312.05127,4296.794922,4320.256348,4274.743652,4396.922852,4111.282227,4289.230957,4264.102539,4266.282227,4507.820313,4557.563965,4385.0,4447.94873,0.0,1.0,15.0,,,,0.0,4.0,4.0,4.0,4.0,4.0,4.0,4.0,4.0,4.0,4.0,4.0,4.0,4.0,4.0,100.0,,,,,,,,,,,,,,,,,,,,,,,,,,,,,,,,,,,,,,,,,,,,,,,,,,,,,,,,,,,,,,,,,,,,,,,,,,,,,,,,,,,,,,,,,,,,,,,,,,,,,,,,,,,,,,,,,,,,,,,,,,,,,,,,,,,
1725716001.771673,1725716001.773244,42.0,0.0,4283.077148,4312.820313,4296.410156,4321.025879,4277.94873,4399.102539,4113.205078,4284.743652,4262.563965,4266.538574,4507.05127,4556.794922,4387.307617,4447.05127,0.0,1.0,15.0,,,,0.0,4.0,4.0,4.0,4.0,4.0,4.0,4.0,4.0,4.0,4.0,4.0,4.0,4.0,4.0,100.0,,,,,,,,,,,,,,,,,,,,,,,,,,,,,,,,,,,,,,,,,,,,,,,,,,,,,,,,,,,,,,,,,,,,,,,,,,,,,,,,,,,,,,,,,,,,,,,,,,,,,,,,,,,,,,,,,,,,,,,,,,,,,,,,,,,
1725716001.775577,1725716001.777148,43.0,0.0,4280.769043,4313.846191,4294.615234,4319.743652,4278.333496,4397.179688,4116.025879,4279.743652,4261.922852,4266.922852,4505.897461,4556.666504,4389.358887,4446.282227,0.0,1.0,15.0,,,,0.0,4.0,4.0,4.0,4.0,4.0,4.0,4.0,4.0,4.0,4.0,4.0,4.0,4.0,4.0,100.0,,,,,,,,,,,,,,,,,,,,,,,,,,,,,,,,,,,,,,,,,,,,,,,,,,,,,,,,,,,,,,,,,,,,,,,,,,,,,,,,,,,,,,,,,,,,,,,,,,,,,,,,,,,,,,,,,,,,,,,,,,,,,,,,,,,
1725716001.779481,1725716001.781052,44.0,0.0,4276.666504,4314.615234,4293.205078,4317.563965,4275.769043,4392.94873,4119.230957,4277.05127,4261.538574,4266.794922,4504.871582,4557.436035,4389.230957,4446.153809,0.0,1.0,15.0,,,,0.0,4.0,4.0,4.0,4.0,4.0,4.0,4.0,4.0,4.0,4.0,4.0,4.0,4.0,4.0,100.0,,,,,,,,,,,,,,,,,,,,,,,,,,,,,,,,,,,,,,,,,,,,,,,,,,,,,,,,0.0,0.0,1.0,0.0,1.0,0.0,,,,,,,,,,,,,,,,,,,,,,,,,,,,,,,,,,,,,,,,,,,,,,,,,,,,,,,,,,,,,,,,,,,,,,
1725716001.783385,1725716001.784957,45.0,0.0,4271.025879,4313.974121,4293.589844,4315.897461,4271.794922,4389.487305,4121.666504,4277.436035,4259.871582,4265.128418,4503.589844,4558.205078,4385.897461,4446.025879,0.0,1.0,15.0,,,,0.0,4.0,4.0,4.0,4.0,4.0,4.0,4.0,4.0,4.0,4.0,4.0,4.0,4.0,4.0,100.0,,,,,,,,,,,,,,,,,,,,,,,,,,,,,,,,,,,,,,,,,,,,,,,,,,,,,,,,,,,,,,,,,,,,,,,,,,,,,,,,,,,,,,,,,,,,,,,,,,,,,,,,,,,,,,,,,,,,,,,,,,,,,,,,,,,
1725716001.787289,1725716001.788861,46.0,0.0,4265.128418,4310.512695,4295.384766,4314.871582,4267.692383,4387.94873,4122.692383,4278.974121,4256.538574,4261.666504,4500.897461,4557.436035,4379.871582,4444.871582,0.0,1.0,15.0,,,,0.0,4.0,4.0,4.0,4.0,4.0,4.0,4.0,4.0,4.0,4.0,4.0,4.0,4.0,4.0,100.0,,,,,,,,,,,,,,,,,,,,,,,,,,,,,,,,,,,,,,,,,,,,,,,,,,,,,,,,,,,,,,,,,,,,,,,,,,,,,,,,,,,,,,,,,,,,,,,,,,,,,,,,,,,,,,,,,,,,,,,,,,,,,,,,,,,
1725716001.791193,1725716001.792665,47.0,0.0,4260.128418,4304.487305,4296.025879,4313.077148,4264.358887,4387.563965,4121.666504,4279.615234,4252.820313,4257.179688,4496.410156,4554.615234,4373.589844,4442.05127,0.0,1.0,15.0,,,,0.0,4.0,4.0,4.0,4.0,4.0,4.0,4.0,4.0,4.0,4.0,4.0,4.0,4.0,4.0,100.0,,,,,,,,,,,,,,,,,,,,,,,,,,,,,,,,,,,,,,,,,,,,,,,,,,,,,,,,,,,,,,,,,,,,,,,,,,,,,,,,,,,,,,,,,,,,,,,,,,,,,,,,,,,,,,,,,,,,,,,,,,,,,,,,,,,
1725716001.795097,1725716001.796569,48.0,0.0,4255.256348,4297.436035,4292.436035,4309.358887,4261.538574,4386.410156,4118.205078,4277.307617,4249.615234,4252.436035,4490.256348,4549.230957,4368.461426,4437.179688,0.0,1.0,15.0,,,,0.0,4.0,4.0,4.0,4.0,4.0,4.0,4.0,4.0,4.0,4.0,4.0,4.0,4.0,4.0,100.0,,,,,,,,,,,,,,,,,,,,,,,,,,,,,,,,,,,,,,,,,,,,,,,,,,,,,,,,,,,,,,,,,,,,,,,,,,,,,,,,,,,,,,,,,,,,,,,,,,,,,,,,,,,,,,,,,,,,,,,,,,,,,,,,,,,
1725716001.799001,1725716001.800473,49.0,0.0,4248.333496,4290.641113,4282.94873,4303.205078,4257.94873,4383.717773,4113.205078,4272.05127,4246.666504,4247.179688,4482.563965,4541.153809,4363.333496,4430.256348,0.0,1.0,15.0,,,,0.0,4.0,4.0,4.0,4.0,4.0,4.0,4.0,4.0,4.0,4.0,4.0,4.0,4.0,4.0,100.0,,,,,,,,,,,,,,,,,,,,,,,,,,,,,,,,,,,,,,,,,,,,,,,,,,,,,,,,,,,,,,,,,,,,,,,,,,,,,,,,,,,,,,,,,,,,,,,,,,,,,,,,,,,,,,,,,,,,,,,,,,,,,,,,,,,
1725716001.802905,1725716001.804377,50.0,0.0,4237.307617,4283.846191,4269.358887,4295.384766,4252.692383,4380.0,4108.077148,4265.0,4242.436035,4240.641113,4473.846191,4530.256348,4355.256348,4420.897461,0.0,1.0,15.0,,,,0.0,4.0,4.0,4.0,4.0,4.0,4.0,4.0,4.0,4.0,4.0,4.0,4.0,4.0,4.0,100.0,,,,,,,,,,,,,,,,,,,,,,,,,,,,,,,,,,,,,,,,,,,,,,,,,,,,,,,,,,,,,,,,,,,,,,,,,,,,,,,,,,,,,,,,,,,,,,,,,,,,,,,,,,,,,,,,,,,,,,,,,,,,,,,,,,,
1725716001.80681,1725716001.808181,51.0,0.0,4222.179688,4276.282227,4254.871582,4287.692383,4245.512695,4376.282227,4104.487305,4258.333496,4236.025879,4232.563965,4464.230957,4517.179688,4342.94873,4410.0,0.0,1.0,15.0,,,,0.0,4.0,4.0,4.0,4.0,4.0,4.0,4.0,4.0,4.0,4.0,4.0,4.0,4.0,4.0,100.0,,,,,,,,,,,,,,,,,,,,,,,,,,,,,,,,,,,,,,,,,,,,,,,,,,,,,,,,,,,,,,,,,,,,,,,,,,,,,,,,,,,,,,,,,,,,,,,,,,,,,,,,,,,,,,,,,,,,,,,,,,,,,,,,,,,
1725716001.810714,1725716001.812085,52.0,0.0,4206.153809,4267.820313,4243.461426,4281.666504,4238.205078,4373.717773,4103.846191,4254.358887,4229.102539,4224.102539,4455.256348,4505.384766,4329.615234,4399.743652,0.0,1.0,15.0,,,,0.0,4.0,4.0,4.0,4.0,4.0,4.0,4.0,4.0,4.0,4.0,4.0,4.0,4.0,4.0,100.0,1.0,25.0,4.0,4.0,3.0,1.0,4.0,1.0,1.0,4.0,4.0,4.0,4.0,4.0,4.0,4.0,1.0,0.0,0.0,,,,,,,,,,,,,,,,,,,,,,,,,,,,,,,,,,,,,0.0,0.0,64.0,0.051302,1.0,0.0,4.246511,0.572628,0.560213,0.650719,0.14738,1.599549,0.526916,0.336924,0.21715,0.057641,2.254474,2.10886,0.405498,0.227722,0.084376,19.613661,5.512785,3.296339,1.003229,0.458236,0.584015,0.218746,0.243084,0.135518,0.050549,0.781457,0.098387,0.18486,0.079525,0.049148,4.051186,1.565494,0.54852,0.193394,0.051914,1.549278,1.383731,0.117922,0.215119,0.102556,1.541832,1.182217,0.271716,0.196382,0.083313,2.196352,1.585794,0.868136,0.248826,0.086915,3.241202,1.819113,0.990642,0.444616,0.179999,5.204399,2.398365,0.665553,0.320601,0.156603,2.964296,1.584617,1.101145,0.421623,0.181194,4.136026,1.214044,0.741324,0.300554,0.105633
1725716001.814618,1725716001.81599,53.0,0.0,4194.358887,4261.153809,4237.94873,4279.230957,4233.717773,4373.205078,4106.538574,4255.0,4225.512695,4218.974121,4450.128418,4499.743652,4321.794922,4393.846191,0.0,1.0,15.0,,,,0.0,4.0,4.0,4.0,4.0,4.0,4.0,4.0,4.0,4.0,4.0,4.0,4.0,4.0,4.0,100.0,,,,,,,,,,,,,,,,,,,,,,,,,,,,,,,,,,,,,,,,,,,,,,,,,,,,,,,,,,,,,,,,,,,,,,,,,,,,,,,,,,,,,,,,,,,,,,,,,,,,,,,,,,,,,,,,,,,,,,,,,,,,,,,,,,,
1725716001.818522,1725716001.819994,54.0,0.0,4191.410156,4260.0,4239.487305,4281.538574,4234.743652,4375.0,4111.794922,4260.641113,4228.717773,4220.769043,4452.820313,4503.974121,4325.0,4396.025879,0.0,1.0,15.0,,,,0.0,4.0,4.0,4.0,4.0,4.0,4.0,4.0,4.0,4.0,4.0,4.0,4.0,4.0,4.0,100.0,,,,,,,,,,,,,,,,,,,,,,,,,,,,,,,,,,,,,,,,,,,,,,,,,,,,,,,,,,,,,,,,,,,,,,,,,,,,,,,,,,,,,,,,,,,,,,,,,,,,,,,,,,,,,,,,,,,,,,,,,,,,,,,,,,,
1725716001.822426,1725716001.823898,55.0,0.0,4197.94873,4266.153809,4246.794922,4288.717773,4240.641113,4378.461426,4118.589844,4270.384766,4238.846191,4230.641113,4464.743652,4517.820313,4338.846191,4406.538574,0.0,1.0,15.0,,,,0.0,4.0,4.0,4.0,4.0,4.0,4.0,4.0,4.0,4.0,4.0,4.0,4.0,4.0,4.0,100.0,,,,,,,,,,,,,,,,,,,,,,,,,,,,,,,,,,,,,,,,,,,,,,,,,,,,,,,,,,,,,,,,,,,,,,,,,,,,,,,,,,,,,,,,,,,,,,,,,,,,,,,,,,,,,,,,,,,,,,,,,,,,,,,,,,,
1725716001.82633,1725716001.827802,56.0,0.0,4210.0,4276.666504,4256.282227,4298.717773,4247.94873,4381.922852,4125.256348,4280.641113,4251.410156,4244.871582,4481.410156,4535.0,4356.410156,4421.025879,0.0,1.0,15.0,,,,0.0,4.0,4.0,4.0,4.0,4.0,4.0,4.0,4.0,4.0,4.0,4.0,4.0,4.0,4.0,100.0,,,,,,,,,,,,,,,,,,,,,,,,,,,,,,,,,,,,,,,,,,,,,,,,,,,,,,,,,,,,,,,,,,,,,,,,,,,,,,,,,,,,,,,,,,,,,,,,,,,,,,,,,,,,,,,,,,,,,,,,,,,,,,,,,,,
1725716001.830234,1725716001.831706,57.0,0.0,4220.512695,4285.384766,4262.94873,4307.179688,4252.179688,4383.717773,4130.0,4286.410156,4260.128418,4256.538574,4494.230957,4546.666504,4368.333496,4432.05127,0.0,1.0,15.0,,,,0.0,4.0,4.0,4.0,4.0,4.0,4.0,4.0,4.0,4.0,4.0,4.0,4.0,4.0,4.0,100.0,,,,,,,,,,,,,,,,,,,,,,,,,,,,,,,,,,,,,,,,,,,,,,,,,,,,,,,,,,,,,,,,,,,,,,,,,,,,,,,,,,,,,,,,,,,,,,,,,,,,,,,,,,,,,,,,,,,,,,,,,,,,,,,,,,,
1725716001.834138,1725716001.83571,58.0,0.0,4224.615234,4287.563965,4264.358887,4310.384766,4251.666504,4383.205078,4132.307617,4284.358887,4260.769043,4260.256348,4496.666504,4547.307617,4369.871582,4434.358887,0.0,1.0,15.0,,,,0.0,4.0,4.0,4.0,4.0,4.0,4.0,4.0,4.0,4.0,4.0,4.0,4.0,4.0,4.0,100.0,,,,,,,,,,,,,,,,,,,,,,,,,,,,,,,,,,,,,,,,,,,,,,,,,,,,,,,,,,,,,,,,,,,,,,,,,,,,,,,,,,,,,,,,,,,,,,,,,,,,,,,,,,,,,,,,,,,,,,,,,,,,,,,,,,,
1725716001.838042,1725716001.839614,59.0,0.0,4222.820313,4283.846191,4261.282227,4308.589844,4249.871582,4381.538574,4132.94873,4276.153809,4255.0,4256.153809,4489.102539,4539.230957,4363.717773,4429.358887,0.0,1.0,15.0,,,,0.0,4.0,4.0,4.0,4.0,4.0,4.0,4.0,4.0,4.0,4.0,4.0,4.0,4.0,4.0,100.0,,,,,,,,,,,,,,,,,,,,,,,,,,,,,,,,,,,,,,,,,,,,,,,,,,,,,,,,,,,,,,,,,,,,,,,,,,,,,,,,,,,,,,,,,,,,,,,,,,,,,,,,,,,,,,,,,,,,,,,,,,,,,,,,,,,
1725716001.841946,1725716001.843518,60.0,0.0,4219.487305,4280.0,4257.94873,4305.897461,4251.025879,4380.769043,4134.230957,4267.563965,4247.94873,4249.487305,4478.846191,4530.769043,4356.794922,4423.461426,0.0,1.0,15.0,,,,0.0,4.0,4.0,4.0,4.0,4.0,4.0,4.0,4.0,4.0,4.0,4.0,4.0,4.0,4.0,100.0,,,,,,,,,,,,,,,,,,,,,,,,,,,,,,,,,,,,,,,,,,,,,,,,,,,,,,,,0.0,0.0,64.0,0.051302,1.0,0.0,,,,,,,,,,,,,,,,,,,,,,,,,,,,,,,,,,,,,,,,,,,,,,,,,,,,,,,,,,,,,,,,,,,,,,
1725716001.845851,1725716001.847522,61.0,0.0,4218.974121,4281.025879,4258.077148,4306.410156,4256.794922,4381.922852,4136.794922,4264.230957,4244.871582,4246.153809,4473.589844,4529.743652,4354.102539,4422.307617,0.0,1.0,15.0,,,,0.0,4.0,4.0,4.0,4.0,4.0,4.0,4.0,4.0,4.0,4.0,4.0,4.0,4.0,4.0,100.0,,,,,,,,,,,,,,,,,,,,,,,,,,,,,,,,,,,,,,,,,,,,,,,,,,,,,,,,,,,,,,,,,,,,,,,,,,,,,,,,,,,,,,,,,,,,,,,,,,,,,,,,,,,,,,,,,,,,,,,,,,,,,,,,,,,
1725716001.849755,1725716001.851426,62.0,0.0,4220.641113,4286.666504,4262.05127,4310.384766,4263.589844,4384.102539,4139.615234,4267.05127,4246.666504,4247.820313,4475.384766,4536.666504,4355.384766,4425.769043,0.0,1.0,15.0,,,,0.0,4.0,4.0,4.0,4.0,4.0,4.0,4.0,4.0,4.0,4.0,4.0,4.0,4.0,4.0,100.0,,,,,,,,,,,,,,,,,,,,,,,,,,,,,,,,,,,,,,,,,,,,,,,,,,,,,,,,,,,,,,,,,,,,,,,,,,,,,,,,,,,,,,,,,,,,,,,,,,,,,,,,,,,,,,,,,,,,,,,,,,,,,,,,,,,
1725716001.853659,1725716001.85533,63.0,0.0,4220.0,4290.897461,4266.410156,4314.358887,4265.769043,4385.384766,4140.641113,4271.922852,4250.128418,4251.666504,4480.0,4544.102539,4356.794922,4428.461426,0.0,1.0,15.0,,,,0.0,4.0,4.0,4.0,4.0,4.0,4.0,4.0,4.0,4.0,4.0,4.0,4.0,4.0,4.0,100.0,,,,,,,,,,,,,,,,,,,,,,,,,,,,,,,,,,,,,,,,,,,,,,,,,,,,,,,,,,,,,,,,,,,,,,,,,,,,,,,,,,,,,,,,,,,,,,,,,,,,,,,,,,,,,,,,,,,,,,,,,,,,,,,,,,,
1725716001.857563,1725716001.859234,64.0,0.0,4212.436035,4288.077148,4266.025879,4313.717773,4260.512695,4383.589844,4139.743652,4272.94873,4251.025879,4253.077148,4480.641113,4542.820313,4354.615234,4424.743652,0.0,1.0,15.0,,,,0.0,4.0,4.0,4.0,4.0,4.0,4.0,4.0,4.0,4.0,4.0,4.0,4.0,4.0,4.0,100.0,,,,,,,,,,,,,,,,,,,,,,,,,,,,,,,,,,,,,,,,,,,,,,,,,,,,,,,,,,,,,,,,,,,,,,,,,,,,,,,,,,,,,,,,,,,,,,,,,,,,,,,,,,,,,,,,,,,,,,,,,,,,,,,,,,,
1725716001.861467,1725716001.863238,65.0,0.0,4197.94873,4277.179688,4258.589844,4306.666504,4249.743652,4378.846191,4138.461426,4267.179688,4246.666504,4249.230957,4472.692383,4528.974121,4347.563965,4412.94873,0.0,1.0,15.0,,,,0.0,4.0,4.0,4.0,4.0,4.0,4.0,4.0,4.0,4.0,4.0,4.0,4.0,4.0,4.0,100.0,,,,,,,,,,,,,,,,,,,,,,,,,,,,,,,,,,,,,,,,,,,,,,,,,,,,,,,,,,,,,,,,,,,,,,,,,,,,,,,,,,,,,,,,,,,,,,,,,,,,,,,,,,,,,,,,,,,,,,,,,,,,,,,,,,,
1725716001.865371,1725716001.867142,66.0,0.0,4181.538574,4263.077148,4246.538574,4295.769043,4239.358887,4372.692383,4138.974121,4256.153809,4237.307617,4240.384766,4457.179688,4507.436035,4335.897461,4396.538574,0.0,1.0,15.0,,,,0.0,4.0,4.0,4.0,4.0,4.0,4.0,4.0,4.0,4.0,4.0,4.0,4.0,4.0,4.0,100.0,,,,,,,,,,,,,,,,,,,,,,,,,,,,,,,,,,,,,,,,,,,,,,,,,,,,,,,,,,,,,,,,,,,,,,,,,,,,,,,,,,,,,,,,,,,,,,,,,,,,,,,,,,,,,,,,,,,,,,,,,,,,,,,,,,,
1725716001.869275,1725716001.871047,67.0,0.0,4169.487305,4253.077148,4235.384766,4286.538574,4235.0,4367.820313,4141.794922,4245.384766,4226.025879,4230.256348,4440.128418,4488.717773,4322.436035,4381.794922,0.0,1.0,15.0,,,,0.0,4.0,4.0,4.0,4.0,4.0,4.0,4.0,4.0,4.0,4.0,4.0,4.0,4.0,4.0,100.0,,,,,,,,,,,,,,,,,,,,,,,,,,,,,,,,,,,,,,,,,,,,,,,,,,,,,,,,,,,,,,,,,,,,,,,,,,,,,,,,,,,,,,,,,,,,,,,,,,,,,,,,,,,,,,,,,,,,,,,,,,,,,,,,,,,
1725716001.873179,1725716001.874951,68.0,0.0,4164.358887,4251.410156,4230.384766,4283.589844,4237.692383,4365.512695,4146.410156,4240.0,4217.179688,4223.846191,4430.0,4481.025879,4312.436035,4374.102539,0.0,1.0,15.0,,,,0.0,4.0,4.0,4.0,4.0,4.0,4.0,4.0,4.0,4.0,4.0,4.0,4.0,4.0,4.0,100.0,,,,,,,,,,,,,,,,,,,,,,,,,,,,,,,,,,,,,,,,,,,,,,,,,,,,,,,,0.0,0.0,64.0,0.051302,1.0,0.0,,,,,,,,,,,,,,,,,,,,,,,,,,,,,,,,,,,,,,,,,,,,,,,,,,,,,,,,,,,,,,,,,,,,,,
1725716001.877083,1725716001.878955,69.0,0.0,4164.487305,4256.282227,4233.205078,4288.077148,4243.589844,4365.512695,4151.538574,4241.025879,4214.358887,4223.974121,4431.922852,4486.282227,4310.641113,4375.641113,0.0,1.0,15.0,,,,0.0,4.0,4.0,4.0,4.0,4.0,4.0,4.0,4.0,4.0,4.0,4.0,4.0,4.0,4.0,100.0,,,,,,,,,,,,,,,,,,,,,,,,,,,,,,,,,,,,,,,,,,,,,,,,,,,,,,,,,,,,,,,,,,,,,,,,,,,,,,,,,,,,,,,,,,,,,,,,,,,,,,,,,,,,,,,,,,,,,,,,,,,,,,,,,,,
1725716001.880988,1725716001.882859,70.0,0.0,4165.128418,4262.692383,4241.153809,4296.666504,4247.820313,4366.538574,4157.05127,4245.641113,4218.461426,4230.128418,4444.230957,4499.230957,4318.333496,4384.358887,0.0,1.0,15.0,,,,0.0,4.0,4.0,4.0,4.0,4.0,4.0,4.0,4.0,4.0,4.0,4.0,4.0,4.0,4.0,100.0,,,,,,,,,,,,,,,,,,,,,,,,,,,,,,,,,,,,,,,,,,,,,,,,,,,,,,,,,,,,,,,,,,,,,,,,,,,,,,,,,,,,,,,,,,,,,,,,,,,,,,,,,,,,,,,,,,,,,,,,,,,,,,,,,,,
1725716001.884892,1725716001.886763,71.0,0.0,4162.820313,4266.025879,4248.717773,4304.743652,4248.333496,4367.692383,4162.307617,4250.0,4226.666504,4237.563965,4458.974121,4511.794922,4331.282227,4394.615234,0.0,1.0,15.0,,,,0.0,4.0,4.0,4.0,4.0,4.0,4.0,4.0,4.0,4.0,4.0,4.0,4.0,4.0,4.0,100.0,,,,,,,,,,,,,,,,,,,,,,,,,,,,,,,,,,,,,,,,,,,,,,,,,,,,,,,,,,,,,,,,,,,,,,,,,,,,,,,,,,,,,,,,,,,,,,,,,,,,,,,,,,,,,,,,,,,,,,,,,,,,,,,,,,,
1725716001.888796,1725716001.890667,72.0,0.0,4157.307617,4265.384766,4252.692383,4309.487305,4246.666504,4368.461426,4166.794922,4251.794922,4233.846191,4241.538574,4467.05127,4517.436035,4342.179688,4400.897461,0.0,1.0,15.0,,,,0.0,4.0,4.0,4.0,4.0,4.0,4.0,4.0,4.0,4.0,4.0,4.0,4.0,4.0,4.0,100.0,,,,,,,,,,,,,,,,,,,,,,,,,,,,,,,,,,,,,,,,,,,,,,,,,,,,,,,,,,,,,,,,,,,,,,,,,,,,,,,,,,,,,,,,,,,,,,,,,,,,,,,,,,,,,,,,,,,,,,,,,,,,,,,,,,,
1725716001.8927,1725716001.894671,73.0,0.0,4150.128418,4263.077148,4252.563965,4311.025879,4245.256348,4368.461426,4169.615234,4251.410156,4236.282227,4239.871582,4465.256348,4514.358887,4345.256348,4400.897461,0.0,1.0,15.0,,,,0.0,4.0,4.0,4.0,4.0,4.0,4.0,4.0,4.0,4.0,4.0,4.0,4.0,4.0,4.0,100.0,,,,,,,,,,,,,,,,,,,,,,,,,,,,,,,,,,,,,,,,,,,,,,,,,,,,,,,,,,,,,,,,,,,,,,,,,,,,,,,,,,,,,,,,,,,,,,,,,,,,,,,,,,,,,,,,,,,,,,,,,,,,,,,,,,,
1725716001.896604,1725716001.898575,74.0,0.0,4142.820313,4261.794922,4250.641113,4311.153809,4244.615234,4366.922852,4170.641113,4250.384766,4233.589844,4234.615234,4456.538574,4506.538574,4339.871582,4396.410156,0.0,1.0,15.0,,,,0.0,4.0,4.0,4.0,4.0,4.0,4.0,4.0,4.0,4.0,4.0,4.0,4.0,4.0,4.0,100.0,,,,,,,,,,,,,,,,,,,,,,,,,,,,,,,,,,,,,,,,,,,,,,,,,,,,,,,,,,,,,,,,,,,,,,,,,,,,,,,,,,,,,,,,,,,,,,,,,,,,,,,,,,,,,,,,,,,,,,,,,,,,,,,,,,,
1725716001.900508,1725716001.902479,75.0,0.0,4135.769043,4262.307617,4248.846191,4311.153809,4243.461426,4363.717773,4170.256348,4249.743652,4228.974121,4229.743652,4448.077148,4499.487305,4330.0,4391.025879,0.0,1.0,15.0,,,,0.0,4.0,4.0,4.0,4.0,4.0,4.0,4.0,4.0,4.0,4.0,4.0,4.0,4.0,4.0,100.0,,,,,,,,,,,,,,,,,,,,,,,,,,,,,,,,,,,,,,,,,,,,,,,,,,,,,,,,,,,,,,,,,,,,,,,,,,,,,,,,,,,,,,,,,,,,,,,,,,,,,,,,,,,,,,,,,,,,,,,,,,,,,,,,,,,
1725716001.904412,1725716001.906383,76.0,0.0,4128.589844,4263.461426,4247.94873,4311.153809,4240.384766,4360.0,4169.615234,4249.230957,4226.410156,4228.077148,4445.256348,4496.538574,4322.05127,4387.94873,0.0,1.0,15.0,,,,0.0,4.0,4.0,4.0,4.0,4.0,4.0,4.0,4.0,4.0,4.0,4.0,4.0,4.0,4.0,100.0,,,,,,,,,,,,,,,,,,,,,,,,,,,,,,,,,,,,,,,,,,,,,,,,,,,,,,,,0.0,0.0,64.0,0.051302,1.0,0.0,,,,,,,,,,,,,,,,,,,,,,,,,,,,,,,,,,,,,,,,,,,,,,,,,,,,,,,,,,,,,,,,,,,,,,
1725716001.908316,1725716001.910287,77.0,0.0,4121.922852,4263.717773,4247.692383,4311.794922,4236.282227,4357.436035,4170.384766,4248.974121,4227.436035,4229.743652,4448.974121,4497.436035,4320.256348,4388.589844,0.0,1.0,15.0,,,,0.0,4.0,4.0,4.0,4.0,4.0,4.0,4.0,4.0,4.0,4.0,4.0,4.0,4.0,4.0,100.0,,,,,,,,,,,,,,,,,,,,,,,,,,,,,,,,,,,,,,,,,,,,,,,,,,,,,,,,,,,,,,,,,,,,,,,,,,,,,,,,,,,,,,,,,,,,,,,,,,,,,,,,,,,,,,,,,,,,,,,,,,,,,,,,,,,
1725716001.91222,1725716001.914092,78.0,0.0,4117.692383,4262.94873,4248.077148,4313.846191,4233.333496,4357.94873,4173.846191,4249.487305,4229.871582,4232.563965,4456.282227,4499.615234,4324.615234,4391.794922,0.0,1.0,15.0,,,,0.0,4.0,4.0,4.0,4.0,4.0,4.0,4.0,4.0,4.0,4.0,4.0,4.0,4.0,4.0,100.0,,,,,,,,,,,,,,,,,,,,,,,,,,,,,,,,,,,,,,,,,,,,,,,,,,,,,,,,,,,,,,,,,,,,,,,,,,,,,,,,,,,,,,,,,,,,,,,,,,,,,,,,,,,,,,,,,,,,,,,,,,,,,,,,,,,
1725716001.916124,1725716001.917996,79.0,0.0,4117.307617,4262.307617,4249.230957,4318.205078,4232.94873,4361.153809,4179.743652,4250.769043,4230.641113,4234.743652,4462.94873,4500.384766,4330.512695,4395.0,0.0,1.0,15.0,,,,0.0,4.0,4.0,4.0,4.0,4.0,4.0,4.0,4.0,4.0,4.0,4.0,4.0,4.0,4.0,100.0,,,,,,,,,,,,,,,,,,,,,,,,,,,,,,,,,,,,,,,,,,,,,,,,,,,,,,,,,,,,,,,,,,,,,,,,,,,,,,,,,,,,,,,,,,,,,,,,,,,,,,,,,,,,,,,,,,,,,,,,,,,,,,,,,,,
1725716001.920029,1725716001.9219,80.0,0.0,4120.128418,4262.179688,4250.512695,4323.461426,4234.358887,4365.0,4185.512695,4251.666504,4228.333496,4235.384766,4465.128418,4498.846191,4333.077148,4395.128418,0.0,1.0,15.0,,,,0.0,4.0,4.0,4.0,4.0,4.0,4.0,4.0,4.0,4.0,4.0,4.0,4.0,4.0,4.0,100.0,,,,,,,,,,,,,,,,,,,,,,,,,,,,,,,,,,,,,,,,,,,,,,,,,,,,,,,,,,,,,,,,,,,,,,,,,,,,,,,,,,,,,,,,,,,,,,,,,,,,,,,,,,,,,,,,,,,,,,,,,,,,,,,,,,,
1725716001.923933,1725716001.925904,81.0,0.0,4123.205078,4262.307617,4251.410156,4327.563965,4235.512695,4366.538574,4187.94873,4250.384766,4224.102539,4234.743652,4462.563965,4496.153809,4330.384766,4391.666504,0.0,1.0,15.0,,,,0.0,4.0,4.0,4.0,4.0,4.0,4.0,4.0,4.0,4.0,4.0,4.0,4.0,4.0,4.0,100.0,,,,,,,,,,,,,,,,,,,,,,,,,,,,,,,,,,,,,,,,,,,,,,,,,,,,,,,,,,,,,,,,,,,,,,,,,,,,,,,,,,,,,,,,,,,,,,,,,,,,,,,,,,,,,,,,,,,,,,,,,,,,,,,,,,,
1725716001.927837,1725716001.929808,82.0,0.0,4123.846191,4262.307617,4251.153809,4329.102539,4235.256348,4364.358887,4186.282227,4246.538574,4220.128418,4232.94873,4458.077148,4493.846191,4325.256348,4386.538574,0.0,1.0,15.0,,,,0.0,4.0,4.0,4.0,4.0,4.0,4.0,4.0,4.0,4.0,4.0,4.0,4.0,4.0,4.0,100.0,,,,,,,,,,,,,,,,,,,,,,,,,,,,,,,,,,,,,,,,,,,,,,,,,,,,,,,,,,,,,,,,,,,,,,,,,,,,,,,,,,,,,,,,,,,,,,,,,,,,,,,,,,,,,,,,,,,,,,,,,,,,,,,,,,,
1725716001.931741,1725716001.933712,83.0,0.0,4121.410156,4262.307617,4249.743652,4328.846191,4233.589844,4359.358887,4182.436035,4240.897461,4217.563965,4230.641113,4455.769043,4492.692383,4322.820313,4382.820313,0.0,1.0,15.0,,,,0.0,4.0,4.0,4.0,4.0,4.0,4.0,4.0,4.0,4.0,4.0,4.0,4.0,4.0,4.0,100.0,,,,,,,,,,,,,,,,,,,,,,,,,,,,,,,,,,,,,,,,,,,,,,,,,,,,,,,,,,,,,,,,,,,,,,,,,,,,,,,,,,,,,,,,,,,,,,,,,,,,,,,,,,,,,,,,,,,,,,,,,,,,,,,,,,,
1725716001.935645,1725716001.937616,84.0,0.0,4117.307617,4262.692383,4247.563965,4328.077148,4232.05127,4353.974121,4180.0,4235.641113,4216.025879,4227.307617,4457.05127,4492.05127,4324.615234,4381.538574,0.0,1.0,15.0,,,,0.0,4.0,4.0,4.0,4.0,4.0,4.0,4.0,4.0,4.0,4.0,4.0,4.0,4.0,4.0,100.0,,,,,,,,,,,,,,,,,1.0,0.0,0.0,,,,,,,,,,,,,,,,,,,,,,,,,,,,,,,,,,,,,0.0,0.0,64.0,0.276111,1.0,0.0,4.194685,0.377897,0.599204,0.681265,0.162006,1.598501,0.505864,0.336421,0.194281,0.055646,1.938669,1.908286,0.330206,0.211042,0.07932,17.657835,4.907136,2.90014,0.943963,0.451263,0.554155,0.161469,0.228946,0.112565,0.04198,0.570637,0.055942,0.158414,0.094168,0.053832,3.747178,1.597242,0.443761,0.196,0.058859,1.353944,1.059209,0.143403,0.219686,0.107279,1.657173,0.877423,0.313088,0.225816,0.088264,2.34006,1.43275,0.869449,0.267623,0.088544,3.349092,1.6277,0.995221,0.46049,0.18961,5.16737,1.872079,0.633086,0.292987,0.152307,3.196176,1.408627,1.02671,0.430019,0.158249,4.239492,0.99995,0.711461,0.303219,0.098962
1725716001.939549,1725716001.94142,85.0,0.0,4113.461426,4263.974121,4245.0,4328.205078,4231.410156,4350.512695,4180.384766,4232.179688,4213.717773,4222.820313,4459.615234,4489.871582,4327.820313,4381.153809,0.0,1.0,15.0,,,,0.0,4.0,4.0,4.0,4.0,4.0,4.0,4.0,4.0,4.0,4.0,4.0,4.0,4.0,4.0,100.0,,,,,,,,,,,,,,,,,,,,,,,,,,,,,,,,,,,,,,,,,,,,,,,,,,,,,,,,,,,,,,,,,,,,,,,,,,,,,,,,,,,,,,,,,,,,,,,,,,,,,,,,,,,,,,,,,,,,,,,,,,,,,,,,,,,
1725716001.943453,1725716001.945324,86.0,0.0,4110.641113,4265.512695,4242.179688,4329.102539,4231.794922,4349.871582,4182.94873,4230.897461,4210.641113,4218.205078,4460.0,4485.256348,4327.820313,4379.230957,0.0,1.0,15.0,,,,0.0,4.0,4.0,4.0,4.0,4.0,4.0,4.0,4.0,4.0,4.0,4.0,4.0,4.0,4.0,100.0,,,,,,,,,,,,,,,,,,,,,,,,,,,,,,,,,,,,,,,,,,,,,,,,,,,,,,,,,,,,,,,,,,,,,,,,,,,,,,,,,,,,,,,,,,,,,,,,,,,,,,,,,,,,,,,,,,,,,,,,,,,,,,,,,,,
1725716001.947357,1725716001.949229,87.0,0.0,4108.717773,4266.282227,4238.974121,4330.128418,4232.563965,4350.769043,4185.897461,4231.153809,4207.820313,4215.384766,4456.794922,4479.102539,4322.94873,4375.641113,0.0,1.0,15.0,,,,0.0,4.0,4.0,4.0,4.0,4.0,4.0,4.0,4.0,4.0,4.0,4.0,4.0,4.0,4.0,100.0,,,,,,,,,,,,,,,,,,,,,,,,,,,,,,,,,,,,,,,,,,,,,,,,,,,,,,,,,,,,,,,,,,,,,,,,,,,,,,,,,,,,,,,,,,,,,,,,,,,,,,,,,,,,,,,,,,,,,,,,,,,,,,,,,,,
1725716001.951261,1725716001.953233,88.0,0.0,4107.307617,4265.512695,4235.641113,4330.0,4232.94873,4351.282227,4188.333496,4232.05127,4206.410156,4216.025879,4451.922852,4474.487305,4316.025879,4372.05127,0.0,1.0,15.0,,,,0.0,4.0,4.0,4.0,4.0,4.0,4.0,4.0,4.0,4.0,4.0,4.0,4.0,4.0,4.0,100.0,,,,,,,,,,,,,,,,,,,,,,,,,,,,,,,,,,,,,,,,,,,,,,,,,,,,,,,,,,,,,,,,,,,,,,,,,,,,,,,,,,,,,,,,,,,,,,,,,,,,,,,,,,,,,,,,,,,,,,,,,,,,,,,,,,,
1725716001.955166,1725716001.957137,89.0,0.0,4106.410156,4262.563965,4232.692383,4328.077148,4232.820313,4350.512695,4190.0,4232.692383,4206.666504,4219.358887,4448.461426,4473.717773,4311.153809,4370.384766,0.0,1.0,15.0,,,,0.0,4.0,4.0,4.0,4.0,4.0,4.0,4.0,4.0,4.0,4.0,4.0,4.0,4.0,4.0,100.0,,,,,,,,,,,,,,,,,,,,,,,,,,,,,,,,,,,,,,,,,,,,,,,,,,,,,,,,,,,,,,,,,,,,,,,,,,,,,,,,,,,,,,,,,,,,,,,,,,,,,,,,,,,,,,,,,,,,,,,,,,,,,,,,,,,
1725716001.95907,1725716001.961041,90.0,0.0,4105.641113,4258.333496,4230.769043,4324.487305,4232.436035,4348.589844,4191.025879,4232.563965,4207.307617,4222.179688,4447.436035,4476.666504,4310.128418,4370.384766,0.0,1.0,15.0,,,,0.0,4.0,4.0,4.0,4.0,4.0,4.0,4.0,4.0,4.0,4.0,4.0,4.0,4.0,4.0,100.0,,,,,,,,,,,,,,,,,,,,,,,,,,,,,,,,,,,,,,,,,,,,,,,,,,,,,,,,,,,,,,,,,,,,,,,,,,,,,,,,,,,,,,,,,,,,,,,,,,,,,,,,,,,,,,,,,,,,,,,,,,,,,,,,,,,
1725716001.962974,1725716001.964945,91.0,0.0,4104.743652,4253.974121,4230.512695,4319.871582,4232.179688,4346.410156,4191.282227,4231.794922,4206.666504,4222.05127,4447.563965,4479.871582,4311.538574,4370.512695,0.0,1.0,15.0,,,,0.0,4.0,4.0,4.0,4.0,4.0,4.0,4.0,4.0,4.0,4.0,4.0,4.0,4.0,4.0,100.0,,,,,,,,,,,,,,,,,,,,,,,,,,,,,,,,,,,,,,,,,,,,,,,,,,,,,,,,,,,,,,,,,,,,,,,,,,,,,,,,,,,,,,,,,,,,,,,,,,,,,,,,,,,,,,,,,,,,,,,,,,,,,,,,,,,
1725716001.966878,1725716001.968949,92.0,0.0,4103.974121,4250.641113,4231.410156,4315.769043,4232.05127,4343.717773,4190.641113,4231.282227,4204.487305,4219.230957,4447.05127,4479.871582,4312.436035,4369.230957,0.0,1.0,15.0,,,,0.0,4.0,4.0,4.0,4.0,4.0,4.0,4.0,4.0,4.0,4.0,4.0,4.0,4.0,4.0,100.0,,,,,,,,,,,,,,,,,,,,,,,,,,,,,,,,,,,,,,,,,,,,,,,,,,,,,,,,0.0,0.0,64.0,0.276111,1.0,0.0,,,,,,,,,,,,,,,,,,,,,,,,,,,,,,,,,,,,,,,,,,,,,,,,,,,,,,,,,,,,,,,,,,,,,,
1725716001.970782,1725716001.972853,93.0,0.0,4103.205078,4248.589844,4232.563965,4312.563965,4232.05127,4340.256348,4189.358887,4231.025879,4201.922852,4216.282227,4445.641113,4476.025879,4310.897461,4366.538574,0.0,1.0,15.0,,,,0.0,4.0,4.0,4.0,4.0,4.0,4.0,4.0,4.0,4.0,4.0,4.0,4.0,4.0,4.0,100.0,,,,,,,,,,,,,,,,,,,,,,,,,,,,,,,,,,,,,,,,,,,,,,,,,,,,,,,,,,,,,,,,,,,,,,,,,,,,,,,,,,,,,,,,,,,,,,,,,,,,,,,,,,,,,,,,,,,,,,,,,,,,,,,,,,,
1725716001.974686,1725716001.976757,94.0,0.0,4102.94873,4247.94873,4232.307617,4309.743652,4232.05127,4336.794922,4187.820313,4230.897461,4200.641113,4215.384766,4442.94873,4470.384766,4306.538574,4363.205078,0.0,1.0,15.0,,,,0.0,4.0,4.0,4.0,4.0,4.0,4.0,4.0,4.0,4.0,4.0,4.0,4.0,4.0,4.0,100.0,,,,,,,,,,,,,,,,,,,,,,,,,,,,,,,,,,,,,,,,,,,,,,,,,,,,,,,,,,,,,,,,,,,,,,,,,,,,,,,,,,,,,,,,,,,,,,,,,,,,,,,,,,,,,,,,,,,,,,,,,,,,,,,,,,,
1725716001.97859,1725716001.980661,95.0,0.0,4103.461426,4247.94873,4230.128418,4306.282227,4232.05127,4334.102539,4186.410156,4230.897461,4200.512695,4216.538574,4438.846191,4465.128418,4301.025879,4359.743652,0.0,1.0,15.0,,,,0.0,4.0,4.0,4.0,4.0,4.0,4.0,4.0,4.0,4.0,4.0,4.0,4.0,4.0,4.0,100.0,,,,,,,,,,,,,,,,,,,,,,,,,,,,,,,,,,,,,,,,,,,,,,,,,,,,,,,,,,,,,,,,,,,,,,,,,,,,,,,,,,,,,,,,,,,,,,,,,,,,,,,,,,,,,,,,,,,,,,,,,,,,,,,,,,,
1725716001.982494,1725716001.984665,96.0,0.0,4105.128418,4248.077148,4225.897461,4302.05127,4232.179688,4333.205078,4185.512695,4231.025879,4201.025879,4217.05127,4433.077148,4461.282227,4296.538574,4356.538574,0.0,1.0,15.0,,,,0.0,4.0,4.0,4.0,4.0,4.0,4.0,4.0,4.0,4.0,4.0,4.0,4.0,4.0,4.0,100.0,,,,,,,,,,,,,,,,,,,,,,,,,,,,,,,,,,,,,,,,,,,,,,,,,,,,,,,,,,,,,,,,,,,,,,,,,,,,,,,,,,,,,,,,,,,,,,,,,,,,,,,,,,,,,,,,,,,,,,,,,,,,,,,,,,,
1725716001.986398,1725716001.988569,97.0,0.0,4108.717773,4247.563965,4221.025879,4297.94873,4232.307617,4333.461426,4185.0,4231.922852,4201.025879,4214.871582,4426.666504,4459.358887,4294.487305,4354.102539,0.0,1.0,15.0,,,,0.0,4.0,4.0,4.0,4.0,4.0,4.0,4.0,4.0,4.0,4.0,4.0,4.0,4.0,4.0,100.0,,,,,,,,,,,,,,,,,,,,,,,,,,,,,,,,,,,,,,,,,,,,,,,,,,,,,,,,,,,,,,,,,,,,,,,,,,,,,,,,,,,,,,,,,,,,,,,,,,,,,,,,,,,,,,,,,,,,,,,,,,,,,,,,,,,
1725716001.990302,1725716001.992473,98.0,0.0,4114.230957,4246.153809,4217.179688,4295.0,4232.307617,4333.717773,4184.487305,4233.077148,4200.384766,4209.871582,4421.153809,4458.974121,4294.743652,4352.307617,0.0,1.0,15.0,,,,0.0,4.0,4.0,4.0,4.0,4.0,4.0,4.0,4.0,4.0,4.0,4.0,4.0,4.0,4.0,100.0,,,,,,,,,,,,,,,,,,,,,,,,,,,,,,,,,,,,,,,,,,,,,,,,,,,,,,,,,,,,,,,,,,,,,,,,,,,,,,,,,,,,,,,,,,,,,,,,,,,,,,,,,,,,,,,,,,,,,,,,,,,,,,,,,,,
1725716001.994206,1725716001.996378,99.0,0.0,4120.256348,4243.974121,4215.512695,4293.717773,4232.179688,4332.563965,4183.205078,4232.94873,4199.102539,4204.358887,4417.563965,4459.230957,4295.128418,4351.153809,0.0,1.0,15.0,,,,0.0,4.0,4.0,4.0,4.0,4.0,4.0,4.0,4.0,4.0,4.0,4.0,4.0,4.0,4.0,100.0,,,,,,,,,,,,,,,,,,,,,,,,,,,,,,,,,,,,,,,,,,,,,,,,,,,,,,,,,,,,,,,,,,,,,,,,,,,,,,,,,,,,,,,,,,,,,,,,,,,,,,,,,,,,,,,,,,,,,,,,,,,,,,,,,,,
1725716001.99811,1725716002.000382,100.0,0.0,4124.487305,4240.897461,4215.897461,4293.846191,4232.05127,4330.256348,4181.794922,4230.256348,4197.307617,4200.897461,4415.128418,4459.230957,4294.615234,4349.743652,0.0,1.0,15.0,,,,0.0,4.0,4.0,4.0,4.0,4.0,4.0,4.0,4.0,4.0,4.0,4.0,4.0,4.0,4.0,100.0,,,,,,,,,,,,,,,,,,,,,,,,,,,,,,,,,,,,,,,,,,,,,,,,,,,,,,,,0.0,0.0,64.0,0.276111,1.0,0.0,,,,,,,,,,,,,,,,,,,,,,,,,,,,,,,,,,,,,,,,,,,,,,,,,,,,,,,,,,,,,,,,,,,,,,
1725716002.002015,1725716002.004286,101.0,0.0,4125.641113,4237.307617,4217.307617,4295.128418,4231.922852,4327.692383,4181.282227,4225.0,4194.615234,4199.871582,4412.94873,4458.205078,4293.205078,4348.333496,0.0,1.0,15.0,,,,0.0,4.0,4.0,4.0,4.0,4.0,4.0,4.0,4.0,4.0,4.0,4.0,4.0,4.0,4.0,100.0,,,,,,,,,,,,,,,,,,,,,,,,,,,,,,,,,,,,,,,,,,,,,,,,,,,,,,,,,,,,,,,,,,,,,,,,,,,,,,,,,,,,,,,,,,,,,,,,,,,,,,,,,,,,,,,,,,,,,,,,,,,,,,,,,,,
1725716002.005919,1725716002.00819,102.0,0.0,4124.230957,4234.230957,4218.717773,4297.692383,4232.179688,4326.153809,4182.05127,4219.230957,4191.282227,4200.0,4410.512695,4456.794922,4292.307617,4347.692383,0.0,1.0,15.0,,,,0.0,4.0,4.0,4.0,4.0,4.0,4.0,4.0,4.0,4.0,4.0,4.0,4.0,4.0,4.0,100.0,,,,,,,,,,,,,,,,,,,,,,,,,,,,,,,,,,,,,,,,,,,,,,,,,,,,,,,,,,,,,,,,,,,,,,,,,,,,,,,,,,,,,,,,,,,,,,,,,,,,,,,,,,,,,,,,,,,,,,,,,,,,,,,,,,,
1725716002.009823,1725716002.012094,103.0,0.0,4122.94873,4232.692383,4219.230957,4300.256348,4232.820313,4326.025879,4183.589844,4215.128418,4188.205078,4199.230957,4408.589844,4455.641113,4292.563965,4348.333496,0.0,1.0,15.0,,,,0.0,4.0,4.0,4.0,4.0,4.0,4.0,4.0,4.0,4.0,4.0,4.0,4.0,4.0,4.0,100.0,,,,,,,,,,,,,,,,,,,,,,,,,,,,,,,,,,,,,,,,,,,,,,,,,,,,,,,,,,,,,,,,,,,,,,,,,,,,,,,,,,,,,,,,,,,,,,,,,,,,,,,,,,,,,,,,,,,,,,,,,,,,,,,,,,,
1725716002.013727,1725716002.015998,104.0,0.0,4123.717773,4233.205078,4218.846191,4300.897461,4233.589844,4326.666504,4183.717773,4213.846191,4186.410156,4196.282227,4407.307617,4455.384766,4293.333496,4349.871582,0.0,1.0,15.0,,,,0.0,4.0,4.0,4.0,4.0,4.0,4.0,4.0,4.0,4.0,4.0,4.0,4.0,4.0,4.0,100.0,,,,,,,,,,,,,,,,,,,,,,,,,,,,,,,,,,,,,,,,,,,,,,,,,,,,,,,,,,,,,,,,,,,,,,,,,,,,,,,,,,,,,,,,,,,,,,,,,,,,,,,,,,,,,,,,,,,,,,,,,,,,,,,,,,,
1725716002.017631,1725716002.019802,105.0,0.0,4126.538574,4234.743652,4218.333496,4297.179688,4234.102539,4326.794922,4180.897461,4215.0,4185.897461,4191.794922,4405.897461,4455.641113,4292.820313,4351.153809,0.0,1.0,15.0,,,,0.0,4.0,4.0,4.0,4.0,4.0,4.0,4.0,4.0,4.0,4.0,4.0,4.0,4.0,4.0,100.0,,,,,,,,,,,,,,,,,,,,,,,,,,,,,,,,,,,,,,,,,,,,,,,,,,,,,,,,,,,,,,,,,,,,,,,,,,,,,,,,,,,,,,,,,,,,,,,,,,,,,,,,,,,,,,,,,,,,,,,,,,,,,,,,,,,
1725716002.021535,1725716002.023706,106.0,0.0,4128.461426,4234.871582,4218.077148,4288.461426,4234.230957,4326.025879,4175.641113,4217.307617,4185.512695,4187.436035,4402.94873,4455.0,4290.128418,4350.512695,0.0,1.0,15.0,,,,0.0,4.0,4.0,4.0,4.0,4.0,4.0,4.0,4.0,4.0,4.0,4.0,4.0,4.0,4.0,100.0,,,,,,,,,,,,,,,,,,,,,,,,,,,,,,,,,,,,,,,,,,,,,,,,,,,,,,,,,,,,,,,,,,,,,,,,,,,,,,,,,,,,,,,,,,,,,,,,,,,,,,,,,,,,,,,,,,,,,,,,,,,,,,,,,,,
1725716002.025439,1725716002.02761,107.0,0.0,4127.179688,4231.922852,4217.820313,4276.794922,4233.974121,4325.0,4170.512695,4219.102539,4184.230957,4184.615234,4398.461426,4452.307617,4285.512695,4347.307617,0.0,1.0,15.0,,,,0.0,4.0,4.0,4.0,4.0,4.0,4.0,4.0,4.0,4.0,4.0,4.0,4.0,4.0,4.0,100.0,,,,,,,,,,,,,,,,,,,,,,,,,,,,,,,,,,,,,,,,,,,,,,,,,,,,,,,,,,,,,,,,,,,,,,,,,,,,,,,,,,,,,,,,,,,,,,,,,,,,,,,,,,,,,,,,,,,,,,,,,,,,,,,,,,,
1725716002.029343,1725716002.031415,108.0,0.0,4123.077148,4226.153809,4217.436035,4266.025879,4233.205078,4324.743652,4168.077148,4218.589844,4182.436035,4183.974121,4393.205078,4447.563965,4280.256348,4342.692383,0.0,1.0,15.0,,,,0.0,4.0,4.0,4.0,4.0,4.0,4.0,4.0,4.0,4.0,4.0,4.0,4.0,4.0,4.0,100.0,,,,,,,,,,,,,,,,,,,,,,,,,,,,,,,,,,,,,,,,,,,,,,,,,,,,,,,,0.0,0.0,64.0,0.276111,1.0,0.0,,,,,,,,,,,,,,,,,,,,,,,,,,,,,,,,,,,,,,,,,,,,,,,,,,,,,,,,,,,,,,,,,,,,,,
1725716002.033247,1725716002.035319,109.0,0.0,4119.230957,4220.384766,4216.794922,4259.487305,4232.436035,4326.025879,4168.077148,4215.769043,4181.282227,4184.358887,4389.230957,4442.820313,4276.410156,4338.974121,0.0,1.0,15.0,,,,0.0,4.0,4.0,4.0,4.0,4.0,4.0,4.0,4.0,4.0,4.0,4.0,4.0,4.0,4.0,100.0,,,,,,,,,,,,,,,,,,,,,,,,,,,,,,,,,,,,,,,,,,,,,,,,,,,,,,,,,,,,,,,,,,,,,,,,,,,,,,,,,,,,,,,,,,,,,,,,,,,,,,,,,,,,,,,,,,,,,,,,,,,,,,,,,,,
1725716002.037151,1725716002.039223,110.0,0.0,4118.974121,4216.538574,4216.025879,4258.205078,4232.05127,4328.077148,4168.077148,4212.563965,4181.794922,4184.871582,4388.205078,4440.512695,4275.512695,4337.94873,0.0,1.0,15.0,,,,0.0,4.0,4.0,4.0,4.0,4.0,4.0,4.0,4.0,4.0,4.0,4.0,4.0,4.0,4.0,100.0,,,,,,,,,,,,,,,,,,,,,,,,,,,,,,,,,,,,,,,,,,,,,,,,,,,,,,,,,,,,,,,,,,,,,,,,,,,,,,,,,,,,,,,,,,,,,,,,,,,,,,,,,,,,,,,,,,,,,,,,,,,,,,,,,,,
1725716002.041056,1725716002.043127,111.0,0.0,4123.205078,4215.512695,4215.384766,4260.256348,4232.307617,4328.974121,4165.256348,4212.05127,4183.205078,4185.256348,4390.384766,4442.179688,4277.94873,4340.0,0.0,1.0,15.0,,,,0.0,4.0,4.0,4.0,4.0,4.0,4.0,4.0,4.0,4.0,4.0,4.0,4.0,4.0,4.0,100.0,,,,,,,,,,,,,,,,,,,,,,,,,,,,,,,,,,,,,,,,,,,,,,,,,,,,,,,,,,,,,,,,,,,,,,,,,,,,,,,,,,,,,,,,,,,,,,,,,,,,,,,,,,,,,,,,,,,,,,,,,,,,,,,,,,,
1725716002.04496,1725716002.046931,112.0,0.0,4130.256348,4216.025879,4214.358887,4262.563965,4232.692383,4327.94873,4159.871582,4215.769043,4184.743652,4185.897461,4394.743652,4447.307617,4282.94873,4342.820313,0.0,1.0,15.0,,,,0.0,4.0,4.0,4.0,4.0,4.0,4.0,4.0,4.0,4.0,4.0,4.0,4.0,4.0,4.0,100.0,,,,,,,,,,,,,,,,,,,,,,,,,,,,,,,,,,,,,,,,,,,,,,,,,,,,,,,,,,,,,,,,,,,,,,,,,,,,,,,,,,,,,,,,,,,,,,,,,,,,,,,,,,,,,,,,,,,,,,,,,,,,,,,,,,,
1725716002.048864,1725716002.050835,113.0,0.0,4136.922852,4216.666504,4213.333496,4262.94873,4232.307617,4325.641113,4154.487305,4222.179688,4185.769043,4187.179688,4398.589844,4453.717773,4288.717773,4344.230957,0.0,1.0,15.0,,,,0.0,4.0,4.0,4.0,4.0,4.0,4.0,4.0,4.0,4.0,4.0,4.0,4.0,4.0,4.0,100.0,,,,,,,,,,,,,,,,,,,,,,,,,,,,,,,,,,,,,,,,,,,,,,,,,,,,,,,,,,,,,,,,,,,,,,,,,,,,,,,,,,,,,,,,,,,,,,,,,,,,,,,,,,,,,,,,,,,,,,,,,,,,,,,,,,,
1725716002.052768,1725716002.054739,114.0,0.0,4140.897461,4216.410156,4212.820313,4261.538574,4230.256348,4323.974121,4152.692383,4228.077148,4186.794922,4188.589844,4400.128418,4458.589844,4293.589844,4343.461426,0.0,1.0,15.0,,,,0.0,4.0,4.0,4.0,4.0,4.0,4.0,4.0,4.0,4.0,4.0,4.0,4.0,4.0,4.0,100.0,,,,,,,,,,,,,,,,,,,,,,,,,,,,,,,,,,,,,,,,,,,,,,,,,,,,,,,,,,,,,,,,,,,,,,,,,,,,,,,,,,,,,,,,,,,,,,,,,,,,,,,,,,,,,,,,,,,,,,,,,,,,,,,,,,,
1725716002.056672,1725716002.058743,115.0,0.0,4141.794922,4215.512695,4213.589844,4259.871582,4226.922852,4323.461426,4155.769043,4230.769043,4188.077148,4189.102539,4398.846191,4460.384766,4295.512695,4341.922852,0.0,1.0,15.0,,,,0.0,4.0,4.0,4.0,4.0,4.0,4.0,4.0,4.0,4.0,4.0,4.0,4.0,4.0,4.0,100.0,,,,,,,,,,,,,,,,,,,,,,,,,,,,,,,,,,,,,,,,,,,,,,,,,,,,,,,,,,,,,,,,,,,,,,,,,,,,,,,,,,,,,,,,,,,,,,,,,,,,,,,,,,,,,,,,,,,,,,,,,,,,,,,,,,,
1725716002.060576,1725716002.062647,116.0,0.0,4140.769043,4214.743652,4215.0,4259.230957,4223.974121,4323.589844,4162.05127,4229.358887,4189.487305,4188.333496,4396.282227,4459.358887,4294.358887,4341.922852,0.0,1.0,15.0,,,,0.0,4.0,4.0,4.0,4.0,4.0,4.0,4.0,4.0,4.0,4.0,4.0,4.0,4.0,4.0,100.0,,,,,,,,,,,,,,,,,1.0,0.0,0.0,,,,,,,,,,,,,,,,,,,,,,,,,,,,,,,,,,,,,0.0,0.0,64.0,0.124341,1.0,0.0,3.929334,0.39211,0.609921,0.6954,0.175114,1.459364,0.448199,0.305323,0.163192,0.056411,1.649467,1.546222,0.26807,0.186673,0.075238,16.522085,4.843537,2.599885,0.900502,0.443754,0.513691,0.126162,0.201174,0.087982,0.033991,0.484331,0.032573,0.142046,0.104414,0.05591,3.688822,1.557087,0.377763,0.186999,0.06774,1.184702,0.777273,0.185107,0.221198,0.118636,1.729129,0.619168,0.371334,0.245209,0.092414,2.294974,1.232584,0.808852,0.270581,0.091383,3.283696,1.364268,0.92914,0.455627,0.192534,4.997637,1.375783,0.572374,0.27785,0.146885,3.186041,1.182446,0.913917,0.42054,0.141111,4.010352,0.802114,0.638243,0.297098,0.091648
1725716002.06448,1725716002.066551,117.0,0.0,4139.230957,4214.615234,4215.512695,4259.871582,4223.461426,4323.077148,4167.692383,4224.487305,4190.384766,4186.794922,4394.487305,4456.922852,4292.05127,4344.358887,0.0,1.0,15.0,,,,0.0,4.0,4.0,4.0,4.0,4.0,4.0,4.0,4.0,4.0,4.0,4.0,4.0,4.0,4.0,100.0,,,,,,,,,,,,,,,,,,,,,,,,,,,,,,,,,,,,,,,,,,,,,,,,,,,,,,,,,,,,,,,,,,,,,,,,,,,,,,,,,,,,,,,,,,,,,,,,,,,,,,,,,,,,,,,,,,,,,,,,,,,,,,,,,,,
1725716002.068384,1725716002.070456,118.0,0.0,4138.205078,4215.256348,4213.333496,4261.025879,4225.641113,4321.666504,4169.871582,4218.077148,4190.512695,4185.384766,4394.487305,4454.743652,4291.025879,4347.563965,0.0,1.0,15.0,,,,0.0,4.0,4.0,4.0,4.0,4.0,4.0,4.0,4.0,4.0,4.0,4.0,4.0,4.0,4.0,100.0,,,,,,,,,,,,,,,,,,,,,,,,,,,,,,,,,,,,,,,,,,,,,,,,,,,,,,,,,,,,,,,,,,,,,,,,,,,,,,,,,,,,,,,,,,,,,,,,,,,,,,,,,,,,,,,,,,,,,,,,,,,,,,,,,,,
1725716002.072288,1725716002.07446,119.0,0.0,4138.077148,4216.025879,4208.333496,4261.666504,4229.102539,4319.743652,4168.461426,4213.461426,4189.871582,4185.0,4395.384766,4454.230957,4292.307617,4348.974121,0.0,1.0,15.0,,,,0.0,4.0,4.0,4.0,4.0,4.0,4.0,4.0,4.0,4.0,4.0,4.0,4.0,4.0,4.0,100.0,,,,,,,,,,,,,,,,,,,,,,,,,,,,,,,,,,,,,,,,,,,,,,,,,,,,,,,,,,,,,,,,,,,,,,,,,,,,,,,,,,,,,,,,,,,,,,,,,,,,,,,,,,,,,,,,,,,,,,,,,,,,,,,,,,,
1725716002.076193,1725716002.078364,120.0,0.0,4138.846191,4215.641113,4202.692383,4261.794922,4231.410156,4318.205078,4166.410156,4212.692383,4188.846191,4185.256348,4396.025879,4455.384766,4294.487305,4347.436035,0.0,1.0,15.0,,,,0.0,4.0,4.0,4.0,4.0,4.0,4.0,4.0,4.0,4.0,4.0,4.0,4.0,4.0,4.0,100.0,,,,,,,,,,,,,,,,,,,,,,,,,,,,,,,,,,,,,,,,,,,,,,,,,,,,,,,,,,,,,,,,,,,,,,,,,,,,,,,,,,,,,,,,,,,,,,,,,,,,,,,,,,,,,,,,,,,,,,,,,,,,,,,,,,,
1725716002.080097,1725716002.082268,121.0,0.0,4140.128418,4214.230957,4199.615234,4261.538574,4231.025879,4317.692383,4166.794922,4216.025879,4187.820313,4186.153809,4395.897461,4457.307617,4295.897461,4344.743652,0.0,1.0,15.0,,,,0.0,4.0,4.0,4.0,4.0,4.0,4.0,4.0,4.0,4.0,4.0,4.0,4.0,4.0,4.0,100.0,,,,,,,,,,,,,,,,,,,,,,,,,,,,,,,,,,,,,,,,,,,,,,,,,,,,,,,,,,,,,,,,,,,,,,,,,,,,,,,,,,,,,,,,,,,,,,,,,,,,,,,,,,,,,,,,,,,,,,,,,,,,,,,,,,,
1725716002.084001,1725716002.086172,122.0,0.0,4141.794922,4213.333496,4201.153809,4261.922852,4227.820313,4318.205078,4170.769043,4220.897461,4187.307617,4187.307617,4395.769043,4458.589844,4296.153809,4343.077148,0.0,1.0,15.0,,,,0.0,4.0,4.0,4.0,4.0,4.0,4.0,4.0,4.0,4.0,4.0,4.0,4.0,4.0,4.0,100.0,,,,,,,,,,,,,,,,,,,,,,,,,,,,,,,,,,,,,,,,,,,,,,,,,,,,,,,,,,,,,,,,,,,,,,,,,,,,,,,,,,,,,,,,,,,,,,,,,,,,,,,,,,,,,,,,,,,,,,,,,,,,,,,,,,,
1725716002.087905,1725716002.090176,123.0,0.0,4143.077148,4214.871582,4206.666504,4263.205078,4223.846191,4319.230957,4176.666504,4223.974121,4187.94873,4188.205078,4396.153809,4458.333496,4296.666504,4344.230957,0.0,1.0,15.0,,,,0.0,4.0,4.0,4.0,4.0,4.0,4.0,4.0,4.0,4.0,4.0,4.0,4.0,4.0,4.0,100.0,,,,,,,,,,,,,,,,,,,,,,,,,,,,,,,,,,,,,,,,,,,,,,,,,,,,,,,,,,,,,,,,,,,,,,,,,,,,,,,,,,,,,,,,,,,,,,,,,,,,,,,,,,,,,,,,,,,,,,,,,,,,,,,,,,,
1725716002.091809,1725716002.09408,124.0,0.0,4144.230957,4219.487305,4213.333496,4266.153809,4221.794922,4320.512695,4182.179688,4223.846191,4190.0,4188.077148,4396.922852,4457.436035,4298.974121,4347.94873,0.0,1.0,15.0,,,,0.0,4.0,4.0,4.0,4.0,4.0,4.0,4.0,4.0,4.0,4.0,4.0,4.0,4.0,4.0,100.0,,,,,,,,,,,,,,,,,,,,,,,,,,,,,,,,,,,,,,,,,,,,,,,,,,,,,,,,0.0,0.0,64.0,0.124341,1.0,0.0,,,,,,,,,,,,,,,,,,,,,,,,,,,,,,,,,,,,,,,,,,,,,,,,,,,,,,,,,,,,,,,,,,,,,,
1725716002.095713,1725716002.097984,125.0,0.0,4145.256348,4225.641113,4217.692383,4270.384766,4222.692383,4321.666504,4185.512695,4221.666504,4193.205078,4186.666504,4397.692383,4457.820313,4303.205078,4352.563965,0.0,1.0,15.0,,,,0.0,4.0,4.0,4.0,4.0,4.0,4.0,4.0,4.0,4.0,4.0,4.0,4.0,4.0,4.0,100.0,,,,,,,,,,,,,,,,,,,,,,,,,,,,,,,,,,,,,,,,,,,,,,,,,,,,,,,,,,,,,,,,,,,,,,,,,,,,,,,,,,,,,,,,,,,,,,,,,,,,,,,,,,,,,,,,,,,,,,,,,,,,,,,,,,,
1725716002.099617,1725716002.101888,126.0,0.0,4147.307617,4230.769043,4218.589844,4275.512695,4225.897461,4322.692383,4186.538574,4220.128418,4196.794922,4185.128418,4398.461426,4460.897461,4307.692383,4356.666504,0.0,1.0,15.0,,,,0.0,4.0,4.0,4.0,4.0,4.0,4.0,4.0,4.0,4.0,4.0,4.0,4.0,4.0,4.0,100.0,,,,,,,,,,,,,,,,,,,,,,,,,,,,,,,,,,,,,,,,,,,,,,,,,,,,,,,,,,,,,,,,,,,,,,,,,,,,,,,,,,,,,,,,,,,,,,,,,,,,,,,,,,,,,,,,,,,,,,,,,,,,,,,,,,,
1725716002.103521,1725716002.105892,127.0,0.0,4151.282227,4232.94873,4217.436035,4279.743652,4229.615234,4323.589844,4186.282227,4220.897461,4199.743652,4185.384766,4400.0,4466.410156,4310.897461,4359.487305,0.0,1.0,15.0,,,,0.0,4.0,4.0,4.0,4.0,4.0,4.0,4.0,4.0,4.0,4.0,4.0,4.0,4.0,4.0,100.0,,,,,,,,,,,,,,,,,,,,,,,,,,,,,,,,,,,,,,,,,,,,,,,,,,,,,,,,,,,,,,,,,,,,,,,,,,,,,,,,,,,,,,,,,,,,,,,,,,,,,,,,,,,,,,,,,,,,,,,,,,,,,,,,,,,
1725716002.107425,1725716002.109796,128.0,0.0,4157.563965,4232.436035,4216.538574,4281.922852,4231.922852,4324.487305,4185.769043,4224.358887,4201.538574,4188.846191,4402.820313,4472.820313,4312.563965,4361.282227,2687.0,1.0,15.0,,,,0.0,4.0,4.0,4.0,4.0,4.0,4.0,4.0,4.0,4.0,4.0,4.0,4.0,4.0,4.0,100.0,,,,,,,,,,,,,,,,,,,,,,,,,,,,,,,,,,,,,,,,,,,,,,,,,,,,,,,,,,,,,,,,,,,,,,,,,,,,,,,,,,,,,,,,,,,,,,,,,,,,,,,,,,,,,,,,,,,,,,,,,,,,,,,,,,,
1725716002.111329,1725716002.1137,129.0,0.0,4164.871582,4230.769043,4217.307617,4281.794922,4232.307617,4325.0,4185.128418,4229.230957,4202.179688,4194.487305,4405.897461,4477.692383,4313.333496,4362.563965,2568.0,1.0,15.0,,,,0.0,4.0,4.0,4.0,4.0,4.0,4.0,4.0,4.0,4.0,4.0,4.0,4.0,4.0,4.0,100.0,,,,,,,,,,,,,,,,,,,,,,,,,,,,,,,,,,,,,,,,,,,,,,,,,,,,,,,,,,,,,,,,,,,,,,,,,,,,,,,,,,,,,,,,,,,,,,,,,,,,,,,,,,,,,,,,,,,,,,,,,,,,,,,,,,,
1725716002.115234,1725716002.117605,130.0,0.0,4170.641113,4229.743652,4219.358887,4280.384766,4231.794922,4325.512695,4184.743652,4234.102539,4201.922852,4199.615234,4407.307617,4478.846191,4313.333496,4363.205078,2499.0,1.0,15.0,,,,0.0,4.0,4.0,4.0,4.0,4.0,4.0,4.0,4.0,4.0,4.0,4.0,4.0,4.0,4.0,100.0,,,,,,,,,,,,,,,,,,,,,,,,,,,,,,,,,,,,,,,,,,,,,,,,,,,,,,,,,,,,,,,,,,,,,,,,,,,,,,,,,,,,,,,,,,,,,,,,,,,,,,,,,,,,,,,,,,,,,,,,,,,,,,,,,,,
1725716002.119138,1725716002.121509,131.0,0.0,4172.436035,4230.384766,4221.153809,4279.230957,4231.153809,4325.897461,4184.743652,4236.666504,4201.410156,4201.025879,4405.769043,4475.769043,4311.794922,4362.05127,2469.0,1.0,15.0,,,,0.0,4.0,4.0,4.0,4.0,4.0,4.0,4.0,4.0,4.0,4.0,4.0,4.0,4.0,4.0,100.0,,,,,,,,,,,,,,,,,,,,,,,,,,,,,,,,,,,,,,,,,,,,,,,,,,,,,,,,,,,,,,,,,,,,,,,,,,,,,,,,,,,,,,,,,,,,,,,,,,,,,,,,,,,,,,,,,,,,,,,,,,,,,,,,,,,
1725716002.123042,1725716002.125313,132.0,0.0,4169.743652,4232.179688,4221.410156,4279.230957,4230.897461,4326.282227,4185.128418,4235.769043,4201.282227,4197.563965,4402.05127,4469.230957,4307.820313,4358.333496,2444.0,1.0,15.0,,,,0.0,4.0,4.0,4.0,4.0,4.0,4.0,4.0,4.0,4.0,4.0,4.0,4.0,4.0,4.0,100.0,,,,,,,,,,,,,,,,,,,,,,,,,,,,,,,,,,,,,,,,,,,,,,,,,,,,,,,,0.0,0.0,64.0,0.124341,1.0,0.0,,,,,,,,,,,,,,,,,,,,,,,,,,,,,,,,,,,,,,,,,,,,,,,,,,,,,,,,,,,,,,,,,,,,,,
1725716002.126946,1725716002.129217,133.0,0.0,4163.589844,4233.461426,4220.128418,4279.615234,4230.897461,4326.025879,4185.897461,4232.436035,4201.666504,4191.282227,4397.820313,4461.794922,4301.922852,4352.94873,2401.0,1.0,15.0,,,,0.0,4.0,4.0,4.0,4.0,4.0,4.0,4.0,4.0,4.0,4.0,4.0,4.0,4.0,4.0,100.0,,,,,,,,,,,,,,,,,,,,,,,,,,,,,,,,,,,,,,,,,,,,,,,,,,,,,,,,,,,,,,,,,,,,,,,,,,,,,,,,,,,,,,,,,,,,,,,,,,,,,,,,,,,,,,,,,,,,,,,,,,,,,,,,,,,
1725716002.13085,1725716002.133121,134.0,0.0,4156.666504,4233.205078,4217.820313,4279.743652,4231.153809,4325.256348,4186.538574,4229.102539,4202.179688,4185.897461,4394.871582,4456.410156,4296.025879,4348.717773,2439.0,1.0,15.0,,,,0.0,4.0,4.0,4.0,4.0,4.0,4.0,4.0,4.0,4.0,4.0,4.0,4.0,4.0,4.0,100.0,,,,,,,,,,,,,,,,,,,,,,,,,,,,,,,,,,,,,,,,,,,,,,,,,,,,,,,,,,,,,,,,,,,,,,,,,,,,,,,,,,,,,,,,,,,,,,,,,,,,,,,,,,,,,,,,,,,,,,,,,,,,,,,,,,,
1725716002.134754,1725716002.136925,135.0,0.0,4151.666504,4231.538574,4215.769043,4278.846191,4231.538574,4324.102539,4186.794922,4228.461426,4202.05127,4184.230957,4393.589844,4455.256348,4292.436035,4348.077148,2489.0,1.0,15.0,,,,0.0,4.0,4.0,4.0,4.0,4.0,4.0,4.0,4.0,4.0,4.0,4.0,4.0,4.0,4.0,100.0,,,,,,,,,,,,,,,,,,,,,,,,,,,,,,,,,,,,,,,,,,,,,,,,,,,,,,,,,,,,,,,,,,,,,,,,,,,,,,,,,,,,,,,,,,,,,,,,,,,,,,,,,,,,,,,,,,,,,,,,,,,,,,,,,,,
1725716002.138658,1725716002.140829,136.0,0.0,4150.897461,4230.0,4215.512695,4277.563965,4232.179688,4323.461426,4186.282227,4230.641113,4201.666504,4187.179688,4393.717773,4457.94873,4292.820313,4351.153809,2468.0,1.0,15.0,,,,0.0,4.0,4.0,4.0,4.0,4.0,4.0,4.0,4.0,4.0,4.0,4.0,4.0,4.0,4.0,100.0,,,,,,,,,,,,,,,,,,,,,,,,,,,,,,,,,,,,,,,,,,,,,,,,,,,,,,,,,,,,,,,,,,,,,,,,,,,,,,,,,,,,,,,,,,,,,,,,,,,,,,,,,,,,,,,,,,,,,,,,,,,,,,,,,,,
1725716002.142562,1725716002.144733,137.0,0.0,4154.615234,4229.871582,4217.563965,4277.307617,4232.692383,4323.974121,4185.641113,4233.461426,4201.922852,4192.692383,4394.871582,4463.205078,4297.436035,4355.256348,2553.0,1.0,15.0,,,,0.0,4.0,4.0,4.0,4.0,4.0,4.0,4.0,4.0,4.0,4.0,4.0,4.0,4.0,4.0,100.0,,,,,,,,,,,,,,,,,,,,,,,,,,,,,,,,,,,,,,,,,,,,,,,,,,,,,,,,,,,,,,,,,,,,,,,,,,,,,,,,,,,,,,,,,,,,,,,,,,,,,,,,,,,,,,,,,,,,,,,,,,,,,,,,,,,
1725716002.146466,1725716002.148638,138.0,0.0,4161.922852,4231.153809,4221.922852,4278.974121,4233.333496,4325.769043,4185.128418,4235.0,4203.461426,4197.692383,4396.794922,4469.102539,4303.846191,4358.205078,2875.0,1.0,15.0,,,,0.0,4.0,4.0,4.0,4.0,4.0,4.0,4.0,4.0,4.0,4.0,4.0,4.0,4.0,4.0,100.0,,,,,,,,,,,,,,,,,,,,,,,,,,,,,,,,,,,,,,,,,,,,,,,,,,,,,,,,,,,,,,,,,,,,,,,,,,,,,,,,,,,,,,,,,,,,,,,,,,,,,,,,,,,,,,,,,,,,,,,,,,,,,,,,,,,
1725716002.15037,1725716002.152442,139.0,0.0,4170.0,4232.563965,4227.307617,4282.436035,4233.846191,4327.692383,4185.512695,4234.871582,4206.410156,4200.641113,4399.230957,4473.846191,4309.358887,4358.846191,3119.0,1.0,15.0,,,,0.0,4.0,4.0,4.0,4.0,4.0,4.0,4.0,4.0,4.0,4.0,4.0,4.0,4.0,4.0,100.0,,,,,,,,,,,,,,,,,,,,,,,,,,,,,,,,,,,,,,,,,,,,,,,,,,,,,,,,,,,,,,,,,,,,,,,,,,,,,,,,,,,,,,,,,,,,,,,,,,,,,,,,,,,,,,,,,,,,,,,,,,,,,,,,,,,
1725716002.154275,1725716002.156346,140.0,0.0,4177.05127,4233.205078,4232.05127,4286.538574,4234.230957,4328.589844,4187.179688,4234.230957,4210.256348,4201.153809,4401.922852,4476.282227,4312.05127,4358.461426,3418.0,1.0,15.0,,,,0.0,4.0,4.0,4.0,4.0,4.0,4.0,4.0,4.0,4.0,4.0,4.0,4.0,4.0,4.0,100.0,,,,,,,,,,,,,,,,,,,,,,,,,,,,,,,,,,,,,,,,,,,,,,,,,,,,,,,,0.0,0.0,64.0,0.124341,1.0,0.0,,,,,,,,,,,,,,,,,,,,,,,,,,,,,,,,,,,,,,,,,,,,,,,,,,,,,,,,,,,,,,,,,,,,,,
1725716002.158179,1725716002.16025,141.0,0.0,4182.436035,4232.94873,4234.615234,4290.128418,4234.487305,4327.820313,4189.615234,4233.717773,4214.102539,4200.641113,4403.846191,4476.794922,4312.307617,4358.846191,3800.0,1.0,15.0,,,,0.0,4.0,4.0,4.0,4.0,4.0,4.0,4.0,4.0,4.0,4.0,4.0,4.0,4.0,4.0,100.0,,,,,,,,,,,,,,,,,,,,,,,,,,,,,,,,,,,,,,,,,,,,,,,,,,,,,,,,,,,,,,,,,,,,,,,,,,,,,,,,,,,,,,,,,,,,,,,,,,,,,,,,,,,,,,,,,,,,,,,,,,,,,,,,,,,
1725716002.162083,1725716002.164254,142.0,0.0,4187.179688,4232.179688,4234.615234,4292.692383,4234.230957,4325.897461,4191.410156,4233.333496,4216.666504,4200.512695,4404.615234,4476.410156,4311.538574,4361.025879,2875.0,1.0,15.0,,,,0.0,4.0,4.0,4.0,4.0,4.0,4.0,4.0,4.0,4.0,4.0,4.0,4.0,4.0,4.0,100.0,,,,,,,,,,,,,,,,,,,,,,,,,,,,,,,,,,,,,,,,,,,,,,,,,,,,,,,,,,,,,,,,,,,,,,,,,,,,,,,,,,,,,,,,,,,,,,,,,,,,,,,,,,,,,,,,,,,,,,,,,,,,,,,,,,,
1725716002.165987,1725716002.168158,143.0,0.0,4192.05127,4231.922852,4233.461426,4294.102539,4233.846191,4324.102539,4191.538574,4233.205078,4216.538574,4200.897461,4403.846191,4476.666504,4310.769043,4364.230957,3119.0,1.0,15.0,,,,0.0,4.0,4.0,4.0,4.0,4.0,4.0,4.0,4.0,4.0,4.0,4.0,4.0,4.0,4.0,100.0,,,,,,,,,,,,,,,,,,,,,,,,,,,,,,,,,,,,,,,,,,,,,,,,,,,,,,,,,,,,,,,,,,,,,,,,,,,,,,,,,,,,,,,,,,,,,,,,,,,,,,,,,,,,,,,,,,,,,,,,,,,,,,,,,,,
1725716002.169891,1725716002.172062,144.0,0.0,4197.179688,4232.307617,4232.692383,4294.487305,4233.333496,4323.589844,4190.256348,4233.461426,4213.717773,4201.410156,4402.692383,4478.077148,4310.256348,4367.436035,3418.0,1.0,15.0,,,,0.0,4.0,4.0,4.0,4.0,4.0,4.0,4.0,4.0,4.0,4.0,4.0,4.0,4.0,4.0,100.0,,,,,,,,,,,,,,,,,,,,,,,,,,,,,,,,,,,,,,,,,,,,,,,,,,,,,,,,,,,,,,,,,,,,,,,,,,,,,,,,,,,,,,,,,,,,,,,,,,,,,,,,,,,,,,,,,,,,,,,,,,,,,,,,,,,
1725716002.173795,1725716002.176066,145.0,0.0,4201.153809,4233.461426,4233.589844,4294.230957,4233.205078,4324.615234,4188.589844,4233.974121,4209.358887,4201.410156,4402.436035,4480.384766,4310.256348,4369.230957,3800.0,1.0,15.0,,,,0.0,4.0,4.0,4.0,4.0,4.0,4.0,4.0,4.0,4.0,4.0,4.0,4.0,4.0,4.0,100.0,,,,,,,,,,,,,,,,,,,,,,,,,,,,,,,,,,,,,,,,,,,,,,,,,,,,,,,,,,,,,,,,,,,,,,,,,,,,,,,,,,,,,,,,,,,,,,,,,,,,,,,,,,,,,,,,,,,,,,,,,,,,,,,,,,,
1725716002.177699,1725716002.17997,146.0,0.0,4203.077148,4234.871582,4235.641113,4293.461426,4233.589844,4326.153809,4187.307617,4234.358887,4205.256348,4201.282227,4403.589844,4481.922852,4311.282227,4369.358887,2875.0,1.0,15.0,,,,0.0,4.0,4.0,4.0,4.0,4.0,4.0,4.0,4.0,4.0,4.0,4.0,4.0,4.0,4.0,100.0,,,,,,,,,,,,,,,,,,,,,,,,,,,,,,,,,,,,,,,,,,,,,,,,,,,,,,,,,,,,,,,,,,,,,,,,,,,,,,,,,,,,,,,,,,,,,,,,,,,,,,,,,,,,,,,,,,,,,,,,,,,,,,,,,,,
1725716002.181603,1725716002.183874,147.0,0.0,4203.077148,4236.153809,4237.05127,4292.692383,4234.102539,4326.922852,4187.179688,4233.717773,4202.94873,4201.153809,4405.0,4481.282227,4312.692383,4368.589844,3119.0,1.0,15.0,,,,0.0,4.0,4.0,4.0,4.0,4.0,4.0,4.0,4.0,4.0,4.0,4.0,4.0,4.0,4.0,100.0,,,,,,,,,,,,,,,,,,,,,,,,,,,,,,,,,,,,,,,,,,,,,,,,,,,,,,,,,,,,,,,,,,,,,,,,,,,,,,,,,,,,,,,,,,,,,,,,,,,,,,,,,,,,,,,,,,,,,,,,,,,,,,,,,,,
1725716002.185507,1725716002.187779,148.0,0.0,4202.436035,4236.794922,4236.282227,4292.05127,4234.615234,4326.410156,4187.94873,4232.307617,4202.563965,4200.897461,4405.128418,4478.846191,4313.846191,4368.717773,3418.0,1.0,15.0,,,,0.0,4.0,4.0,4.0,4.0,4.0,4.0,4.0,4.0,4.0,4.0,4.0,4.0,4.0,4.0,100.0,,,,,,,,,,,,,,,,,1.0,0.0,0.0,,,,,,,,,,,,,,,,,,,,,,,,,,,,,,,,,,,,,0.0,0.0,64.0,0.059329,1.0,0.0,3.562583,0.583215,0.658011,0.706421,0.183824,1.269319,0.377665,0.291308,0.147142,0.0627,1.457508,1.121094,0.267428,0.175384,0.075534,14.547584,4.537198,2.257536,0.813767,0.404501,0.459678,0.132443,0.1846,0.074098,0.030043,0.359684,0.032261,0.135952,0.108008,0.056332,3.63129,1.374092,0.328128,0.17057,0.075204,1.047532,0.56528,0.242571,0.22378,0.137359,1.756021,0.431122,0.452833,0.25516,0.097504,2.088032,1.006241,0.734511,0.269275,0.097145,3.077507,1.083887,0.861461,0.457091,0.194797,4.750981,0.941094,0.558668,0.294981,0.150382,2.950073,0.942441,0.850783,0.432315,0.137062,3.481907,0.620826,0.60507,0.308498,0.089727
1725716002.189412,1725716002.191683,149.0,0.0,4202.307617,4236.794922,4233.461426,4291.666504,4234.871582,4325.384766,4189.102539,4231.025879,4203.717773,4200.641113,4403.974121,4475.897461,4313.717773,4370.384766,3800.0,1.0,15.0,,,,0.0,4.0,4.0,4.0,4.0,4.0,4.0,4.0,4.0,4.0,4.0,4.0,4.0,4.0,4.0,100.0,,,,,,,,,,,,,,,,,,,,,,,,,,,,,,,,,,,,,,,,,,,,,,,,,,,,,,,,,,,,,,,,,,,,,,,,,,,,,,,,,,,,,,,,,,,,,,,,,,,,,,,,,,,,,,,,,,,,,,,,,,,,,,,,,,,
1725716002.193316,1725716002.195687,150.0,0.0,4202.436035,4236.025879,4230.512695,4291.538574,4234.743652,4324.743652,4189.871582,4230.769043,4205.641113,4200.769043,4402.563965,4474.615234,4312.436035,4372.820313,2875.0,1.0,15.0,,,,0.0,4.0,4.0,4.0,4.0,4.0,4.0,4.0,4.0,4.0,4.0,4.0,4.0,4.0,4.0,100.0,,,,,,,,,,,,,,,,,,,,,,,,,,,,,,,,,,,,,,,,,,,,,,,,,,,,,,,,,,,,,,,,,,,,,,,,,,,,,,,,,,,,,,,,,,,,,,,,,,,,,,,,,,,,,,,,,,,,,,,,,,,,,,,,,,,
1725716002.19722,1725716002.199591,151.0,0.0,4201.794922,4235.128418,4229.230957,4291.538574,4234.358887,4325.128418,4189.871582,4231.794922,4207.563965,4201.153809,4402.436035,4476.282227,4311.794922,4374.230957,3119.0,1.0,15.0,,,,0.0,4.0,4.0,4.0,4.0,4.0,4.0,4.0,4.0,4.0,4.0,4.0,4.0,4.0,4.0,100.0,,,,,,,,,,,,,,,,,,,,,,,,,,,,,,,,,,,,,,,,,,,,,,,,,,,,,,,,,,,,,,,,,,,,,,,,,,,,,,,,,,,,,,,,,,,,,,,,,,,,,,,,,,,,,,,,,,,,,,,,,,,,,,,,,,,
1725716002.201124,1725716002.203495,152.0,0.0,4200.512695,4234.487305,4229.871582,4291.153809,4233.717773,4326.282227,4189.358887,4234.615234,4209.615234,4201.025879,4403.974121,4480.641113,4313.205078,4373.717773,3418.0,1.0,15.0,,,,0.0,4.0,4.0,4.0,4.0,4.0,4.0,4.0,4.0,4.0,4.0,4.0,4.0,4.0,4.0,100.0,,,,,,,,,,,,,,,,,,,,,,,,,,,,,,,,,,,,,,,,,,,,,,,,,,,,,,,,,,,,,,,,,,,,,,,,,,,,,,,,,,,,,,,,,,,,,,,,,,,,,,,,,,,,,,,,,,,,,,,,,,,,,,,,,,,
1725716002.205028,1725716002.207399,153.0,0.0,4200.128418,4234.743652,4231.025879,4290.384766,4233.333496,4327.563965,4188.846191,4239.487305,4212.436035,4200.256348,4406.794922,4486.538574,4316.922852,4372.307617,3800.0,1.0,15.0,,,,0.0,4.0,4.0,4.0,4.0,4.0,4.0,4.0,4.0,4.0,4.0,4.0,4.0,4.0,4.0,100.0,,,,,,,,,,,,,,,,,,,,,,,,,,,,,,,,,,,,,,,,,,,,,,,,,,,,,,,,,,,,,,,,,,,,,,,,,,,,,,,,,,,,,,,,,,,,,,,,,,,,,,,,,,,,,,,,,,,,,,,,,,,,,,,,,,,
1725716002.208932,1725716002.211203,154.0,0.0,4202.307617,4235.641113,4231.410156,4289.615234,4233.333496,4328.333496,4188.333496,4246.410156,4216.282227,4200.0,4410.128418,4491.666504,4321.794922,4372.307617,2875.0,1.0,15.0,,,,0.0,4.0,4.0,4.0,4.0,4.0,4.0,4.0,4.0,4.0,4.0,4.0,4.0,4.0,4.0,100.0,,,,,,,,,,,,,,,,,,,,,,,,,,,,,,,,,,,,,,,,,,,,,,,,,,,,,,,,,,,,,,,,,,,,,,,,,,,,,,,,,,,,,,,,,,,,,,,,,,,,,,,,,,,,,,,,,,,,,,,,,,,,,,,,,,,
1725716002.212836,1725716002.215107,155.0,0.0,4207.05127,4236.410156,4230.641113,4289.743652,4233.717773,4328.461426,4187.307617,4253.461426,4220.512695,4201.282227,4414.487305,4494.358887,4325.512695,4374.615234,3119.0,1.0,15.0,,,,0.0,4.0,4.0,4.0,4.0,4.0,4.0,4.0,4.0,4.0,4.0,4.0,4.0,4.0,4.0,100.0,,,,,,,,,,,,,,,,,,,,,,,,,,,,,,,,,,,,,,,,,,,,,,,,,,,,,,,,,,,,,,,,,,,,,,,,,,,,,,,,,,,,,,,,,,,,,,,,,,,,,,,,,,,,,,,,,,,,,,,,,,,,,,,,,,,
1725716002.21674,1725716002.219011,156.0,0.0,4212.436035,4236.282227,4229.358887,4291.025879,4233.974121,4328.333496,4184.871582,4257.820313,4223.461426,4204.615234,4419.743652,4493.974121,4326.922852,4378.077148,3418.0,1.0,15.0,,,,0.0,4.0,4.0,4.0,4.0,4.0,4.0,4.0,4.0,4.0,4.0,4.0,4.0,4.0,4.0,100.0,,,,,,,,,,,,,,,,,,,,,,,,,,,,,,,,,,,,,,,,,,,,,,,,,,,,,,,,0.0,0.0,64.0,0.059329,1.0,0.0,,,,,,,,,,,,,,,,,,,,,,,,,,,,,,,,,,,,,,,,,,,,,,,,,,,,,,,,,,,,,,,,,,,,,,
1725716002.220644,1725716002.222915,157.0,0.0,4216.025879,4235.0,4228.333496,4293.205078,4233.846191,4328.077148,4180.641113,4258.461426,4223.461426,4208.974121,4424.871582,4491.794922,4326.666504,4380.641113,3800.0,1.0,15.0,,,,0.0,4.0,4.0,4.0,4.0,4.0,4.0,4.0,4.0,4.0,4.0,4.0,4.0,4.0,4.0,100.0,,,,,,,,,,,,,,,,,,,,,,,,,,,,,,,,,,,,,,,,,,,,,,,,,,,,,,,,,,,,,,,,,,,,,,,,,,,,,,,,,,,,,,,,,,,,,,,,,,,,,,,,,,,,,,,,,,,,,,,,,,,,,,,,,,,
1725716002.224548,1725716002.22682,158.0,0.0,4216.282227,4233.461426,4228.077148,4294.871582,4233.077148,4327.820313,4175.512695,4256.410156,4220.769043,4212.692383,4428.205078,4490.897461,4325.897461,4381.282227,2875.0,1.0,15.0,,,,0.0,4.0,4.0,4.0,4.0,4.0,4.0,4.0,4.0,4.0,4.0,4.0,4.0,4.0,4.0,100.0,,,,,,,,,,,,,,,,,,,,,,,,,,,,,,,,,,,,,,,,,,,,,,,,,,,,,,,,,,,,,,,,,,,,,,,,,,,,,,,,,,,,,,,,,,,,,,,,,,,,,,,,,,,,,,,,,,,,,,,,,,,,,,,,,,,
1725716002.228452,1725716002.230624,159.0,0.0,4215.0,4233.461426,4228.589844,4295.128418,4232.05127,4327.94873,4171.025879,4254.487305,4218.077148,4214.871582,4429.358887,4493.333496,4326.922852,4381.153809,3119.0,1.0,15.0,,,,0.0,4.0,4.0,4.0,4.0,4.0,4.0,4.0,4.0,4.0,4.0,4.0,4.0,4.0,4.0,100.0,,,,,,,,,,,,,,,,,,,,,,,,,,,,,,,,,,,,,,,,,,,,,,,,,,,,,,,,,,,,,,,,,,,,,,,,,,,,,,,,,,,,,,,,,,,,,,,,,,,,,,,,,,,,,,,,,,,,,,,,,,,,,,,,,,,
1725716002.232356,1725716002.234528,160.0,0.0,4215.256348,4235.641113,4229.358887,4294.358887,4231.282227,4328.077148,4168.205078,4254.487305,4218.717773,4215.769043,4429.102539,4498.846191,4330.769043,4381.922852,3418.0,1.0,15.0,,,,0.0,4.0,4.0,4.0,4.0,4.0,4.0,4.0,4.0,4.0,4.0,4.0,4.0,4.0,4.0,100.0,,,,,,,,,,,,,,,,,,,,,,,,,,,,,,,,,,,,,,,,,,,,,,,,,,,,,,,,,,,,,,,,,,,,,,,,,,,,,,,,,,,,,,,,,,,,,,,,,,,,,,,,,,,,,,,,,,,,,,,,,,,,,,,,,,,
1725716002.236261,1725716002.238432,161.0,0.0,4218.974121,4239.358887,4229.871582,4293.205078,4231.025879,4327.692383,4167.307617,4255.641113,4223.589844,4216.153809,4429.102539,4505.0,4336.922852,4384.230957,3800.0,1.0,15.0,,,,0.0,4.0,4.0,4.0,4.0,4.0,4.0,4.0,4.0,4.0,4.0,4.0,4.0,4.0,4.0,100.0,,,,,,,,,,,,,,,,,,,,,,,,,,,,,,,,,,,,,,,,,,,,,,,,,,,,,,,,,,,,,,,,,,,,,,,,,,,,,,,,,,,,,,,,,,,,,,,,,,,,,,,,,,,,,,,,,,,,,,,,,,,,,,,,,,,
1725716002.240165,1725716002.242236,162.0,0.0,4225.641113,4243.077148,4230.0,4292.692383,4231.282227,4326.666504,4167.692383,4256.538574,4230.512695,4216.922852,4430.256348,4508.846191,4342.692383,4387.307617,2875.0,1.0,15.0,,,,0.0,4.0,4.0,4.0,4.0,4.0,4.0,4.0,4.0,4.0,4.0,4.0,4.0,4.0,4.0,100.0,,,,,,,,,,,,,,,,,,,,,,,,,,,,,,,,,,,,,,,,,,,,,,,,,,,,,,,,,,,,,,,,,,,,,,,,,,,,,,,,,,,,,,,,,,,,,,,,,,,,,,,,,,,,,,,,,,,,,,,,,,,,,,,,,,,
1725716002.244069,1725716002.24614,163.0,0.0,4232.179688,4245.512695,4230.128418,4293.077148,4232.307617,4325.0,4167.94873,4255.512695,4235.128418,4218.077148,4432.179688,4508.461426,4345.256348,4389.230957,3119.0,1.0,15.0,,,,0.0,4.0,4.0,4.0,4.0,4.0,4.0,4.0,4.0,4.0,4.0,4.0,4.0,4.0,4.0,100.0,,,,,,,,,,,,,,,,,,,,,,,,,,,,,,,,,,,,,,,,,,,,,,,,,,,,,,,,,,,,,,,,,,,,,,,,,,,,,,,,,,,,,,,,,,,,,,,,,,,,,,,,,,,,,,,,,,,,,,,,,,,,,,,,,,,
1725716002.247973,1725716002.250044,164.0,0.0,4235.256348,4246.025879,4230.769043,4294.102539,4233.974121,4324.102539,4167.94873,4252.820313,4234.102539,4218.717773,4433.974121,4504.358887,4343.846191,4388.974121,3418.0,1.0,15.0,,,,0.0,4.0,4.0,4.0,4.0,4.0,4.0,4.0,4.0,4.0,4.0,4.0,4.0,4.0,4.0,100.0,,,,,,,,,,,,,,,,,,,,,,,,,,,,,,,,,,,,,,,,,,,,,,,,,,,,,,,,0.0,0.0,64.0,0.059329,1.0,0.0,,,,,,,,,,,,,,,,,,,,,,,,,,,,,,,,,,,,,,,,,,,,,,,,,,,,,,,,,,,,,,,,,,,,,,
1725716002.251877,1725716002.254048,165.0,0.0,4233.846191,4245.384766,4231.666504,4295.0,4235.384766,4324.615234,4167.820313,4250.256348,4227.94873,4218.589844,4434.102539,4498.717773,4340.256348,4386.666504,3800.0,1.0,15.0,,,,0.0,4.0,4.0,4.0,4.0,4.0,4.0,4.0,4.0,4.0,4.0,4.0,4.0,4.0,4.0,100.0,,,,,,,,,,,,,,,,,,,,,,,,,,,,,,,,,,,,,,,,,,,,,,,,,,,,,,,,,,,,,,,,,,,,,,,,,,,,,,,,,,,,,,,,,,,,,,,,,,,,,,,,,,,,,,,,,,,,,,,,,,,,,,,,,,,
1725716002.255781,1725716002.257953,166.0,0.0,4229.487305,4245.128418,4232.179688,4295.256348,4235.897461,4326.794922,4168.077148,4248.846191,4219.871582,4217.94873,4432.307617,4494.358887,4337.307617,4384.230957,2875.0,1.0,15.0,,,,0.0,4.0,4.0,4.0,4.0,4.0,4.0,4.0,4.0,4.0,4.0,4.0,4.0,4.0,4.0,100.0,,,,,,,,,,,,,,,,,,,,,,,,,,,,,,,,,,,,,,,,,,,,,,,,,,,,,,,,,,,,,,,,,,,,,,,,,,,,,,,,,,,,,,,,,,,,,,,,,,,,,,,,,,,,,,,,,,,,,,,,,,,,,,,,,,,
1725716002.259685,1725716002.261857,167.0,0.0,4225.897461,4245.897461,4231.282227,4295.0,4235.512695,4329.487305,4168.846191,4248.333496,4214.871582,4217.307617,4430.256348,4492.820313,4336.922852,4383.846191,3119.0,1.0,15.0,,,,0.0,4.0,4.0,4.0,4.0,4.0,4.0,4.0,4.0,4.0,4.0,4.0,4.0,4.0,4.0,100.0,,,,,,,,,,,,,,,,,,,,,,,,,,,,,,,,,,,,,,,,,,,,,,,,,,,,,,,,,,,,,,,,,,,,,,,,,,,,,,,,,,,,,,,,,,,,,,,,,,,,,,,,,,,,,,,,,,,,,,,,,,,,,,,,,,,
1725716002.263589,1725716002.265761,168.0,0.0,4226.025879,4247.179688,4230.0,4295.0,4234.871582,4331.153809,4169.871582,4247.820313,4216.025879,4216.794922,4430.641113,4493.589844,4339.230957,4386.025879,3418.0,1.0,15.0,,,,0.0,4.0,4.0,4.0,4.0,4.0,4.0,4.0,4.0,4.0,4.0,4.0,4.0,4.0,4.0,100.0,,,,,,,,,,,,,,,,,,,,,,,,,,,,,,,,,,,,,,,,,,,,,,,,,,,,,,,,,,,,,,,,,,,,,,,,,,,,,,,,,,,,,,,,,,,,,,,,,,,,,,,,,,,,,,,,,,,,,,,,,,,,,,,,,,,
1725716002.267493,1725716002.269765,169.0,0.0,4230.512695,4247.820313,4229.871582,4296.282227,4235.0,4330.641113,4171.282227,4247.05127,4222.05127,4216.538574,4433.974121,4495.384766,4342.563965,4389.487305,3800.0,1.0,15.0,,,,0.0,4.0,4.0,4.0,4.0,4.0,4.0,4.0,4.0,4.0,4.0,4.0,4.0,4.0,4.0,100.0,,,,,,,,,,,,,,,,,,,,,,,,,,,,,,,,,,,,,,,,,,,,,,,,,,,,,,,,,,,,,,,,,,,,,,,,,,,,,,,,,,,,,,,,,,,,,,,,,,,,,,,,,,,,,,,,,,,,,,,,,,,,,,,,,,,
1725716002.271397,1725716002.273669,170.0,0.0,4237.94873,4247.436035,4232.179688,4298.846191,4236.666504,4328.205078,4173.333496,4247.307617,4229.230957,4217.05127,4438.589844,4497.563965,4344.871582,4392.563965,2875.0,1.0,15.0,,,,0.0,4.0,4.0,4.0,4.0,4.0,4.0,4.0,4.0,4.0,4.0,4.0,4.0,4.0,4.0,100.0,,,,,,,,,,,,,,,,,,,,,,,,,,,,,,,,,,,,,,,,,,,,,,,,,,,,,,,,,,,,,,,,,,,,,,,,,,,,,,,,,,,,,,,,,,,,,,,,,,,,,,,,,,,,,,,,,,,,,,,,,,,,,,,,,,,
1725716002.275302,1725716002.277573,171.0,0.0,4246.666504,4247.436035,4236.794922,4302.436035,4239.615234,4325.641113,4176.153809,4249.871582,4233.974121,4218.717773,4441.922852,4500.769043,4344.615234,4394.615234,3119.0,1.0,15.0,,,,0.0,4.0,4.0,4.0,4.0,4.0,4.0,4.0,4.0,4.0,4.0,4.0,4.0,4.0,4.0,100.0,,,,,,,,,,,,,,,,,,,,,,,,,,,,,,,,,,,,,,,,,,,,,,,,,,,,,,,,,,,,,,,,,,,,,,,,,,,,,,,,,,,,,,,,,,,,,,,,,,,,,,,,,,,,,,,,,,,,,,,,,,,,,,,,,,,
1725716002.279206,1725716002.281577,172.0,0.0,4255.384766,4249.615234,4243.077148,4306.666504,4243.333496,4324.871582,4179.871582,4254.358887,4235.128418,4221.666504,4443.205078,4506.282227,4342.307617,4396.538574,3418.0,1.0,15.0,,,,0.0,4.0,4.0,4.0,4.0,4.0,4.0,4.0,4.0,4.0,4.0,4.0,4.0,4.0,4.0,100.0,,,,,,,,,,,,,,,,,,,,,,,,,,,,,,,,,,,,,,,,,,,,,,,,,,,,,,,,0.0,0.0,64.0,0.059329,1.0,0.0,,,,,,,,,,,,,,,,,,,,,,,,,,,,,,,,,,,,,,,,,,,,,,,,,,,,,,,,,,,,,,,,,,,,,,
1725716002.28311,1725716002.285481,173.0,0.0,4263.589844,4254.358887,4249.102539,4311.025879,4246.538574,4326.410156,4183.333496,4258.974121,4233.846191,4226.025879,4444.358887,4513.846191,4340.128418,4399.615234,3800.0,1.0,15.0,,,,0.0,4.0,4.0,4.0,4.0,4.0,4.0,4.0,4.0,4.0,4.0,4.0,4.0,4.0,4.0,100.0,,,,,,,,,,,,,,,,,,,,,,,,,,,,,,,,,,,,,,,,,,,,,,,,,,,,,,,,,,,,,,,,,,,,,,,,,,,,,,,,,,,,,,,,,,,,,,,,,,,,,,,,,,,,,,,,,,,,,,,,,,,,,,,,,,,
1725716002.287014,1725716002.289385,174.0,0.0,4270.897461,4260.128418,4252.820313,4314.358887,4248.717773,4328.974121,4185.256348,4261.153809,4231.922852,4230.384766,4447.179688,4521.153809,4340.384766,4404.102539,2875.0,1.0,15.0,,,,0.0,4.0,4.0,4.0,4.0,4.0,4.0,4.0,4.0,4.0,4.0,4.0,4.0,4.0,4.0,100.0,,,,,,,,,,,,,,,,,,,,,,,,,,,,,,,,,,,,,,,,,,,,,,,,,,,,,,,,,,,,,,,,,,,,,,,,,,,,,,,,,,,,,,,,,,,,,,,,,,,,,,,,,,,,,,,,,,,,,,,,,,,,,,,,,,,
1725716002.290918,1725716002.293289,175.0,0.0,4276.153809,4264.230957,4253.333496,4316.153809,4249.871582,4331.025879,4184.871582,4260.0,4230.641113,4233.333496,4452.05127,4524.871582,4343.205078,4409.102539,3119.0,1.0,15.0,,,,0.0,4.0,4.0,4.0,4.0,4.0,4.0,4.0,4.0,4.0,4.0,4.0,4.0,4.0,4.0,100.0,,,,,,,,,,,,,,,,,,,,,,,,,,,,,,,,,,,,,,,,,,,,,,,,,,,,,,,,,,,,,,,,,,,,,,,,,,,,,,,,,,,,,,,,,,,,,,,,,,,,,,,,,,,,,,,,,,,,,,,,,,,,,,,,,,,
1725716002.294822,1725716002.297193,176.0,0.0,4278.461426,4265.0,4251.538574,4316.666504,4250.128418,4331.538574,4183.077148,4257.307617,4230.256348,4233.333496,4457.179688,4524.230957,4347.179688,4412.94873,3418.0,1.0,15.0,,,,0.0,4.0,4.0,4.0,4.0,4.0,4.0,4.0,4.0,4.0,4.0,4.0,4.0,4.0,4.0,100.0,,,,,,,,,,,,,,,,,,,,,,,,,,,,,,,,,,,,,,,,,,,,,,,,,,,,,,,,,,,,,,,,,,,,,,,,,,,,,,,,,,,,,,,,,,,,,,,,,,,,,,,,,,,,,,,,,,,,,,,,,,,,,,,,,,,
1725716002.298726,1725716002.300998,177.0,0.0,4277.94873,4263.077148,4249.743652,4317.179688,4250.128418,4330.128418,4181.410156,4256.153809,4230.641113,4231.153809,4460.256348,4521.666504,4350.128418,4414.487305,3800.0,1.0,15.0,,,,0.0,4.0,4.0,4.0,4.0,4.0,4.0,4.0,4.0,4.0,4.0,4.0,4.0,4.0,4.0,100.0,,,,,,,,,,,,,,,,,,,,,,,,,,,,,,,,,,,,,,,,,,,,,,,,,,,,,,,,,,,,,,,,,,,,,,,,,,,,,,,,,,,,,,,,,,,,,,,,,,,,,,,,,,,,,,,,,,,,,,,,,,,,,,,,,,,
1725716002.30263,1725716002.304902,178.0,0.0,4276.410156,4261.153809,4250.128418,4318.589844,4249.743652,4328.333496,4180.769043,4257.820313,4231.410156,4228.974121,4460.256348,4521.153809,4351.153809,4414.615234,2875.0,1.0,15.0,,,,0.0,4.0,4.0,4.0,4.0,4.0,4.0,4.0,4.0,4.0,4.0,4.0,4.0,4.0,4.0,100.0,,,,,,,,,,,,,,,,,,,,,,,,,,,,,,,,,,,,,,,,,,,,,,,,,,,,,,,,,,,,,,,,,,,,,,,,,,,,,,,,,,,,,,,,,,,,,,,,,,,,,,,,,,,,,,,,,,,,,,,,,,,,,,,,,,,
1725716002.306534,1725716002.308806,179.0,0.0,4276.538574,4261.153809,4253.461426,4321.282227,4249.230957,4327.436035,4181.153809,4261.538574,4232.436035,4228.717773,4458.461426,4524.743652,4350.769043,4414.743652,3119.0,1.0,15.0,,,,0.0,4.0,4.0,4.0,4.0,4.0,4.0,4.0,4.0,4.0,4.0,4.0,4.0,4.0,4.0,100.0,,,,,,,,,,,,,,,,,,,,,,,,,,,,,,,,,,,,,,,,,,,,,,,,,,,,,,,,,,,,,,,,,,,,,,,,,,,,,,,,,,,,,,,,,,,,,,,,,,,,,,,,,,,,,,,,,,,,,,,,,,,,,,,,,,,
