Timestamp,OriginalTimestamp,EEG.Counter,EEG.Interpolated,EEG.AF3,EEG.F7,EEG.F3,EEG.FC5,EEG.T7,EEG.P7,EEG.O1,EEG.O2,EEG.P8,EEG.T8,EEG.FC6,EEG.F4,EEG.F8,EEG.AF4,EEG.RawCq,EEG.Battery,EEG.BatteryPercent,MarkerIndex,MarkerType,MarkerValueInt,EEG.MarkerHardware,CQ.AF3,CQ.F7,CQ.F3,CQ.FC5,CQ.T7,CQ.P7,CQ.O1,CQ.O2,CQ.P8,CQ.T8,CQ.FC6,CQ.F4,CQ.F8,CQ.AF4,CQ.Overall,EQ.SampleRateQuality,EQ.OVERALL,EQ.AF3,EQ.F7,EQ.F3,EQ.FC5,EQ.T7,EQ.P7,EQ.O1,EQ.O2,EQ.P8,EQ.T8,EQ.FC6,EQ.F4,EQ.F8,EQ.AF4,MC.Action,MC.ActionPower,MC.IsActive,PM.Attention.IsActive,PM.Attention.Scaled,PM.Attention.Raw,PM.Attention.Min,PM.Attention.Max,PM.Engagement.IsActive,PM.Engagement.Scaled,PM.Engagement.Raw,PM.Engagement.Min,PM.Engagement.Max,PM.Excitement.IsActive,PM.Excitement.Scaled,PM.Excitement.Raw,PM.Excitement.Min,PM.Excitement.Max,PM.LongTermExcitement,PM.Stress.IsActive,PM.Stress.Scaled,PM.Stress.Raw,PM.Stress.Min,PM.Stress.Max,PM.Relaxation.IsActive,PM.Relaxation.Scaled,PM.Relaxation.Raw,PM.Relaxation.Min,PM.Relaxation.Max,PM.Interest.IsActive,PM.Interest.Scaled,PM.Interest.Raw,PM.Interest.Min,PM.Interest.Max,PM.Focus.IsActive,PM.Focus.Scaled,PM.Focus.Raw,PM.Focus.Min,PM.Focus.Max,FE.BlinkWink,FE.HorizontalEyesDirection,FE.UpperFaceAction,FE.UpperFaceActionPower,FE.LowerFaceAction,FE.LowerFaceActionPower,POW.AF3.Theta,POW.AF3.Alpha,POW.AF3.BetaL,POW.AF3.BetaH,POW.AF3.Gamma,POW.F7.Theta,POW.F7.Alpha,POW.F7.BetaL,POW.F7.BetaH,POW.F7.Gamma,POW.F3.Theta,POW.F3.Alpha,POW.F3.BetaL,POW.F3.BetaH,POW.F3.Gamma,POW.FC5.Theta,POW.FC5.Alpha,POW.FC5.BetaL,POW.FC5.BetaH,POW.FC5.Gamma,POW.T7.Theta,POW.T7.Alpha,POW.T7.BetaL,POW.T7.BetaH,POW.T7.Gamma,POW.P7.Theta,POW.P7.Alpha,POW.P7.BetaL,POW.P7.BetaH,POW.P7.Gamma,POW.O1.Theta,POW.O1.Alpha,POW.O1.BetaL,POW.O1.BetaH,POW.O1.Gamma,POW.O2.Theta,POW.O2.Alpha,POW.O2.BetaL,POW.O2.BetaH,POW.O2.Gamma,POW.P8.Theta,POW.P8.Alpha,POW.P8.BetaL,POW.P8.BetaH,POW.P8.Gamma,POW.T8.Theta,POW.T8.Alpha,POW.T8.BetaL,POW.T8.BetaH,POW.T8.Gamma,POW.FC6.Theta,POW.FC6.Alpha,POW.FC6.BetaL,POW.FC6.BetaH,POW.FC6.Gamma,POW.F4.Theta,POW.F4.Alpha,POW.F4.BetaL,POW.F4.BetaH,POW.F4.Gamma,POW.F8.Theta,POW.F8.Alpha,POW.F8.BetaL,POW.F8.BetaH,POW.F8.Gamma,POW.AF4.Theta,POW.AF4.Alpha,POW.AF4.BetaL,POW.AF4.BetaH,POW.AF4.Gamma
1725710365.461161,1725710365.462278,53.0,0.0,4251.538574,4250.769043,4243.974121,4298.333496,4216.538574,4242.692383,4198.846191,4214.615234,4152.179688,4216.922852,4526.538574,4492.563965,4362.692383,4441.794922,0.0,1.0,15.0,3.0,1.0,1.0,0.0,4.0,4.0,4.0,4.0,4.0,4.0,4.0,4.0,4.0,4.0,4.0,4.0,4.0,4.0,100.0,,,,,,,,,,,,,,,,,,,,,,,,,,,,,,,,,,,,,,,,,,,,,,,,,,,,,,,,,,,,,,,,,,,,,,,,,,,,,,,,,,,,,,,,,,,,,,,,,,,,,,,,,,,,,,,,,,,,,,,,,,,,,,,,,,,
1725710365.465065,1725710365.466182,54.0,0.0,4249.615234,4249.487305,4243.205078,4297.692383,4217.563965,4243.077148,4199.487305,4214.230957,4154.871582,4215.512695,4525.769043,4491.666504,4364.487305,4442.563965,0.0,1.0,15.0,,,,0.0,4.0,4.0,4.0,4.0,4.0,4.0,4.0,4.0,4.0,4.0,4.0,4.0,4.0,4.0,100.0,,,,,,,,,,,,,,,,,,,,,,,,,,,,,,,,,,,,,,,,,,,,,,,,,,,,,,,,,,,,,,,,,,,,,,,,,,,,,,,,,,,,,,,,,,,,,,,,,,,,,,,,,,,,,,,,,,,,,,,,,,,,,,,,,,,
1725710365.468969,1725710365.470086,55.0,0.0,4248.077148,4250.0,4243.333496,4296.538574,4218.205078,4244.743652,4201.153809,4215.128418,4157.436035,4215.384766,4523.461426,4492.692383,4367.307617,4443.717773,0.0,1.0,15.0,,,,0.0,4.0,4.0,4.0,4.0,4.0,4.0,4.0,4.0,4.0,4.0,4.0,4.0,4.0,4.0,100.0,,,,,,,,,,,,,,,,,,,,,,,,,,,,,,,,,,,,,,,,,,,,,,,,,,,,,,,,,,,,,,,,,,,,,,,,,,,,,,,,,,,,,,,,,,,,,,,,,,,,,,,,,,,,,,,,,,,,,,,,,,,,,,,,,,,
1725710365.472874,1725710365.47399,56.0,0.0,4247.820313,4251.025879,4244.102539,4295.256348,4217.94873,4246.794922,4202.179688,4216.410156,4157.563965,4216.153809,4519.615234,4493.974121,4368.205078,4443.589844,0.0,1.0,15.0,,,,0.0,4.0,4.0,4.0,4.0,4.0,4.0,4.0,4.0,4.0,4.0,4.0,4.0,4.0,4.0,100.0,,,,,,,,,,,,,,,,,,,,,,,,,,,,,,,,,,,,,,,,,,,,,,,,,,,,,,,,0.0,0.0,1.0,0.0,1.0,0.0,,,,,,,,,,,,,,,,,,,,,,,,,,,,,,,,,,,,,,,,,,,,,,,,,,,,,,,,,,,,,,,,,,,,,,
1725710365.476778,1725710365.477994,57.0,0.0,4248.461426,4251.282227,4244.358887,4294.358887,4217.179688,4247.94873,4200.897461,4217.179688,4155.512695,4216.666504,4515.128418,4493.974121,4365.769043,4441.025879,0.0,1.0,15.0,,,,0.0,4.0,4.0,4.0,4.0,4.0,4.0,4.0,4.0,4.0,4.0,4.0,4.0,4.0,4.0,100.0,,,,,,,,,,,,,,,,,,,,,,,,,,,,,,,,,,,,,,,,,,,,,,,,,,,,,,,,,,,,,,,,,,,,,,,,,,,,,,,,,,,,,,,,,,,,,,,,,,,,,,,,,,,,,,,,,,,,,,,,,,,,,,,,,,,
1725710365.480682,1725710365.481899,58.0,0.0,4249.487305,4250.256348,4243.333496,4294.358887,4216.282227,4247.692383,4196.794922,4217.179688,4152.94873,4216.025879,4510.384766,4492.692383,4361.282227,4436.410156,0.0,1.0,15.0,,,,0.0,4.0,4.0,4.0,4.0,4.0,4.0,4.0,4.0,4.0,4.0,4.0,4.0,4.0,4.0,100.0,,,,,,,,,,,,,,,,,,,,,,,,,,,,,,,,,,,,,,,,,,,,,,,,,,,,,,,,,,,,,,,,,,,,,,,,,,,,,,,,,,,,,,,,,,,,,,,,,,,,,,,,,,,,,,,,,,,,,,,,,,,,,,,,,,,
1725710365.484586,1725710365.485803,59.0,0.0,4250.0,4248.717773,4240.512695,4294.871582,4215.769043,4246.410156,4191.538574,4216.794922,4151.794922,4214.487305,4505.641113,4491.410156,4357.436035,4431.282227,0.0,1.0,15.0,,,,0.0,4.0,4.0,4.0,4.0,4.0,4.0,4.0,4.0,4.0,4.0,4.0,4.0,4.0,4.0,100.0,,,,,,,,,,,,,,,,,,,,,,,,,,,,,,,,,,,,,,,,,,,,,,,,,,,,,,,,,,,,,,,,,,,,,,,,,,,,,,,,,,,,,,,,,,,,,,,,,,,,,,,,,,,,,,,,,,,,,,,,,,,,,,,,,,,
1725710365.48849,1725710365.489707,60.0,0.0,4249.871582,4247.05127,4236.538574,4295.512695,4215.641113,4245.256348,4187.179688,4216.153809,4152.436035,4213.333496,4502.179688,4491.025879,4356.025879,4427.692383,0.0,1.0,15.0,,,,0.0,4.0,4.0,4.0,4.0,4.0,4.0,4.0,4.0,4.0,4.0,4.0,4.0,4.0,4.0,100.0,,,,,,,,,,,,,,,,,,,,,,,,,,,,,,,,,,,,,,,,,,,,,,,,,,,,,,,,,,,,,,,,,,,,,,,,,,,,,,,,,,,,,,,,,,,,,,,,,,,,,,,,,,,,,,,,,,,,,,,,,,,,,,,,,,,
1725710365.492394,1725710365.493611,61.0,0.0,4248.974121,4246.153809,4232.94873,4296.025879,4215.641113,4245.128418,4184.743652,4215.897461,4154.230957,4213.974121,4502.436035,4492.05127,4357.820313,4427.307617,0.0,1.0,15.0,,,,0.0,4.0,4.0,4.0,4.0,4.0,4.0,4.0,4.0,4.0,4.0,4.0,4.0,4.0,4.0,100.0,,,,,,,,,,,,,,,,,,,,,,,,,,,,,,,,,,,,,,,,,,,,,,,,,,,,,,,,,,,,,,,,,,,,,,,,,,,,,,,,,,,,,,,,,,,,,,,,,,,,,,,,,,,,,,,,,,,,,,,,,,,,,,,,,,,
1725710365.496298,1725710365.497415,62.0,0.0,4247.692383,4245.897461,4231.922852,4295.897461,4215.128418,4245.769043,4183.717773,4216.025879,4155.897461,4216.538574,4507.820313,4493.589844,4361.794922,4430.128418,0.0,1.0,15.0,,,,0.0,4.0,4.0,4.0,4.0,4.0,4.0,4.0,4.0,4.0,4.0,4.0,4.0,4.0,4.0,100.0,,,,,,,,,,,,,,,,,,,,,,,,,,,,,,,,,,,,,,,,,,,,,,,,,,,,,,,,,,,,,,,,,,,,,,,,,,,,,,,,,,,,,,,,,,,,,,,,,,,,,,,,,,,,,,,,,,,,,,,,,,,,,,,,,,,
1725710365.500202,1725710365.501319,63.0,0.0,4246.282227,4246.538574,4234.358887,4295.256348,4214.102539,4246.153809,4182.05127,4217.05127,4156.410156,4219.487305,4517.179688,4495.128418,4366.538574,4434.743652,0.0,1.0,15.0,,,,0.0,4.0,4.0,4.0,4.0,4.0,4.0,4.0,4.0,4.0,4.0,4.0,4.0,4.0,4.0,100.0,,,,,,,,,,,,,,,,,,,,,,,,,,,,,,,,,,,,,,,,,,,,,,,,,,,,,,,,,,,,,,,,,,,,,,,,,,,,,,,,,,,,,,,,,,,,,,,,,,,,,,,,,,,,,,,,,,,,,,,,,,,,,,,,,,,
1725710365.504106,1725710365.505223,64.0,0.0,4245.0,4247.563965,4239.102539,4294.102539,4213.205078,4245.897461,4177.94873,4218.717773,4155.897461,4220.769043,4526.666504,4496.538574,4370.384766,4439.102539,0.0,1.0,15.0,,,,0.0,4.0,4.0,4.0,4.0,4.0,4.0,4.0,4.0,4.0,4.0,4.0,4.0,4.0,4.0,100.0,,,,,,,,,,,,,,,,,,,,,,,,,,,,,,,,,,,,,,,,,,,,,,,,,,,,,,,,0.0,0.0,1.0,0.0,1.0,0.0,,,,,,,,,,,,,,,,,,,,,,,,,,,,,,,,,,,,,,,,,,,,,,,,,,,,,,,,,,,,,,,,,,,,,,
1725710365.508011,1725710365.509127,65.0,0.0,4244.230957,4248.333496,4243.461426,4292.05127,4212.94873,4245.128418,4171.922852,4220.256348,4155.128418,4219.871582,4532.179688,4498.333496,4372.692383,4441.538574,0.0,1.0,15.0,,,,0.0,4.0,4.0,4.0,4.0,4.0,4.0,4.0,4.0,4.0,4.0,4.0,4.0,4.0,4.0,100.0,,,,,,,,,,,,,,,,,,,,,,,,,,,,,,,,,,,,,,,,,,,,,,,,,,,,,,,,,,,,,,,,,,,,,,,,,,,,,,,,,,,,,,,,,,,,,,,,,,,,,,,,,,,,,,,,,,,,,,,,,,,,,,,,,,,
1725710365.511915,1725710365.512932,66.0,0.0,4244.358887,4248.589844,4245.384766,4289.358887,4213.846191,4244.871582,4166.153809,4220.769043,4154.743652,4217.94873,4532.436035,4501.410156,4373.461426,4441.922852,0.0,1.0,15.0,,,,0.0,4.0,4.0,4.0,4.0,4.0,4.0,4.0,4.0,4.0,4.0,4.0,4.0,4.0,4.0,100.0,,,,,,,,,,,,,,,,,,,,,,,,,,,,,,,,,,,,,,,,,,,,,,,,,,,,,,,,,,,,,,,,,,,,,,,,,,,,,,,,,,,,,,,,,,,,,,,,,,,,,,,,,,,,,,,,,,,,,,,,,,,,,,,,,,,
1725710365.515819,1725710365.516836,67.0,0.0,4245.384766,4248.333496,4244.743652,4287.692383,4215.384766,4245.769043,4163.461426,4219.871582,4154.871582,4217.436035,4529.615234,4505.256348,4373.333496,4441.282227,0.0,1.0,15.0,,,,0.0,4.0,4.0,4.0,4.0,4.0,4.0,4.0,4.0,4.0,4.0,4.0,4.0,4.0,4.0,100.0,,,,,,,,,,,,,,,,,,,,,,,,,,,,,,,,,,,,,,,,,,,,,,,,,,,,,,,,,,,,,,,,,,,,,,,,,,,,,,,,,,,,,,,,,,,,,,,,,,,,,,,,,,,,,,,,,,,,,,,,,,,,,,,,,,,
1725710365.519723,1725710365.52074,68.0,0.0,4247.05127,4248.077148,4243.717773,4288.333496,4216.666504,4247.307617,4164.487305,4218.461426,4155.384766,4220.0,4527.820313,4508.205078,4372.692383,4441.666504,0.0,1.0,15.0,,,,0.0,4.0,4.0,4.0,4.0,4.0,4.0,4.0,4.0,4.0,4.0,4.0,4.0,4.0,4.0,100.0,,,,,,,,,,,,,,,,,,,,,,,,,,,,,,,,,,,,,,,,,,,,,,,,,,,,,,,,,,,,,,,,,,,,,,,,,,,,,,,,,,,,,,,,,,,,,,,,,,,,,,,,,,,,,,,,,,,,,,,,,,,,,,,,,,,
1725710365.523627,1725710365.524744,69.0,0.0,4248.717773,4248.077148,4243.846191,4291.666504,4217.179688,4248.461426,4167.563965,4217.692383,4156.025879,4225.128418,4530.0,4509.230957,4372.307617,4443.461426,0.0,1.0,15.0,,,,0.0,4.0,4.0,4.0,4.0,4.0,4.0,4.0,4.0,4.0,4.0,4.0,4.0,4.0,4.0,100.0,,,,,,,,,,,,,,,,,,,,,,,,,,,,,,,,,,,,,,,,,,,,,,,,,,,,,,,,,,,,,,,,,,,,,,,,,,,,,,,,,,,,,,,,,,,,,,,,,,,,,,,,,,,,,,,,,,,,,,,,,,,,,,,,,,,
1725710365.527531,1725710365.528648,70.0,0.0,4249.615234,4248.077148,4245.256348,4295.256348,4216.794922,4248.077148,4170.384766,4218.205078,4156.282227,4230.769043,4534.743652,4508.717773,4372.692383,4445.769043,0.0,1.0,15.0,,,,0.0,4.0,4.0,4.0,4.0,4.0,4.0,4.0,4.0,4.0,4.0,4.0,4.0,4.0,4.0,100.0,,,,,,,,,,,,,,,,,,,,,,,,,,,,,,,,,,,,,,,,,,,,,,,,,,,,,,,,,,,,,,,,,,,,,,,,,,,,,,,,,,,,,,,,,,,,,,,,,,,,,,,,,,,,,,,,,,,,,,,,,,,,,,,,,,,
1725710365.531435,1725710365.532552,71.0,0.0,4249.102539,4248.077148,4246.025879,4296.025879,4216.025879,4246.410156,4171.153809,4219.487305,4156.025879,4234.102539,4538.333496,4507.563965,4373.077148,4446.666504,0.0,1.0,15.0,,,,0.0,4.0,4.0,4.0,4.0,4.0,4.0,4.0,4.0,4.0,4.0,4.0,4.0,4.0,4.0,100.0,,,,,,,,,,,,,,,,,,,,,,,,,,,,,,,,,,,,,,,,,,,,,,,,,,,,,,,,,,,,,,,,,,,,,,,,,,,,,,,,,,,,,,,,,,,,,,,,,,,,,,,,,,,,,,,,,,,,,,,,,,,,,,,,,,,
1725710365.535339,1725710365.536456,72.0,0.0,4247.307617,4247.692383,4245.0,4292.307617,4215.769043,4244.358887,4170.512695,4220.512695,4155.256348,4234.358887,4537.05127,4506.666504,4373.077148,4445.0,0.0,1.0,15.0,,,,0.0,4.0,4.0,4.0,4.0,4.0,4.0,4.0,4.0,4.0,4.0,4.0,4.0,4.0,4.0,100.0,,,,,,,,,,,,,,,,,,,,,,,,,,,,,,,,,,,,,,,,,,,,,,,,,,,,,,,,0.0,0.0,1.0,0.0,1.0,0.0,,,,,,,,,,,,,,,,,,,,,,,,,,,,,,,,,,,,,,,,,,,,,,,,,,,,,,,,,,,,,,,,,,,,,,
1725710365.539243,1725710365.54026,73.0,0.0,4245.384766,4247.307617,4242.563965,4285.641113,4216.153809,4242.563965,4169.230957,4220.384766,4154.358887,4232.307617,4530.512695,4505.769043,4372.307617,4441.538574,0.0,1.0,15.0,,,,0.0,4.0,4.0,4.0,4.0,4.0,4.0,4.0,4.0,4.0,4.0,4.0,4.0,4.0,4.0,100.0,,,,,,,,,,,,,,,,,,,,,,,,,,,,,,,,,,,,,,,,,,,,,,,,,,,,,,,,,,,,,,,,,,,,,,,,,,,,,,,,,,,,,,,,,,,,,,,,,,,,,,,,,,,,,,,,,,,,,,,,,,,,,,,,,,,
1725710365.543147,1725710365.544164,74.0,0.0,4243.974121,4247.179688,4240.384766,4280.128418,4216.538574,4241.794922,4168.077148,4219.230957,4153.846191,4230.384766,4522.692383,4504.615234,4371.410156,4438.205078,0.0,1.0,15.0,,,,0.0,4.0,4.0,4.0,4.0,4.0,4.0,4.0,4.0,4.0,4.0,4.0,4.0,4.0,4.0,100.0,,,,,,,,,,,,,,,,,,,,,,,,,,,,,,,,,,,,,,,,,,,,,,,,,,,,,,,,,,,,,,,,,,,,,,,,,,,,,,,,,,,,,,,,,,,,,,,,,,,,,,,,,,,,,,,,,,,,,,,,,,,,,,,,,,,
1725710365.547052,1725710365.548069,75.0,0.0,4244.102539,4247.563965,4240.0,4279.743652,4216.410156,4241.666504,4167.436035,4218.205078,4154.487305,4230.256348,4519.102539,4503.205078,4371.922852,4437.179688,0.0,1.0,15.0,,,,0.0,4.0,4.0,4.0,4.0,4.0,4.0,4.0,4.0,4.0,4.0,4.0,4.0,4.0,4.0,100.0,,,,,,,,,,,,,,,,,,,,,,,,,,,,,,,,,,,,,,,,,,,,,,,,,,,,,,,,,,,,,,,,,,,,,,,,,,,,,,,,,,,,,,,,,,,,,,,,,,,,,,,,,,,,,,,,,,,,,,,,,,,,,,,,,,,
1725710365.550956,1725710365.551973,76.0,0.0,4245.641113,4247.94873,4241.794922,4284.871582,4215.641113,4241.922852,4167.563965,4218.461426,4156.025879,4232.05127,4522.692383,4502.563965,4374.230957,4439.102539,0.0,1.0,15.0,,,,0.0,4.0,4.0,4.0,4.0,4.0,4.0,4.0,4.0,4.0,4.0,4.0,4.0,4.0,4.0,100.0,,,,,,,,,,,,,,,,,,,,,,,,,,,,,,,,,,,,,,,,,,,,,,,,,,,,,,,,,,,,,,,,,,,,,,,,,,,,,,,,,,,,,,,,,,,,,,,,,,,,,,,,,,,,,,,,,,,,,,,,,,,,,,,,,,,
1725710365.55486,1725710365.555777,77.0,0.0,4247.436035,4248.333496,4244.487305,4292.820313,4214.871582,4242.179688,4168.077148,4219.871582,4157.436035,4234.743652,4531.538574,4503.461426,4377.436035,4442.563965,0.0,1.0,15.0,,,,0.0,4.0,4.0,4.0,4.0,4.0,4.0,4.0,4.0,4.0,4.0,4.0,4.0,4.0,4.0,100.0,,,,,,,,,,,,,,,,,,,,,,,,,,,,,,,,,,,,,,,,,,,,,,,,,,,,,,,,,,,,,,,,,,,,,,,,,,,,,,,,,,,,,,,,,,,,,,,,,,,,,,,,,,,,,,,,,,,,,,,,,,,,,,,,,,,
1725710365.558764,1725710365.559681,78.0,0.0,4248.589844,4248.589844,4246.666504,4298.717773,4214.487305,4242.692383,4168.717773,4221.410156,4157.820313,4236.410156,4540.384766,4505.641113,4379.230957,4444.871582,0.0,1.0,15.0,,,,0.0,4.0,4.0,4.0,4.0,4.0,4.0,4.0,4.0,4.0,4.0,4.0,4.0,4.0,4.0,100.0,,,,,,,,,,,,,,,,,,,,,,,,,,,,,,,,,,,,,,,,,,,,,,,,,,,,,,,,,,,,,,,,,,,,,,,,,,,,,,,,,,,,,,,,,,,,,,,,,,,,,,,,,,,,,,,,,,,,,,,,,,,,,,,,,,,
1725710365.562668,1725710365.563585,79.0,0.0,4248.333496,4248.717773,4246.922852,4299.871582,4214.487305,4243.461426,4169.230957,4221.794922,4157.05127,4235.641113,4544.358887,4507.307617,4377.820313,4444.487305,0.0,1.0,15.0,,,,0.0,4.0,4.0,4.0,4.0,4.0,4.0,4.0,4.0,4.0,4.0,4.0,4.0,4.0,4.0,100.0,,,,,,,,,,,,,,,,,,,,,,,,,,,,,,,,,,,,,,,,,,,,,,,,,,,,,,,,,,,,,,,,,,,,,,,,,,,,,,,,,,,,,,,,,,,,,,,,,,,,,,,,,,,,,,,,,,,,,,,,,,,,,,,,,,,
1725710365.566572,1725710365.567489,80.0,0.0,4247.05127,4248.846191,4245.897461,4296.794922,4215.0,4244.615234,4169.871582,4220.641113,4155.641113,4233.205078,4542.05127,4507.05127,4374.102539,4441.922852,0.0,1.0,15.0,,,,0.0,4.0,4.0,4.0,4.0,4.0,4.0,4.0,4.0,4.0,4.0,4.0,4.0,4.0,4.0,100.0,,,,,,,,,,,,,,,,,1.0,0.0,0.0,,,,,,,,,,,,,,,,,,,,,,,,,,,,,,,,,,,,,0.0,0.0,1.0,0.0,1024.0,0.044193,1.140724,0.457683,0.380486,0.222195,0.074486,0.892946,0.859629,0.667237,0.31984,0.105281,0.581417,0.324494,0.19026,0.128567,0.03914,0.929012,0.631839,0.254779,0.299621,0.129712,0.482703,0.194167,0.114628,0.064347,0.035311,0.221169,0.189319,0.127805,0.029736,0.056808,4.931736,0.608405,0.554774,0.150403,0.093237,0.340187,1.84698,0.519182,0.22613,0.144135,0.794862,1.060867,0.74054,0.204694,0.116997,1.367723,0.980229,0.838913,0.214617,0.091434,1.348477,0.862364,1.471006,0.470676,0.240752,1.63656,1.52598,1.20499,0.524564,0.093673,1.355916,1.071487,1.219358,0.628237,0.099127,1.315393,0.91052,1.057643,0.360782,0.102328
1725710365.570476,1725710365.571293,81.0,0.0,4245.897461,4249.230957,4245.641113,4292.563965,4215.641113,4245.769043,4171.410156,4218.846191,4154.487305,4230.769043,4535.897461,4504.230957,4370.769043,4438.589844,0.0,1.0,15.0,,,,0.0,4.0,4.0,4.0,4.0,4.0,4.0,4.0,4.0,4.0,4.0,4.0,4.0,4.0,4.0,100.0,,,,,,,,,,,,,,,,,,,,,,,,,,,,,,,,,,,,,,,,,,,,,,,,,,,,,,,,,,,,,,,,,,,,,,,,,,,,,,,,,,,,,,,,,,,,,,,,,,,,,,,,,,,,,,,,,,,,,,,,,,,,,,,,,,,
1725710365.57438,1725710365.575198,82.0,0.0,4246.153809,4249.743652,4246.922852,4290.641113,4216.153809,4246.410156,4174.487305,4217.563965,4153.974121,4230.128418,4529.487305,4500.0,4370.128418,4436.282227,0.0,1.0,15.0,,,,0.0,4.0,4.0,4.0,4.0,4.0,4.0,4.0,4.0,4.0,4.0,4.0,4.0,4.0,4.0,100.0,,,,,,,,,,,,,,,,,,,,,,,,,,,,,,,,,,,,,,,,,,,,,,,,,,,,,,,,,,,,,,,,,,,,,,,,,,,,,,,,,,,,,,,,,,,,,,,,,,,,,,,,,,,,,,,,,,,,,,,,,,,,,,,,,,,
1725710365.578284,1725710365.579102,83.0,0.0,4247.692383,4250.641113,4248.846191,4291.922852,4216.666504,4246.538574,4178.589844,4217.179688,4153.717773,4230.897461,4525.256348,4496.282227,4372.179688,4435.769043,0.0,1.0,15.0,,,,0.0,4.0,4.0,4.0,4.0,4.0,4.0,4.0,4.0,4.0,4.0,4.0,4.0,4.0,4.0,100.0,,,,,,,,,,,,,,,,,,,,,,,,,,,,,,,,,,,,,,,,,,,,,,,,,,,,,,,,,,,,,,,,,,,,,,,,,,,,,,,,,,,,,,,,,,,,,,,,,,,,,,,,,,,,,,,,,,,,,,,,,,,,,,,,,,,
1725710365.582188,1725710365.583006,84.0,0.0,4249.615234,4252.179688,4249.615234,4295.256348,4217.307617,4246.922852,4182.436035,4217.307617,4153.589844,4232.307617,4523.461426,4494.487305,4374.743652,4437.179688,0.0,1.0,15.0,,,,0.0,4.0,4.0,4.0,4.0,4.0,4.0,4.0,4.0,4.0,4.0,4.0,4.0,4.0,4.0,100.0,,,,,,,,,,,,,,,,,,,,,,,,,,,,,,,,,,,,,,,,,,,,,,,,,,,,,,,,,,,,,,,,,,,,,,,,,,,,,,,,,,,,,,,,,,,,,,,,,,,,,,,,,,,,,,,,,,,,,,,,,,,,,,,,,,,
1725710365.586093,1725710365.58681,85.0,0.0,4251.025879,4255.256348,4248.333496,4297.94873,4217.94873,4247.820313,4184.743652,4217.820313,4153.717773,4233.589844,4523.333496,4494.871582,4375.769043,4440.256348,0.0,1.0,15.0,,,,0.0,4.0,4.0,4.0,4.0,4.0,4.0,4.0,4.0,4.0,4.0,4.0,4.0,4.0,4.0,100.0,,,,,,,,,,,,,,,,,,,,,,,,,,,,,,,,,,,,,,,,,,,,,,,,,,,,,,,,,,,,,,,,,,,,,,,,,,,,,,,,,,,,,,,,,,,,,,,,,,,,,,,,,,,,,,,,,,,,,,,,,,,,,,,,,,,
1725710365.589997,1725710365.590714,86.0,0.0,4251.153809,4259.615234,4245.769043,4298.333496,4218.717773,4249.230957,4185.256348,4218.077148,4153.974121,4234.487305,4524.102539,4496.922852,4375.0,4443.461426,0.0,1.0,15.0,,,,0.0,4.0,4.0,4.0,4.0,4.0,4.0,4.0,4.0,4.0,4.0,4.0,4.0,4.0,4.0,100.0,,,,,,,,,,,,,,,,,,,,,,,,,,,,,,,,,,,,,,,,,,,,,,,,,,,,,,,,,,,,,,,,,,,,,,,,,,,,,,,,,,,,,,,,,,,,,,,,,,,,,,,,,,,,,,,,,,,,,,,,,,,,,,,,,,,
1725710365.593901,1725710365.594618,87.0,0.0,4250.128418,4263.846191,4243.717773,4296.666504,4219.358887,4250.128418,4184.871582,4217.436035,4153.717773,4234.743652,4525.128418,4499.230957,4373.589844,4445.384766,0.0,1.0,15.0,,,,0.0,4.0,4.0,4.0,4.0,4.0,4.0,4.0,4.0,4.0,4.0,4.0,4.0,4.0,4.0,100.0,,,,,,,,,,,,,,,,,,,,,,,,,,,,,,,,,,,,,,,,,,,,,,,,,,,,,,,,,,,,,,,,,,,,,,,,,,,,,,,,,,,,,,,,,,,,,,,,,,,,,,,,,,,,,,,,,,,,,,,,,,,,,,,,,,,
1725710365.597805,1725710365.598622,88.0,0.0,4248.717773,4265.384766,4243.205078,4294.743652,4219.358887,4249.743652,4184.487305,4214.743652,4151.922852,4233.461426,4525.641113,4499.615234,4372.94873,4444.871582,0.0,1.0,15.0,,,,0.0,4.0,4.0,4.0,4.0,4.0,4.0,4.0,4.0,4.0,4.0,4.0,4.0,4.0,4.0,100.0,,,,,,,,,,,,,,,,,,,,,,,,,,,,,,,,,,,,,,,,,,,,,,,,,,,,,,,,0.0,0.0,1.0,0.0,1024.0,0.044193,,,,,,,,,,,,,,,,,,,,,,,,,,,,,,,,,,,,,,,,,,,,,,,,,,,,,,,,,,,,,,,,,,,,,,
1725710365.601709,1725710365.602526,89.0,0.0,4248.077148,4263.461426,4243.974121,4293.974121,4218.589844,4248.205078,4184.487305,4209.871582,4147.94873,4230.641113,4525.0,4497.179688,4372.436035,4442.05127,0.0,1.0,15.0,,,,0.0,4.0,4.0,4.0,4.0,4.0,4.0,4.0,4.0,4.0,4.0,4.0,4.0,4.0,4.0,100.0,,,,,,,,,,,,,,,,,,,,,,,,,,,,,,,,,,,,,,,,,,,,,,,,,,,,,,,,,,,,,,,,,,,,,,,,,,,,,,,,,,,,,,,,,,,,,,,,,,,,,,,,,,,,,,,,,,,,,,,,,,,,,,,,,,,
1725710365.605613,1725710365.60643,90.0,0.0,4248.717773,4258.846191,4244.487305,4294.230957,4217.563965,4246.282227,4183.974121,4204.230957,4142.563965,4226.282227,4522.94873,4493.333496,4370.256348,4437.94873,0.0,1.0,15.0,,,,0.0,4.0,4.0,4.0,4.0,4.0,4.0,4.0,4.0,4.0,4.0,4.0,4.0,4.0,4.0,100.0,,,,,,,,,,,,,,,,,,,,,,,,,,,,,,,,,,,,,,,,,,,,,,,,,,,,,,,,,,,,,,,,,,,,,,,,,,,,,,,,,,,,,,,,,,,,,,,,,,,,,,,,,,,,,,,,,,,,,,,,,,,,,,,,,,,
1725710365.609517,1725710365.610334,91.0,0.0,4250.256348,4253.589844,4244.230957,4294.230957,4217.179688,4244.871582,4181.794922,4200.897461,4137.563965,4221.153809,4520.128418,4490.769043,4365.0,4433.846191,0.0,1.0,15.0,,,,0.0,4.0,4.0,4.0,4.0,4.0,4.0,4.0,4.0,4.0,4.0,4.0,4.0,4.0,4.0,100.0,,,,,,,,,,,,,,,,,,,,,,,,,,,,,,,,,,,,,,,,,,,,,,,,,,,,,,,,,,,,,,,,,,,,,,,,,,,,,,,,,,,,,,,,,,,,,,,,,,,,,,,,,,,,,,,,,,,,,,,,,,,,,,,,,,,
1725710365.613421,1725710365.614338,92.0,0.0,4251.153809,4249.487305,4243.717773,4292.436035,4217.820313,4244.230957,4177.307617,4201.922852,4134.487305,4215.384766,4517.05127,4490.641113,4357.563965,4429.487305,0.0,1.0,15.0,,,,0.0,4.0,4.0,4.0,4.0,4.0,4.0,4.0,4.0,4.0,4.0,4.0,4.0,4.0,4.0,100.0,,,,,,,,,,,,,,,,,,,,,,,,,,,,,,,,,,,,,,,,,,,,,,,,,,,,,,,,,,,,,,,,,,,,,,,,,,,,,,,,,,,,,,,,,,,,,,,,,,,,,,,,,,,,,,,,,,,,,,,,,,,,,,,,,,,
1725710365.617325,1725710365.618243,93.0,0.0,4249.615234,4247.179688,4243.589844,4288.205078,4218.333496,4243.717773,4171.538574,4206.538574,4133.717773,4209.487305,4513.589844,4491.282227,4350.128418,4424.743652,0.0,1.0,15.0,,,,0.0,4.0,4.0,4.0,4.0,4.0,4.0,4.0,4.0,4.0,4.0,4.0,4.0,4.0,4.0,100.0,,,,,,,,,,,,,,,,,,,,,,,,,,,,,,,,,,,,,,,,,,,,,,,,,,,,,,,,,,,,,,,,,,,,,,,,,,,,,,,,,,,,,,,,,,,,,,,,,,,,,,,,,,,,,,,,,,,,,,,,,,,,,,,,,,,
1725710365.62123,1725710365.622147,94.0,0.0,4244.743652,4246.153809,4243.846191,4282.820313,4216.666504,4242.820313,4166.538574,4211.922852,4134.102539,4203.717773,4508.974121,4489.743652,4344.230957,4418.974121,0.0,1.0,15.0,,,,0.0,4.0,4.0,4.0,4.0,4.0,4.0,4.0,4.0,4.0,4.0,4.0,4.0,4.0,4.0,100.0,,,,,,,,,,,,,,,,,,,,,,,,,,,,,,,,,,,,,,,,,,,,,,,,,,,,,,,,,,,,,,,,,,,,,,,,,,,,,,,,,,,,,,,,,,,,,,,,,,,,,,,,,,,,,,,,,,,,,,,,,,,,,,,,,,,
1725710365.625134,1725710365.626151,95.0,0.0,4237.820313,4245.512695,4243.846191,4277.94873,4212.179688,4241.922852,4163.974121,4215.384766,4134.230957,4198.974121,4503.461426,4485.128418,4339.615234,4413.205078,0.0,1.0,15.0,,,,0.0,4.0,4.0,4.0,4.0,4.0,4.0,4.0,4.0,4.0,4.0,4.0,4.0,4.0,4.0,100.0,,,,,,,,,,,,,,,,,,,,,,,,,,,,,,,,,,,,,,,,,,,,,,,,,,,,,,,,,,,,,,,,,,,,,,,,,,,,,,,,,,,,,,,,,,,,,,,,,,,,,,,,,,,,,,,,,,,,,,,,,,,,,,,,,,,
1725710365.629038,1725710365.630055,96.0,0.0,4231.794922,4244.615234,4243.717773,4275.0,4206.410156,4241.410156,4164.102539,4216.410156,4134.230957,4197.179688,4499.487305,4479.871582,4336.666504,4409.871582,0.0,1.0,15.0,,,,0.0,4.0,4.0,4.0,4.0,4.0,4.0,4.0,4.0,4.0,4.0,4.0,4.0,4.0,4.0,100.0,,,,,,,,,,,,,,,,,,,,,,,,,,,,,,,,,,,,,,,,,,,,,,,,,,,,,,,,0.0,0.0,1.0,0.0,1024.0,0.044193,,,,,,,,,,,,,,,,,,,,,,,,,,,,,,,,,,,,,,,,,,,,,,,,,,,,,,,,,,,,,,,,,,,,,,
1725710365.632942,1725710365.633959,97.0,0.0,4229.358887,4243.846191,4243.589844,4274.358887,4202.05127,4241.666504,4165.384766,4217.307617,4135.641113,4199.871582,4500.0,4478.717773,4337.05127,4411.282227,0.0,1.0,15.0,,,,0.0,4.0,4.0,4.0,4.0,4.0,4.0,4.0,4.0,4.0,4.0,4.0,4.0,4.0,4.0,100.0,,,,,,,,,,,,,,,,,,,,,,,,,,,,,,,,,,,,,,,,,,,,,,,,,,,,,,,,,,,,,,,,,,,,,,,,,,,,,,,,,,,,,,,,,,,,,,,,,,,,,,,,,,,,,,,,,,,,,,,,,,,,,,,,,,,
1725710365.636846,1725710365.637863,98.0,0.0,4231.922852,4244.230957,4243.846191,4275.897461,4201.666504,4242.692383,4166.025879,4220.512695,4140.256348,4207.179688,4506.666504,4483.974121,4342.94873,4418.205078,0.0,1.0,15.0,,,,0.0,4.0,4.0,4.0,4.0,4.0,4.0,4.0,4.0,4.0,4.0,4.0,4.0,4.0,4.0,100.0,,,,,,,,,,,,,,,,,,,,,,,,,,,,,,,,,,,,,,,,,,,,,,,,,,,,,,,,,,,,,,,,,,,,,,,,,,,,,,,,,,,,,,,,,,,,,,,,,,,,,,,,,,,,,,,,,,,,,,,,,,,,,,,,,,,
1725710365.64075,1725710365.641767,99.0,0.0,4237.692383,4246.025879,4244.871582,4278.461426,4205.641113,4244.102539,4165.256348,4226.282227,4148.589844,4217.563965,4517.94873,4493.974121,4354.743652,4428.333496,0.0,1.0,15.0,,,,0.0,4.0,4.0,4.0,4.0,4.0,4.0,4.0,4.0,4.0,4.0,4.0,4.0,4.0,4.0,100.0,,,,,,,,,,,,,,,,,,,,,,,,,,,,,,,,,,,,,,,,,,,,,,,,,,,,,,,,,,,,,,,,,,,,,,,,,,,,,,,,,,,,,,,,,,,,,,,,,,,,,,,,,,,,,,,,,,,,,,,,,,,,,,,,,,,
1725710365.644654,1725710365.645771,100.0,0.0,4244.230957,4249.358887,4246.922852,4281.410156,4211.538574,4245.641113,4163.974121,4232.563965,4158.205078,4228.974121,4530.128418,4504.615234,4369.102539,4438.333496,0.0,1.0,15.0,,,,0.0,4.0,4.0,4.0,4.0,4.0,4.0,4.0,4.0,4.0,4.0,4.0,4.0,4.0,4.0,100.0,,,,,,,,,,,,,,,,,,,,,,,,,,,,,,,,,,,,,,,,,,,,,,,,,,,,,,,,,,,,,,,,,,,,,,,,,,,,,,,,,,,,,,,,,,,,,,,,,,,,,,,,,,,,,,,,,,,,,,,,,,,,,,,,,,,
1725710365.648558,1725710365.649675,101.0,0.0,4248.717773,4253.846191,4250.256348,4285.512695,4216.538574,4246.922852,4164.230957,4237.05127,4166.282227,4239.230957,4539.230957,4511.922852,4381.282227,4445.0,0.0,1.0,15.0,,,,0.0,4.0,4.0,4.0,4.0,4.0,4.0,4.0,4.0,4.0,4.0,4.0,4.0,4.0,4.0,100.0,,,,,,,,,,,,,,,,,,,,,,,,,,,,,,,,,,,,,,,,,,,,,,,,,,,,,,,,,,,,,,,,,,,,,,,,,,,,,,,,,,,,,,,,,,,,,,,,,,,,,,,,,,,,,,,,,,,,,,,,,,,,,,,,,,,
1725710365.652462,1725710365.653579,102.0,0.0,4250.384766,4258.461426,4255.0,4291.153809,4218.974121,4248.077148,4166.666504,4238.461426,4170.384766,4246.666504,4543.333496,4514.615234,4387.307617,4447.692383,0.0,1.0,15.0,,,,0.0,4.0,4.0,4.0,4.0,4.0,4.0,4.0,4.0,4.0,4.0,4.0,4.0,4.0,4.0,100.0,,,,,,,,,,,,,,,,,,,,,,,,,,,,,,,,,,,,,,,,,,,,,,,,,,,,,,,,,,,,,,,,,,,,,,,,,,,,,,,,,,,,,,,,,,,,,,,,,,,,,,,,,,,,,,,,,,,,,,,,,,,,,,,,,,,
1725710365.656366,1725710365.657483,103.0,0.0,4250.256348,4261.794922,4259.743652,4296.794922,4219.102539,4249.102539,4170.128418,4237.307617,4171.025879,4250.256348,4543.077148,4513.461426,4386.666504,4447.692383,0.0,1.0,15.0,,,,0.0,4.0,4.0,4.0,4.0,4.0,4.0,4.0,4.0,4.0,4.0,4.0,4.0,4.0,4.0,100.0,,,,,,,,,,,,,,,,,,,,,,,,,,,,,,,,,,,,,,,,,,,,,,,,,,,,,,,,,,,,,,,,,,,,,,,,,,,,,,,,,,,,,,,,,,,,,,,,,,,,,,,,,,,,,,,,,,,,,,,,,,,,,,,,,,,
1725710365.66027,1725710365.661288,104.0,0.0,4249.871582,4262.05127,4262.820313,4299.358887,4218.333496,4249.871582,4171.794922,4234.871582,4170.0,4250.0,4540.897461,4511.025879,4382.436035,4446.282227,0.0,1.0,15.0,,,,0.0,4.0,4.0,4.0,4.0,4.0,4.0,4.0,4.0,4.0,4.0,4.0,4.0,4.0,4.0,100.0,,,,,,,,,,,,,,,,,,,,,,,,,,,,,,,,,,,,,,,,,,,,,,,,,,,,,,,,0.0,0.0,1.0,0.0,1024.0,0.044193,,,,,,,,,,,,,,,,,,,,,,,,,,,,,,,,,,,,,,,,,,,,,,,,,,,,,,,,,,,,,,,,,,,,,,
1725710365.664174,1725710365.665192,105.0,0.0,4250.384766,4259.487305,4263.077148,4296.538574,4217.563965,4249.871582,4169.358887,4232.307617,4168.846191,4246.666504,4539.358887,4509.615234,4379.102539,4444.615234,0.0,1.0,15.0,,,,0.0,4.0,4.0,4.0,4.0,4.0,4.0,4.0,4.0,4.0,4.0,4.0,4.0,4.0,4.0,100.0,,,,,,,,,,,,,,,,,,,,,,,,,,,,,,,,,,,,,,,,,,,,,,,,,,,,,,,,,,,,,,,,,,,,,,,,,,,,,,,,,,,,,,,,,,,,,,,,,,,,,,,,,,,,,,,,,,,,,,,,,,,,,,,,,,,
1725710365.668079,1725710365.669096,106.0,0.0,4251.410156,4255.512695,4261.153809,4290.0,4217.307617,4248.974121,4163.205078,4229.102539,4168.077148,4241.538574,4539.230957,4510.0,4379.230957,4443.333496,0.0,1.0,15.0,,,,0.0,4.0,4.0,4.0,4.0,4.0,4.0,4.0,4.0,4.0,4.0,4.0,4.0,4.0,4.0,100.0,,,,,,,,,,,,,,,,,,,,,,,,,,,,,,,,,,,,,,,,,,,,,,,,,,,,,,,,,,,,,,,,,,,,,,,,,,,,,,,,,,,,,,,,,,,,,,,,,,,,,,,,,,,,,,,,,,,,,,,,,,,,,,,,,,,
1725710365.671983,1725710365.6731,107.0,0.0,4252.05127,4252.563965,4259.102539,4283.846191,4217.05127,4248.077148,4156.025879,4225.0,4167.307617,4236.538574,4539.871582,4510.769043,4381.922852,4443.333496,0.0,1.0,15.0,,,,0.0,4.0,4.0,4.0,4.0,4.0,4.0,4.0,4.0,4.0,4.0,4.0,4.0,4.0,4.0,100.0,,,,,,,,,,,,,,,,,,,,,,,,,,,,,,,,,,,,,,,,,,,,,,,,,,,,,,,,,,,,,,,,,,,,,,,,,,,,,,,,,,,,,,,,,,,,,,,,,,,,,,,,,,,,,,,,,,,,,,,,,,,,,,,,,,,
1725710365.675887,1725710365.677004,108.0,0.0,4251.794922,4252.563965,4258.333496,4282.436035,4216.538574,4247.692383,4150.897461,4220.512695,4165.897461,4233.589844,4539.615234,4509.615234,4384.615234,4444.615234,0.0,1.0,15.0,,,,0.0,4.0,4.0,4.0,4.0,4.0,4.0,4.0,4.0,4.0,4.0,4.0,4.0,4.0,4.0,100.0,,,,,,,,,,,,,,,,,,,,,,,,,,,,,,,,,,,,,,,,,,,,,,,,,,,,,,,,,,,,,,,,,,,,,,,,,,,,,,,,,,,,,,,,,,,,,,,,,,,,,,,,,,,,,,,,,,,,,,,,,,,,,,,,,,,
1725710365.679791,1725710365.680908,109.0,0.0,4250.769043,4255.769043,4259.230957,4286.282227,4216.410156,4248.333496,4149.615234,4217.05127,4163.717773,4233.205078,4537.94873,4505.769043,4385.128418,4445.769043,0.0,1.0,15.0,,,,0.0,4.0,4.0,4.0,4.0,4.0,4.0,4.0,4.0,4.0,4.0,4.0,4.0,4.0,4.0,100.0,,,,,,,,,,,,,,,,,,,,,,,,,,,,,,,,,,,,,,,,,,,,,,,,,,,,,,,,,,,,,,,,,,,,,,,,,,,,,,,,,,,,,,,,,,,,,,,,,,,,,,,,,,,,,,,,,,,,,,,,,,,,,,,,,,,
1725710365.683695,1725710365.684812,110.0,0.0,4249.743652,4260.128418,4260.769043,4292.307617,4216.794922,4249.358887,4151.282227,4215.641113,4161.025879,4233.974121,4536.282227,4500.512695,4383.589844,4444.743652,0.0,1.0,15.0,,,,0.0,4.0,4.0,4.0,4.0,4.0,4.0,4.0,4.0,4.0,4.0,4.0,4.0,4.0,4.0,100.0,,,,,,,,,,,,,,,,,,,,,,,,,,,,,,,,,,,,,,,,,,,,,,,,,,,,,,,,,,,,,,,,,,,,,,,,,,,,,,,,,,,,,,,,,,,,,,,,,,,,,,,,,,,,,,,,,,,,,,,,,,,,,,,,,,,
1725710365.687599,1725710365.688816,111.0,0.0,4248.974121,4262.94873,4261.410156,4296.538574,4218.077148,4249.743652,4153.589844,4216.025879,4158.205078,4233.974121,4536.153809,4495.769043,4381.922852,4441.538574,0.0,1.0,15.0,,,,0.0,4.0,4.0,4.0,4.0,4.0,4.0,4.0,4.0,4.0,4.0,4.0,4.0,4.0,4.0,100.0,,,,,,,,,,,,,,,,,,,,,,,,,,,,,,,,,,,,,,,,,,,,,,,,,,,,,,,,,,,,,,,,,,,,,,,,,,,,,,,,,,,,,,,,,,,,,,,,,,,,,,,,,,,,,,,,,,,,,,,,,,,,,,,,,,,
1725710365.691503,1725710365.69272,112.0,0.0,4248.461426,4263.077148,4261.025879,4297.05127,4219.102539,4248.974121,4154.230957,4217.436035,4155.512695,4232.692383,4537.436035,4492.692383,4381.282227,4438.077148,0.0,1.0,15.0,,,,0.0,4.0,4.0,4.0,4.0,4.0,4.0,4.0,4.0,4.0,4.0,4.0,4.0,4.0,4.0,100.0,,,,,,,,,,,,,,,,,1.0,0.0,0.0,,,,,,,,,,,,,,,,,,,,,,,,,,,,,,,,,,,,,0.0,0.0,1.0,0.0,1024.0,0.02241,1.029764,0.488124,0.409783,0.237911,0.078405,0.867024,0.836853,0.604581,0.284884,0.094635,0.544654,0.315216,0.183255,0.1202,0.038861,0.769953,0.529537,0.258964,0.3019,0.118814,0.474397,0.208244,0.115669,0.06291,0.033552,0.254996,0.157985,0.123418,0.033612,0.057975,4.617141,0.552624,0.610945,0.147888,0.091296,0.370874,1.66543,0.5456,0.22689,0.15066,0.842674,0.860775,0.683078,0.193918,0.113029,1.218685,0.879274,0.810409,0.200492,0.076351,1.211328,0.853268,1.348071,0.422337,0.219275,1.756136,1.435746,1.193646,0.492527,0.095849,1.302777,0.998507,1.131893,0.660187,0.103298,1.410996,0.882289,1.054219,0.35402,0.088179
1725710365.695407,1725710365.696624,113.0,0.0,4248.333496,4261.794922,4260.128418,4295.0,4219.102539,4247.307617,4152.436035,4218.974121,4153.846191,4231.282227,4538.717773,4491.666504,4381.410156,4436.538574,0.0,1.0,15.0,,,,0.0,4.0,4.0,4.0,4.0,4.0,4.0,4.0,4.0,4.0,4.0,4.0,4.0,4.0,4.0,100.0,,,,,,,,,,,,,,,,,,,,,,,,,,,,,,,,,,,,,,,,,,,,,,,,,,,,,,,,,,,,,,,,,,,,,,,,,,,,,,,,,,,,,,,,,,,,,,,,,,,,,,,,,,,,,,,,,,,,,,,,,,,,,,,,,,,
1725710365.699311,1725710365.700528,114.0,0.0,4248.589844,4261.282227,4259.487305,4293.077148,4218.205078,4245.769043,4149.358887,4220.0,4153.461426,4231.153809,4538.461426,4492.436035,4380.512695,4437.436035,0.0,1.0,15.0,,,,0.0,4.0,4.0,4.0,4.0,4.0,4.0,4.0,4.0,4.0,4.0,4.0,4.0,4.0,4.0,100.0,,,,,,,,,,,,,,,,,,,,,,,,,,,,,,,,,,,,,,,,,,,,,,,,,,,,,,,,,,,,,,,,,,,,,,,,,,,,,,,,,,,,,,,,,,,,,,,,,,,,,,,,,,,,,,,,,,,,,,,,,,,,,,,,,,,
1725710365.703215,1725710365.704532,115.0,0.0,4248.974121,4262.307617,4259.871582,4293.461426,4217.436035,4245.0,4147.563965,4220.769043,4154.487305,4231.922852,4536.410156,4494.102539,4377.563965,4438.717773,0.0,1.0,15.0,,,,0.0,4.0,4.0,4.0,4.0,4.0,4.0,4.0,4.0,4.0,4.0,4.0,4.0,4.0,4.0,100.0,,,,,,,,,,,,,,,,,,,,,,,,,,,,,,,,,,,,,,,,,,,,,,,,,,,,,,,,,,,,,,,,,,,,,,,,,,,,,,,,,,,,,,,,,,,,,,,,,,,,,,,,,,,,,,,,,,,,,,,,,,,,,,,,,,,
1725710365.70712,1725710365.708437,116.0,0.0,4249.358887,4264.487305,4261.025879,4295.641113,4217.307617,4245.0,4148.589844,4221.666504,4156.153809,4231.666504,4533.077148,4495.0,4373.589844,4438.205078,0.0,1.0,15.0,,,,0.0,4.0,4.0,4.0,4.0,4.0,4.0,4.0,4.0,4.0,4.0,4.0,4.0,4.0,4.0,100.0,,,,,,,,,,,,,,,,,,,,,,,,,,,,,,,,,,,,,,,,,,,,,,,,,,,,,,,,,,,,,,,,,,,,,,,,,,,,,,,,,,,,,,,,,,,,,,,,,,,,,,,,,,,,,,,,,,,,,,,,,,,,,,,,,,,
1725710365.711024,1725710365.712341,117.0,0.0,4249.358887,4266.153809,4261.922852,4297.820313,4217.563965,4245.384766,4151.538574,4222.563965,4157.563965,4229.230957,4528.846191,4494.358887,4370.256348,4435.512695,0.0,1.0,15.0,,,,0.0,4.0,4.0,4.0,4.0,4.0,4.0,4.0,4.0,4.0,4.0,4.0,4.0,4.0,4.0,100.0,,,,,,,,,,,,,,,,,,,,,,,,,,,,,,,,,,,,,,,,,,,,,,,,,,,,,,,,,,,,,,,,,,,,,,,,,,,,,,,,,,,,,,,,,,,,,,,,,,,,,,,,,,,,,,,,,,,,,,,,,,,,,,,,,,,
1725710365.714928,1725710365.716245,118.0,0.0,4249.230957,4266.282227,4261.666504,4298.461426,4217.563965,4245.641113,4153.846191,4223.205078,4158.077148,4225.641113,4523.846191,4492.436035,4369.358887,4432.820313,0.0,1.0,15.0,,,,0.0,4.0,4.0,4.0,4.0,4.0,4.0,4.0,4.0,4.0,4.0,4.0,4.0,4.0,4.0,100.0,,,,,,,,,,,,,,,,,,,,,,,,,,,,,,,,,,,,,,,,,,,,,,,,,,,,,,,,,,,,,,,,,,,,,,,,,,,,,,,,,,,,,,,,,,,,,,,,,,,,,,,,,,,,,,,,,,,,,,,,,,,,,,,,,,,
1725710365.718832,1725710365.720249,119.0,0.0,4249.102539,4264.871582,4260.769043,4296.794922,4217.307617,4245.769043,4153.974121,4223.717773,4157.692383,4223.461426,4519.358887,4491.410156,4370.641113,4432.563965,0.0,1.0,15.0,,,,0.0,4.0,4.0,4.0,4.0,4.0,4.0,4.0,4.0,4.0,4.0,4.0,4.0,4.0,4.0,100.0,,,,,,,,,,,,,,,,,,,,,,,,,,,,,,,,,,,,,,,,,,,,,,,,,,,,,,,,,,,,,,,,,,,,,,,,,,,,,,,,,,,,,,,,,,,,,,,,,,,,,,,,,,,,,,,,,,,,,,,,,,,,,,,,,,,
1725710365.722736,1725710365.724153,120.0,0.0,4249.230957,4263.205078,4260.256348,4294.102539,4217.179688,4245.769043,4152.94873,4223.974121,4156.922852,4224.743652,4517.436035,4492.563965,4373.077148,4435.769043,0.0,1.0,15.0,,,,0.0,4.0,4.0,4.0,4.0,4.0,4.0,4.0,4.0,4.0,4.0,4.0,4.0,4.0,4.0,100.0,,,,,,,,,,,,,,,,,,,,,,,,,,,,,,,,,,,,,,,,,,,,,,,,,,,,,,,,0.0,0.0,1.0,0.0,1024.0,0.02241,,,,,,,,,,,,,,,,,,,,,,,,,,,,,,,,,,,,,,,,,,,,,,,,,,,,,,,,,,,,,,,,,,,,,,
1725710365.72664,1725710365.728057,121.0,0.0,4249.487305,4261.922852,4261.282227,4292.179688,4217.563965,4245.769043,4153.461426,4223.461426,4156.410156,4229.230957,4519.487305,4495.128418,4375.256348,4440.384766,0.0,1.0,15.0,,,,0.0,4.0,4.0,4.0,4.0,4.0,4.0,4.0,4.0,4.0,4.0,4.0,4.0,4.0,4.0,100.0,,,,,,,,,,,,,,,,,,,,,,,,,,,,,,,,,,,,,,,,,,,,,,,,,,,,,,,,,,,,,,,,,,,,,,,,,,,,,,,,,,,,,,,,,,,,,,,,,,,,,,,,,,,,,,,,,,,,,,,,,,,,,,,,,,,
1725710365.730544,1725710365.732061,122.0,0.0,4249.487305,4260.769043,4262.94873,4291.922852,4217.94873,4245.641113,4157.05127,4221.794922,4155.769043,4233.589844,4524.871582,4496.794922,4376.153809,4443.077148,0.0,1.0,15.0,,,,0.0,4.0,4.0,4.0,4.0,4.0,4.0,4.0,4.0,4.0,4.0,4.0,4.0,4.0,4.0,100.0,,,,,,,,,,,,,,,,,,,,,,,,,,,,,,,,,,,,,,,,,,,,,,,,,,,,,,,,,,,,,,,,,,,,,,,,,,,,,,,,,,,,,,,,,,,,,,,,,,,,,,,,,,,,,,,,,,,,,,,,,,,,,,,,,,,
1725710365.734448,1725710365.735965,123.0,0.0,4248.974121,4259.487305,4263.846191,4292.692383,4217.820313,4245.641113,4162.436035,4219.102539,4154.871582,4234.230957,4531.025879,4495.897461,4375.641113,4441.538574,0.0,1.0,15.0,,,,0.0,4.0,4.0,4.0,4.0,4.0,4.0,4.0,4.0,4.0,4.0,4.0,4.0,4.0,4.0,100.0,,,,,,,,,,,,,,,,,,,,,,,,,,,,,,,,,,,,,,,,,,,,,,,,,,,,,,,,,,,,,,,,,,,,,,,,,,,,,,,,,,,,,,,,,,,,,,,,,,,,,,,,,,,,,,,,,,,,,,,,,,,,,,,,,,,
1725710365.738352,1725710365.739869,124.0,0.0,4248.461426,4258.461426,4263.205078,4293.205078,4217.179688,4245.897461,4166.922852,4216.666504,4153.205078,4230.641113,4534.871582,4493.333496,4374.358887,4436.538574,0.0,1.0,15.0,,,,0.0,4.0,4.0,4.0,4.0,4.0,4.0,4.0,4.0,4.0,4.0,4.0,4.0,4.0,4.0,100.0,,,,,,,,,,,,,,,,,,,,,,,,,,,,,,,,,,,,,,,,,,,,,,,,,,,,,,,,,,,,,,,,,,,,,,,,,,,,,,,,,,,,,,,,,,,,,,,,,,,,,,,,,,,,,,,,,,,,,,,,,,,,,,,,,,,
1725710365.742257,1725710365.743773,125.0,0.0,4248.077148,4258.461426,4261.666504,4292.692383,4216.282227,4246.025879,4167.820313,4215.769043,4151.922852,4225.897461,4534.871582,4491.410156,4373.589844,4432.179688,0.0,1.0,15.0,,,,0.0,4.0,4.0,4.0,4.0,4.0,4.0,4.0,4.0,4.0,4.0,4.0,4.0,4.0,4.0,100.0,,,,,,,,,,,,,,,,,,,,,,,,,,,,,,,,,,,,,,,,,,,,,,,,,,,,,,,,,,,,,,,,,,,,,,,,,,,,,,,,,,,,,,,,,,,,,,,,,,,,,,,,,,,,,,,,,,,,,,,,,,,,,,,,,,,
1725710365.746161,1725710365.747777,126.0,0.0,4248.077148,4259.487305,4260.897461,4290.769043,4215.641113,4246.025879,4164.743652,4216.922852,4151.666504,4223.974121,4531.282227,4491.282227,4373.974121,4431.410156,0.0,1.0,15.0,,,,0.0,4.0,4.0,4.0,4.0,4.0,4.0,4.0,4.0,4.0,4.0,4.0,4.0,4.0,4.0,100.0,,,,,,,,,,,,,,,,,,,,,,,,,,,,,,,,,,,,,,,,,,,,,,,,,,,,,,,,,,,,,,,,,,,,,,,,,,,,,,,,,,,,,,,,,,,,,,,,,,,,,,,,,,,,,,,,,,,,,,,,,,,,,,,,,,,
1725710365.750065,1725710365.751681,127.0,0.0,4247.94873,4260.384766,4260.769043,4287.692383,4215.641113,4245.769043,4159.743652,4218.974121,4152.692383,4225.897461,4526.410156,4492.05127,4375.256348,4434.230957,0.0,1.0,15.0,,,,0.0,4.0,4.0,4.0,4.0,4.0,4.0,4.0,4.0,4.0,4.0,4.0,4.0,4.0,4.0,100.0,,,,,,,,,,,,,,,,,,,,,,,,,,,,,,,,,,,,,,,,,,,,,,,,,,,,,,,,,,,,,,,,,,,,,,,,,,,,,,,,,,,,,,,,,,,,,,,,,,,,,,,,,,,,,,,,,,,,,,,,,,,,,,,,,,,
1725710365.753969,1725710365.755585,128.0,0.0,4247.05127,4259.743652,4260.641113,4284.102539,4215.641113,4245.256348,4155.0,4220.256348,4153.717773,4228.717773,4522.820313,4492.179688,4376.153809,4437.307617,2708.0,1.0,15.0,,,,0.0,4.0,4.0,4.0,4.0,4.0,4.0,4.0,4.0,4.0,4.0,4.0,4.0,4.0,4.0,100.0,,,,,,,,,,,,,,,,,,,,,,,,,,,,,,,,,,,,,,,,,,,,,,,,,,,,,,,,0.0,0.0,1.0,0.0,1024.0,0.02241,,,,,,,,,,,,,,,,,,,,,,,,,,,,,,,,,,,,,,,,,,,,,,,,,,,,,,,,,,,,,,,,,,,,,,
1725710365.757873,1725710365.75949,129.0,0.0,4245.641113,4257.563965,4259.487305,4281.025879,4215.128418,4244.358887,4152.179688,4220.128418,4154.102539,4228.717773,4521.794922,4491.666504,4376.025879,4437.692383,2586.0,1.0,15.0,,,,0.0,4.0,4.0,4.0,4.0,4.0,4.0,4.0,4.0,4.0,4.0,4.0,4.0,4.0,4.0,100.0,,,,,,,,,,,,,,,,,,,,,,,,,,,,,,,,,,,,,,,,,,,,,,,,,,,,,,,,,,,,,,,,,,,,,,,,,,,,,,,,,,,,,,,,,,,,,,,,,,,,,,,,,,,,,,,,,,,,,,,,,,,,,,,,,,,
1725710365.761777,1725710365.763394,130.0,0.0,4244.102539,4254.102539,4257.307617,4279.102539,4213.974121,4243.717773,4151.153809,4218.974121,4154.615234,4224.871582,4522.820313,4491.282227,4374.487305,4435.256348,2515.0,1.0,15.0,,,,0.0,4.0,4.0,4.0,4.0,4.0,4.0,4.0,4.0,4.0,4.0,4.0,4.0,4.0,4.0,100.0,,,,,,,,,,,,,,,,,,,,,,,,,,,,,,,,,,,,,,,,,,,,,,,,,,,,,,,,,,,,,,,,,,,,,,,,,,,,,,,,,,,,,,,,,,,,,,,,,,,,,,,,,,,,,,,,,,,,,,,,,,,,,,,,,,,
1725710365.765681,1725710365.767198,131.0,0.0,4243.461426,4250.769043,4254.743652,4278.589844,4212.94873,4243.717773,4149.743652,4218.205078,4156.025879,4219.871582,4524.743652,4491.538574,4371.794922,4432.179688,2476.0,1.0,15.0,,,,0.0,4.0,4.0,4.0,4.0,4.0,4.0,4.0,4.0,4.0,4.0,4.0,4.0,4.0,4.0,100.0,,,,,,,,,,,,,,,,,,,,,,,,,,,,,,,,,,,,,,,,,,,,,,,,,,,,,,,,,,,,,,,,,,,,,,,,,,,,,,,,,,,,,,,,,,,,,,,,,,,,,,,,,,,,,,,,,,,,,,,,,,,,,,,,,,,
1725710365.769585,1725710365.771102,132.0,0.0,4243.846191,4248.333496,4252.692383,4278.974121,4212.692383,4244.358887,4146.538574,4218.589844,4158.333496,4218.205078,4526.025879,4491.538574,4368.846191,4430.641113,2448.0,1.0,15.0,,,,0.0,4.0,4.0,4.0,4.0,4.0,4.0,4.0,4.0,4.0,4.0,4.0,4.0,4.0,4.0,100.0,,,,,,,,,,,,,,,,,,,,,,,,,,,,,,,,,,,,,,,,,,,,,,,,,,,,,,,,,,,,,,,,,,,,,,,,,,,,,,,,,,,,,,,,,,,,,,,,,,,,,,,,,,,,,,,,,,,,,,,,,,,,,,,,,,,
1725710365.773489,1725710365.775006,133.0,0.0,4245.0,4248.077148,4251.538574,4280.128418,4213.589844,4245.256348,4141.282227,4219.230957,4159.615234,4221.410156,4526.538574,4490.0,4366.794922,4430.897461,2404.0,1.0,15.0,,,,0.0,4.0,4.0,4.0,4.0,4.0,4.0,4.0,4.0,4.0,4.0,4.0,4.0,4.0,4.0,100.0,,,,,,,,,,,,,,,,,,,,,,,,,,,,,,,,,,,,,,,,,,,,,,,,,,,,,,,,,,,,,,,,,,,,,,,,,,,,,,,,,,,,,,,,,,,,,,,,,,,,,,,,,,,,,,,,,,,,,,,,,,,,,,,,,,,
1725710365.777393,1725710365.77891,134.0,0.0,4246.282227,4250.897461,4251.282227,4281.922852,4215.128418,4246.025879,4136.025879,4219.487305,4158.974121,4227.05127,4526.153809,4486.666504,4366.666504,4431.666504,2446.0,1.0,15.0,,,,0.0,4.0,4.0,4.0,4.0,4.0,4.0,4.0,4.0,4.0,4.0,4.0,4.0,4.0,4.0,100.0,,,,,,,,,,,,,,,,,,,,,,,,,,,,,,,,,,,,,,,,,,,,,,,,,,,,,,,,,,,,,,,,,,,,,,,,,,,,,,,,,,,,,,,,,,,,,,,,,,,,,,,,,,,,,,,,,,,,,,,,,,,,,,,,,,,
1725710365.781298,1725710365.782714,135.0,0.0,4247.05127,4256.025879,4251.282227,4284.487305,4216.666504,4246.153809,4133.205078,4219.358887,4157.436035,4231.538574,4525.384766,4483.205078,4368.974121,4432.05127,2483.0,1.0,15.0,,,,0.0,4.0,4.0,4.0,4.0,4.0,4.0,4.0,4.0,4.0,4.0,4.0,4.0,4.0,4.0,100.0,,,,,,,,,,,,,,,,,,,,,,,,,,,,,,,,,,,,,,,,,,,,,,,,,,,,,,,,,,,,,,,,,,,,,,,,,,,,,,,,,,,,,,,,,,,,,,,,,,,,,,,,,,,,,,,,,,,,,,,,,,,,,,,,,,,
1725710365.785202,1725710365.786619,136.0,0.0,4247.05127,4260.897461,4250.897461,4286.794922,4217.563965,4246.025879,4134.358887,4219.230957,4157.436035,4232.820313,4524.230957,4482.05127,4372.436035,4431.666504,2468.0,1.0,15.0,,,,0.0,4.0,4.0,4.0,4.0,4.0,4.0,4.0,4.0,4.0,4.0,4.0,4.0,4.0,4.0,100.0,,,,,,,,,,,,,,,,,,,,,,,,,,,,,,,,,,,,,,,,,,,,,,,,,,,,,,,,0.0,0.0,1.0,0.0,1024.0,0.02241,,,,,,,,,,,,,,,,,,,,,,,,,,,,,,,,,,,,,,,,,,,,,,,,,,,,,,,,,,,,,,,,,,,,,,
1725710365.789106,1725710365.790523,137.0,0.0,4246.538574,4262.563965,4250.0,4288.077148,4217.692383,4246.025879,4138.333496,4219.102539,4160.128418,4231.538574,4522.436035,4484.358887,4374.615234,4431.282227,2561.0,1.0,15.0,,,,0.0,4.0,4.0,4.0,4.0,4.0,4.0,4.0,4.0,4.0,4.0,4.0,4.0,4.0,4.0,100.0,,,,,,,,,,,,,,,,,,,,,,,,,,,,,,,,,,,,,,,,,,,,,,,,,,,,,,,,,,,,,,,,,,,,,,,,,,,,,,,,,,,,,,,,,,,,,,,,,,,,,,,,,,,,,,,,,,,,,,,,,,,,,,,,,,,
1725710365.79301,1725710365.794427,138.0,0.0,4246.153809,4260.128418,4249.102539,4287.563965,4217.307617,4246.666504,4142.692383,4219.230957,4163.589844,4229.358887,4520.512695,4488.974121,4373.717773,4431.153809,2907.0,1.0,15.0,,,,0.0,4.0,4.0,4.0,4.0,4.0,4.0,4.0,4.0,4.0,4.0,4.0,4.0,4.0,4.0,100.0,,,,,,,,,,,,,,,,,,,,,,,,,,,,,,,,,,,,,,,,,,,,,,,,,,,,,,,,,,,,,,,,,,,,,,,,,,,,,,,,,,,,,,,,,,,,,,,,,,,,,,,,,,,,,,,,,,,,,,,,,,,,,,,,,,,
1725710365.796914,1725710365.798231,139.0,0.0,4246.153809,4255.512695,4248.846191,4285.384766,4216.922852,4247.692383,4145.128418,4219.358887,4165.128418,4227.94873,4519.102539,4493.205078,4369.743652,4431.025879,3146.0,1.0,15.0,,,,0.0,4.0,4.0,4.0,4.0,4.0,4.0,4.0,4.0,4.0,4.0,4.0,4.0,4.0,4.0,100.0,,,,,,,,,,,,,,,,,,,,,,,,,,,,,,,,,,,,,,,,,,,,,,,,,,,,,,,,,,,,,,,,,,,,,,,,,,,,,,,,,,,,,,,,,,,,,,,,,,,,,,,,,,,,,,,,,,,,,,,,,,,,,,,,,,,
1725710365.800818,1725710365.802135,140.0,0.0,4246.025879,4252.307617,4249.102539,4282.179688,4216.666504,4248.461426,4145.128418,4219.487305,4163.461426,4228.205078,4518.589844,4494.358887,4365.384766,4430.384766,3420.0,1.0,15.0,,,,0.0,4.0,4.0,4.0,4.0,4.0,4.0,4.0,4.0,4.0,4.0,4.0,4.0,4.0,4.0,100.0,,,,,,,,,,,,,,,,,,,,,,,,,,,,,,,,,,,,,,,,,,,,,,,,,,,,,,,,,,,,,,,,,,,,,,,,,,,,,,,,,,,,,,,,,,,,,,,,,,,,,,,,,,,,,,,,,,,,,,,,,,,,,,,,,,,
1725710365.804722,1725710365.806039,141.0,0.0,4245.256348,4252.94873,4249.615234,4279.487305,4216.922852,4248.589844,4143.205078,4219.358887,4159.743652,4229.615234,4519.230957,4492.05127,4363.461426,4429.230957,3916.0,1.0,15.0,,,,0.0,4.0,4.0,4.0,4.0,4.0,4.0,4.0,4.0,4.0,4.0,4.0,4.0,4.0,4.0,100.0,,,,,,,,,,,,,,,,,,,,,,,,,,,,,,,,,,,,,,,,,,,,,,,,,,,,,,,,,,,,,,,,,,,,,,,,,,,,,,,,,,,,,,,,,,,,,,,,,,,,,,,,,,,,,,,,,,,,,,,,,,,,,,,,,,,
1725710365.808626,1725710365.810043,142.0,0.0,4244.230957,4257.307617,4249.871582,4278.846191,4217.436035,4247.94873,4140.641113,4218.846191,4156.666504,4230.641113,4520.769043,4488.461426,4365.384766,4428.589844,2907.0,1.0,15.0,,,,0.0,4.0,4.0,4.0,4.0,4.0,4.0,4.0,4.0,4.0,4.0,4.0,4.0,4.0,4.0,100.0,,,,,,,,,,,,,,,,,,,,,,,,,,,,,,,,,,,,,,,,,,,,,,,,,,,,,,,,,,,,,,,,,,,,,,,,,,,,,,,,,,,,,,,,,,,,,,,,,,,,,,,,,,,,,,,,,,,,,,,,,,,,,,,,,,,
1725710365.81253,1725710365.813947,143.0,0.0,4244.102539,4262.179688,4249.871582,4280.769043,4217.820313,4247.307617,4138.846191,4218.717773,4156.282227,4229.871582,4522.563965,4486.794922,4369.871582,4429.230957,3146.0,1.0,15.0,,,,0.0,4.0,4.0,4.0,4.0,4.0,4.0,4.0,4.0,4.0,4.0,4.0,4.0,4.0,4.0,100.0,,,,,,,,,,,,,,,,,,,,,,,,,,,,,,,,,,,,,,,,,,,,,,,,,,,,,,,,,,,,,,,,,,,,,,,,,,,,,,,,,,,,,,,,,,,,,,,,,,,,,,,,,,,,,,,,,,,,,,,,,,,,,,,,,,,
1725710365.816435,1725710365.817851,144.0,0.0,4245.641113,4263.974121,4249.871582,4284.230957,4217.563965,4247.179688,4138.974121,4219.102539,4158.717773,4227.179688,4524.487305,4488.461426,4374.102539,4431.153809,3420.0,1.0,15.0,,,,0.0,4.0,4.0,4.0,4.0,4.0,4.0,4.0,4.0,4.0,4.0,4.0,4.0,4.0,4.0,100.0,1.0,16.666666,4.0,4.0,4.0,4.0,0.0,1.0,1.0,4.0,4.0,4.0,4.0,4.0,4.0,4.0,1.0,0.0,0.0,,,,,,,,,,,,,,,,,,,,,,,,,,,,,,,,,,,,,0.0,0.0,1.0,0.0,2048.0,0.000867,0.875475,0.486435,0.431063,0.239182,0.085222,0.794629,0.757737,0.503159,0.256422,0.086798,0.494998,0.314161,0.17418,0.106115,0.038443,0.595805,0.399235,0.258446,0.290666,0.111191,0.413986,0.195589,0.106753,0.056431,0.029984,0.265899,0.121537,0.112693,0.039271,0.055728,4.138196,0.476657,0.680847,0.146159,0.089341,0.40184,1.356501,0.524307,0.209461,0.152029,0.893657,0.633576,0.584249,0.180851,0.104083,1.026107,0.720971,0.736152,0.181349,0.067686,1.117989,0.819328,1.116552,0.400812,0.203429,1.935377,1.222806,1.076818,0.431846,0.103034,1.12142,0.842786,0.960295,0.644665,0.105751,1.443664,0.756191,0.976104,0.324327,0.084212
1725710365.820339,1725710365.821755,145.0,0.0,4247.820313,4260.641113,4250.256348,4287.692383,4216.794922,4247.563965,4141.025879,4219.743652,4161.410156,4223.846191,4525.769043,4491.666504,4375.256348,4433.205078,3916.0,1.0,15.0,,,,0.0,4.0,4.0,4.0,4.0,4.0,4.0,4.0,4.0,4.0,4.0,4.0,4.0,4.0,4.0,100.0,,,,,,,,,,,,,,,,,,,,,,,,,,,,,,,,,,,,,,,,,,,,,,,,,,,,,,,,,,,,,,,,,,,,,,,,,,,,,,,,,,,,,,,,,,,,,,,,,,,,,,,,,,,,,,,,,,,,,,,,,,,,,,,,,,,
1725710365.824243,1725710365.82556,146.0,0.0,4248.461426,4253.717773,4250.512695,4289.102539,4215.512695,4247.692383,4143.846191,4220.128418,4161.538574,4220.641113,4526.153809,4492.820313,4372.307617,4433.717773,2907.0,1.0,15.0,,,,0.0,4.0,4.0,4.0,4.0,4.0,4.0,4.0,4.0,4.0,4.0,4.0,4.0,4.0,4.0,100.0,,,,,,,,,,,,,,,,,,,,,,,,,,,,,,,,,,,,,,,,,,,,,,,,,,,,,,,,,,,,,,,,,,,,,,,,,,,,,,,,,,,,,,,,,,,,,,,,,,,,,,,,,,,,,,,,,,,,,,,,,,,,,,,,,,,
1725710365.828147,1725710365.829464,147.0,0.0,4246.025879,4247.563965,4249.871582,4288.205078,4214.358887,4247.307617,4145.256348,4219.358887,4158.333496,4218.205078,4525.256348,4489.871582,4366.410156,4431.538574,3146.0,1.0,15.0,,,,0.0,4.0,4.0,4.0,4.0,4.0,4.0,4.0,4.0,4.0,4.0,4.0,4.0,4.0,4.0,100.0,,,,,,,,,,,,,,,,,,,,,,,,,,,,,,,,,,,,,,,,,,,,,,,,,,,,,,,,,,,,,,,,,,,,,,,,,,,,,,,,,,,,,,,,,,,,,,,,,,,,,,,,,,,,,,,,,,,,,,,,,,,,,,,,,,,
1725710365.832051,1725710365.833368,148.0,0.0,4241.025879,4245.256348,4248.461426,4285.769043,4213.461426,4246.282227,4143.846191,4217.563965,4154.102539,4216.666504,4523.846191,4483.974121,4360.641113,4427.820313,3420.0,1.0,15.0,,,,0.0,4.0,4.0,4.0,4.0,4.0,4.0,4.0,4.0,4.0,4.0,4.0,4.0,4.0,4.0,100.0,,,,,,,,,,,,,,,,,,,,,,,,,,,,,,,,,,,,,,,,,,,,,,,,,,,,,,,,,,,,,,,,,,,,,,,,,,,,,,,,,,,,,,,,,,,,,,,,,,,,,,,,,,,,,,,,,,,,,,,,,,,,,,,,,,,
1725710365.835955,1725710365.837272,149.0,0.0,4236.025879,4247.307617,4247.436035,4283.333496,4212.94873,4245.256348,4139.358887,4215.641113,4151.666504,4216.025879,4522.563965,4478.205078,4357.820313,4424.743652,3916.0,1.0,15.0,,,,0.0,4.0,4.0,4.0,4.0,4.0,4.0,4.0,4.0,4.0,4.0,4.0,4.0,4.0,4.0,100.0,,,,,,,,,,,,,,,,,,,,,,,,,,,,,,,,,,,,,,,,,,,,,,,,,,,,,,,,,,,,,,,,,,,,,,,,,,,,,,,,,,,,,,,,,,,,,,,,,,,,,,,,,,,,,,,,,,,,,,,,,,,,,,,,,,,
1725710365.839859,1725710365.841076,150.0,0.0,4233.461426,4250.897461,4247.820313,4282.05127,4213.077148,4245.384766,4132.692383,4214.615234,4151.922852,4216.410156,4522.307617,4475.0,4358.461426,4424.102539,2907.0,1.0,15.0,,,,0.0,4.0,4.0,4.0,4.0,4.0,4.0,4.0,4.0,4.0,4.0,4.0,4.0,4.0,4.0,100.0,,,,,,,,,,,,,,,,,,,,,,,,,,,,,,,,,,,,,,,,,,,,,,,,,,,,,,,,,,,,,,,,,,,,,,,,,,,,,,,,,,,,,,,,,,,,,,,,,,,,,,,,,,,,,,,,,,,,,,,,,,,,,,,,,,,
1725710365.843763,1725710365.84498,151.0,0.0,4233.974121,4253.589844,4249.102539,4282.179688,4213.974121,4246.922852,4125.0,4214.871582,4153.333496,4216.922852,4522.563965,4475.0,4360.512695,4425.641113,3146.0,1.0,15.0,,,,0.0,4.0,4.0,4.0,4.0,4.0,4.0,4.0,4.0,4.0,4.0,4.0,4.0,4.0,4.0,100.0,,,,,,,,,,,,,,,,,,,,,,,,,,,,,,,,,,,,,,,,,,,,,,,,,,,,,,,,,,,,,,,,,,,,,,,,,,,,,,,,,,,,,,,,,,,,,,,,,,,,,,,,,,,,,,,,,,,,,,,,,,,,,,,,,,,
1725710365.847667,1725710365.848884,152.0,0.0,4235.384766,4253.974121,4250.256348,4282.692383,4215.0,4248.974121,4117.820313,4216.282227,4153.974121,4217.179688,4522.820313,4477.307617,4361.153809,4427.692383,3420.0,1.0,15.0,,,,0.0,4.0,4.0,4.0,4.0,4.0,4.0,4.0,4.0,4.0,4.0,4.0,4.0,4.0,4.0,100.0,,,,,,,,,,,,,,,,,,,,,,,,,,,,,,,,,,,,,,,,,,,,,,,,,,,,,,,,0.0,0.0,1.0,0.0,2048.0,0.000867,,,,,,,,,,,,,,,,,,,,,,,,,,,,,,,,,,,,,,,,,,,,,,,,,,,,,,,,,,,,,,,,,,,,,,
1725710365.851571,1725710365.852888,153.0,0.0,4235.897461,4252.820313,4250.256348,4282.307617,4215.512695,4250.384766,4112.692383,4217.436035,4154.358887,4216.538574,4522.179688,4480.641113,4359.743652,4428.974121,3916.0,1.0,15.0,,,,0.0,4.0,4.0,4.0,4.0,4.0,4.0,4.0,4.0,4.0,4.0,4.0,4.0,4.0,4.0,100.0,,,,,,,,,,,,,,,,,,,,,,,,,,,,,,,,,,,,,,,,,,,,,,,,,,,,,,,,,,,,,,,,,,,,,,,,,,,,,,,,,,,,,,,,,,,,,,,,,,,,,,,,,,,,,,,,,,,,,,,,,,,,,,,,,,,
1725710365.855475,1725710365.856792,154.0,0.0,4235.128418,4251.538574,4249.487305,4280.384766,4215.0,4250.256348,4109.871582,4217.820313,4156.153809,4216.025879,4521.025879,4483.974121,4357.436035,4429.102539,2907.0,1.0,15.0,,,,0.0,4.0,4.0,4.0,4.0,4.0,4.0,4.0,4.0,4.0,4.0,4.0,4.0,4.0,4.0,100.0,,,,,,,,,,,,,,,,,,,,,,,,,,,,,,,,,,,,,,,,,,,,,,,,,,,,,,,,,,,,,,,,,,,,,,,,,,,,,,,,,,,,,,,,,,,,,,,,,,,,,,,,,,,,,,,,,,,,,,,,,,,,,,,,,,,
1725710365.859379,1725710365.860697,155.0,0.0,4235.0,4250.384766,4249.102539,4277.692383,4213.077148,4248.846191,4108.333496,4217.307617,4160.384766,4216.153809,4520.256348,4486.794922,4356.922852,4428.717773,3146.0,1.0,15.0,,,,0.0,4.0,4.0,4.0,4.0,4.0,4.0,4.0,4.0,4.0,4.0,4.0,4.0,4.0,4.0,100.0,,,,,,,,,,,,,,,,,,,,,,,,,,,,,,,,,,,,,,,,,,,,,,,,,,,,,,,,,,,,,,,,,,,,,,,,,,,,,,,,,,,,,,,,,,,,,,,,,,,,,,,,,,,,,,,,,,,,,,,,,,,,,,,,,,,
1725710365.863284,1725710365.864601,156.0,0.0,4237.307617,4249.487305,4250.641113,4275.897461,4209.871582,4247.05127,4106.666504,4216.794922,4165.256348,4216.794922,4521.153809,4489.358887,4359.102539,4428.589844,3420.0,1.0,15.0,,,,0.0,4.0,4.0,4.0,4.0,4.0,4.0,4.0,4.0,4.0,4.0,4.0,4.0,4.0,4.0,100.0,,,,,,,,,,,,,,,,,,,,,,,,,,,,,,,,,,,,,,,,,,,,,,,,,,,,,,,,,,,,,,,,,,,,,,,,,,,,,,,,,,,,,,,,,,,,,,,,,,,,,,,,,,,,,,,,,,,,,,,,,,,,,,,,,,,
1725710365.867188,1725710365.868505,157.0,0.0,4242.05127,4248.717773,4254.230957,4276.538574,4206.153809,4246.025879,4104.102539,4216.794922,4168.077148,4216.922852,4523.974121,4491.794922,4362.820313,4429.487305,3916.0,1.0,15.0,,,,0.0,4.0,4.0,4.0,4.0,4.0,4.0,4.0,4.0,4.0,4.0,4.0,4.0,4.0,4.0,100.0,,,,,,,,,,,,,,,,,,,,,,,,,,,,,,,,,,,,,,,,,,,,,,,,,,,,,,,,,,,,,,,,,,,,,,,,,,,,,,,,,,,,,,,,,,,,,,,,,,,,,,,,,,,,,,,,,,,,,,,,,,,,,,,,,,,
1725710365.871092,1725710365.872309,158.0,0.0,4246.794922,4248.717773,4258.205078,4279.230957,4203.461426,4245.897461,4100.641113,4217.563965,4167.820313,4215.897461,4527.436035,4493.461426,4365.897461,4430.769043,2907.0,1.0,15.0,,,,0.0,4.0,4.0,4.0,4.0,4.0,4.0,4.0,4.0,4.0,4.0,4.0,4.0,4.0,4.0,100.0,,,,,,,,,,,,,,,,,,,,,,,,,,,,,,,,,,,,,,,,,,,,,,,,,,,,,,,,,,,,,,,,,,,,,,,,,,,,,,,,,,,,,,,,,,,,,,,,,,,,,,,,,,,,,,,,,,,,,,,,,,,,,,,,,,,
1725710365.874996,1725710365.876213,159.0,0.0,4247.94873,4249.102539,4260.641113,4282.05127,4203.077148,4246.282227,4096.538574,4218.333496,4166.538574,4215.0,4529.871582,4493.461426,4366.538574,4431.666504,3146.0,1.0,15.0,,,,0.0,4.0,4.0,4.0,4.0,4.0,4.0,4.0,4.0,4.0,4.0,4.0,4.0,4.0,4.0,100.0,,,,,,,,,,,,,,,,,,,,,,,,,,,,,,,,,,,,,,,,,,,,,,,,,,,,,,,,,,,,,,,,,,,,,,,,,,,,,,,,,,,,,,,,,,,,,,,,,,,,,,,,,,,,,,,,,,,,,,,,,,,,,,,,,,,
1725710365.8789,1725710365.880117,160.0,0.0,4244.487305,4249.487305,4260.128418,4282.820313,4204.487305,4246.282227,4092.05127,4218.589844,4166.666504,4215.641113,4529.871582,4491.025879,4364.487305,4431.153809,3420.0,1.0,15.0,,,,0.0,4.0,4.0,4.0,4.0,4.0,4.0,4.0,4.0,4.0,4.0,4.0,4.0,4.0,4.0,100.0,,,,,,,,,,,,,,,,,,,,,,,,,,,,,,,,,,,,,,,,,,,,,,,,,,,,,,,,0.0,0.0,1.0,0.0,2048.0,0.000867,,,,,,,,,,,,,,,,,,,,,,,,,,,,,,,,,,,,,,,,,,,,,,,,,,,,,,,,,,,,,,,,,,,,,,
1725710365.882804,1725710365.884021,161.0,0.0,4238.333496,4249.358887,4257.307617,4281.153809,4206.538574,4246.153809,4087.179443,4217.820313,4168.589844,4217.563965,4527.05127,4486.153809,4360.769043,4429.358887,3916.0,1.0,15.0,,,,0.0,4.0,4.0,4.0,4.0,4.0,4.0,4.0,4.0,4.0,4.0,4.0,4.0,4.0,4.0,100.0,,,,,,,,,,,,,,,,,,,,,,,,,,,,,,,,,,,,,,,,,,,,,,,,,,,,,,,,,,,,,,,,,,,,,,,,,,,,,,,,,,,,,,,,,,,,,,,,,,,,,,,,,,,,,,,,,,,,,,,,,,,,,,,,,,,
1725710365.886708,1725710365.887826,162.0,0.0,4233.717773,4248.974121,4253.974121,4278.077148,4207.820313,4246.153809,4082.05127,4216.282227,4169.615234,4218.717773,4523.077148,4480.641113,4356.922852,4427.436035,2907.0,1.0,15.0,,,,0.0,4.0,4.0,4.0,4.0,4.0,4.0,4.0,4.0,4.0,4.0,4.0,4.0,4.0,4.0,100.0,,,,,,,,,,,,,,,,,,,,,,,,,,,,,,,,,,,,,,,,,,,,,,,,,,,,,,,,,,,,,,,,,,,,,,,,,,,,,,,,,,,,,,,,,,,,,,,,,,,,,,,,,,,,,,,,,,,,,,,,,,,,,,,,,,,
1725710365.890612,1725710365.89173,163.0,0.0,4233.205078,4248.846191,4251.666504,4274.743652,4208.205078,4247.05127,4077.435791,4214.487305,4167.179688,4217.179688,4521.025879,4476.922852,4354.230957,4426.282227,3146.0,1.0,15.0,,,,0.0,4.0,4.0,4.0,4.0,4.0,4.0,4.0,4.0,4.0,4.0,4.0,4.0,4.0,4.0,100.0,,,,,,,,,,,,,,,,,,,,,,,,,,,,,,,,,,,,,,,,,,,,,,,,,,,,,,,,,,,,,,,,,,,,,,,,,,,,,,,,,,,,,,,,,,,,,,,,,,,,,,,,,,,,,,,,,,,,,,,,,,,,,,,,,,,
1725710365.894516,1725710365.895634,164.0,0.0,4236.025879,4248.846191,4250.512695,4272.179688,4208.333496,4248.589844,4074.358887,4213.077148,4161.153809,4213.077148,4522.05127,4476.153809,4353.205078,4425.769043,3420.0,1.0,15.0,,,,0.0,4.0,4.0,4.0,4.0,4.0,4.0,4.0,4.0,4.0,4.0,4.0,4.0,4.0,4.0,100.0,,,,,,,,,,,,,,,,,,,,,,,,,,,,,,,,,,,,,,,,,,,,,,,,,,,,,,,,,,,,,,,,,,,,,,,,,,,,,,,,,,,,,,,,,,,,,,,,,,,,,,,,,,,,,,,,,,,,,,,,,,,,,,,,,,,
1725710365.89842,1725710365.899638,165.0,0.0,4239.230957,4249.102539,4249.743652,4270.641113,4208.974121,4249.871582,4072.94873,4212.436035,4154.230957,4207.94873,4524.487305,4477.436035,4352.692383,4424.743652,3916.0,1.0,15.0,,,,0.0,4.0,4.0,4.0,4.0,4.0,4.0,4.0,4.0,4.0,4.0,4.0,4.0,4.0,4.0,100.0,,,,,,,,,,,,,,,,,,,,,,,,,,,,,,,,,,,,,,,,,,,,,,,,,,,,,,,,,,,,,,,,,,,,,,,,,,,,,,,,,,,,,,,,,,,,,,,,,,,,,,,,,,,,,,,,,,,,,,,,,,,,,,,,,,,
1725710365.902325,1725710365.903542,166.0,0.0,4240.128418,4248.974121,4248.461426,4269.615234,4210.0,4250.256348,4072.435791,4212.692383,4150.512695,4203.589844,4525.128418,4478.589844,4351.410156,4422.563965,2907.0,1.0,15.0,,,,0.0,4.0,4.0,4.0,4.0,4.0,4.0,4.0,4.0,4.0,4.0,4.0,4.0,4.0,4.0,100.0,,,,,,,,,,,,,,,,,,,,,,,,,,,,,,,,,,,,,,,,,,,,,,,,,,,,,,,,,,,,,,,,,,,,,,,,,,,,,,,,,,,,,,,,,,,,,,,,,,,,,,,,,,,,,,,,,,,,,,,,,,,,,,,,,,,
1725710365.906229,1725710365.907446,167.0,0.0,4238.333496,4248.589844,4246.666504,4268.205078,4210.897461,4249.615234,4071.281982,4213.461426,4152.436035,4201.922852,4521.666504,4478.333496,4349.487305,4419.615234,3146.0,1.0,15.0,,,,0.0,4.0,4.0,4.0,4.0,4.0,4.0,4.0,4.0,4.0,4.0,4.0,4.0,4.0,4.0,100.0,,,,,,,,,,,,,,,,,,,,,,,,,,,,,,,,,,,,,,,,,,,,,,,,,,,,,,,,,,,,,,,,,,,,,,,,,,,,,,,,,,,,,,,,,,,,,,,,,,,,,,,,,,,,,,,,,,,,,,,,,,,,,,,,,,,
1725710365.910133,1725710365.91135,168.0,0.0,4235.384766,4247.563965,4245.384766,4266.666504,4211.025879,4248.461426,4068.589844,4214.487305,4159.230957,4202.820313,4515.512695,4476.922852,4348.589844,4417.692383,3420.0,1.0,15.0,,,,0.0,4.0,4.0,4.0,4.0,4.0,4.0,4.0,4.0,4.0,4.0,4.0,4.0,4.0,4.0,100.0,,,,,,,,,,,,,,,,,,,,,,,,,,,,,,,,,,,,,,,,,,,,,,,,,,,,,,,,0.0,0.0,1.0,0.0,2048.0,0.000867,,,,,,,,,,,,,,,,,,,,,,,,,,,,,,,,,,,,,,,,,,,,,,,,,,,,,,,,,,,,,,,,,,,,,,
1725710365.914037,1725710365.915354,169.0,0.0,4232.94873,4246.153809,4245.769043,4265.384766,4209.743652,4247.820313,4065.128174,4215.641113,4166.538574,4204.871582,4510.128418,4476.153809,4349.743652,4417.94873,3916.0,1.0,15.0,,,,0.0,4.0,4.0,4.0,4.0,4.0,4.0,4.0,4.0,4.0,4.0,4.0,4.0,4.0,4.0,100.0,,,,,,,,,,,,,,,,,,,,,,,,,,,,,,,,,,,,,,,,,,,,,,,,,,,,,,,,,,,,,,,,,,,,,,,,,,,,,,,,,,,,,,,,,,,,,,,,,,,,,,,,,,,,,,,,,,,,,,,,,,,,,,,,,,,
1725710365.917941,1725710365.919258,170.0,0.0,4232.05127,4245.0,4247.820313,4265.512695,4207.179688,4247.820313,4062.307617,4216.922852,4170.384766,4205.897461,4508.974121,4477.563965,4352.692383,4420.641113,2907.0,1.0,15.0,,,,0.0,4.0,4.0,4.0,4.0,4.0,4.0,4.0,4.0,4.0,4.0,4.0,4.0,4.0,4.0,100.0,,,,,,,,,,,,,,,,,,,,,,,,,,,,,,,,,,,,,,,,,,,,,,,,,,,,,,,,,,,,,,,,,,,,,,,,,,,,,,,,,,,,,,,,,,,,,,,,,,,,,,,,,,,,,,,,,,,,,,,,,,,,,,,,,,,
1725710365.921845,1725710365.923162,171.0,0.0,4232.692383,4244.743652,4250.128418,4267.307617,4204.358887,4248.077148,4061.666748,4217.820313,4169.743652,4205.128418,4512.692383,4481.538574,4355.384766,4425.0,3146.0,1.0,15.0,,,,0.0,4.0,4.0,4.0,4.0,4.0,4.0,4.0,4.0,4.0,4.0,4.0,4.0,4.0,4.0,100.0,,,,,,,,,,,,,,,,,,,,,,,,,,,,,,,,,,,,,,,,,,,,,,,,,,,,,,,,,,,,,,,,,,,,,,,,,,,,,,,,,,,,,,,,,,,,,,,,,,,,,,,,,,,,,,,,,,,,,,,,,,,,,,,,,,,
1725710365.925749,1725710365.927066,172.0,0.0,4234.230957,4245.641113,4251.025879,4270.384766,4202.307617,4247.820313,4063.076904,4217.436035,4166.922852,4203.077148,4518.205078,4486.282227,4356.794922,4428.974121,3420.0,1.0,15.0,,,,0.0,4.0,4.0,4.0,4.0,4.0,4.0,4.0,4.0,4.0,4.0,4.0,4.0,4.0,4.0,100.0,,,,,,,,,,,,,,,,,,,,,,,,,,,,,,,,,,,,,,,,,,,,,,,,,,,,,,,,,,,,,,,,,,,,,,,,,,,,,,,,,,,,,,,,,,,,,,,,,,,,,,,,,,,,,,,,,,,,,,,,,,,,,,,,,,,
1725710365.929653,1725710365.930871,173.0,0.0,4235.641113,4247.563965,4250.128418,4273.461426,4202.307617,4246.922852,4065.512939,4216.153809,4164.743652,4201.666504,4521.922852,4489.615234,4356.666504,4430.897461,3916.0,1.0,15.0,,,,0.0,4.0,4.0,4.0,4.0,4.0,4.0,4.0,4.0,4.0,4.0,4.0,4.0,4.0,4.0,100.0,,,,,,,,,,,,,,,,,,,,,,,,,,,,,,,,,,,,,,,,,,,,,,,,,,,,,,,,,,,,,,,,,,,,,,,,,,,,,,,,,,,,,,,,,,,,,,,,,,,,,,,,,,,,,,,,,,,,,,,,,,,,,,,,,,,
1725710365.933557,1725710365.934775,174.0,0.0,4235.897461,4249.743652,4248.717773,4275.512695,4204.871582,4245.897461,4067.179443,4214.871582,4164.102539,4202.692383,4522.307617,4490.128418,4356.538574,4429.743652,2907.0,1.0,15.0,,,,0.0,4.0,4.0,4.0,4.0,4.0,4.0,4.0,4.0,4.0,4.0,4.0,4.0,4.0,4.0,100.0,,,,,,,,,,,,,,,,,,,,,,,,,,,,,,,,,,,,,,,,,,,,,,,,,,,,,,,,,,,,,,,,,,,,,,,,,,,,,,,,,,,,,,,,,,,,,,,,,,,,,,,,,,,,,,,,,,,,,,,,,,,,,,,,,,,
1725710365.937462,1725710365.938679,175.0,0.0,4234.871582,4251.538574,4248.717773,4276.410156,4209.102539,4245.641113,4067.564209,4215.384766,4165.0,4206.282227,4521.025879,4488.717773,4357.563965,4426.794922,3146.0,1.0,15.0,,,,0.0,4.0,4.0,4.0,4.0,4.0,4.0,4.0,4.0,4.0,4.0,4.0,4.0,4.0,4.0,100.0,,,,,,,,,,,,,,,,,,,,,,,,,,,,,,,,,,,,,,,,,,,,,,,,,,,,,,,,,,,,,,,,,,,,,,,,,,,,,,,,,,,,,,,,,,,,,,,,,,,,,,,,,,,,,,,,,,,,,,,,,,,,,,,,,,,
1725710365.941366,1725710365.942683,176.0,0.0,4233.717773,4252.179688,4251.282227,4277.05127,4213.205078,4246.666504,4067.435791,4218.717773,4166.794922,4211.025879,4521.538574,4487.692383,4360.384766,4424.487305,3420.0,1.0,15.0,,,,0.0,4.0,4.0,4.0,4.0,4.0,4.0,4.0,4.0,4.0,4.0,4.0,4.0,4.0,4.0,100.0,,,,,,,,,,,,,,,,,1.0,0.0,0.0,,,,,,,,,,,,,,,,,,,,,,,,,,,,,,,,,,,,,0.0,0.0,1.0,0.0,2048.0,0.0,0.700555,0.451047,0.4415,0.226678,0.090884,0.703081,0.646064,0.392619,0.23714,0.081836,0.438946,0.323102,0.168947,0.090274,0.038584,0.449645,0.280442,0.253999,0.269684,0.106216,0.320903,0.160344,0.092908,0.048946,0.026096,0.249539,0.090239,0.099489,0.046368,0.050802,3.591021,0.420946,0.764923,0.146365,0.086934,0.467541,1.002274,0.471353,0.177765,0.147262,1.019878,0.446104,0.488398,0.169477,0.091718,0.913881,0.572206,0.672655,0.170594,0.065401,1.189831,0.818135,0.872789,0.414779,0.196858,2.218332,0.964322,0.906201,0.35733,0.112088,0.928612,0.691506,0.792292,0.59637,0.106978,1.41171,0.586638,0.872299,0.288308,0.092939
1725710365.94527,1725710365.946587,177.0,0.0,4234.230957,4251.922852,4256.025879,4278.205078,4215.512695,4248.461426,4067.564209,4224.230957,4169.615234,4215.256348,4526.153809,4489.358887,4364.358887,4425.641113,3916.0,1.0,15.0,,,,0.0,4.0,4.0,4.0,4.0,4.0,4.0,4.0,4.0,4.0,4.0,4.0,4.0,4.0,4.0,100.0,,,,,,,,,,,,,,,,,,,,,,,,,,,,,,,,,,,,,,,,,,,,,,,,,,,,,,,,,,,,,,,,,,,,,,,,,,,,,,,,,,,,,,,,,,,,,,,,,,,,,,,,,,,,,,,,,,,,,,,,,,,,,,,,,,,
1725710365.949174,1725710365.950491,178.0,0.0,4237.436035,4251.666504,4261.282227,4280.384766,4215.897461,4250.256348,4067.94873,4229.871582,4173.717773,4218.333496,4534.487305,4493.974121,4368.205078,4430.769043,2907.0,1.0,15.0,,,,0.0,4.0,4.0,4.0,4.0,4.0,4.0,4.0,4.0,4.0,4.0,4.0,4.0,4.0,4.0,100.0,,,,,,,,,,,,,,,,,,,,,,,,,,,,,,,,,,,,,,,,,,,,,,,,,,,,,,,,,,,,,,,,,,,,,,,,,,,,,,,,,,,,,,,,,,,,,,,,,,,,,,,,,,,,,,,,,,,,,,,,,,,,,,,,,,,
1725710365.953078,1725710365.954395,179.0,0.0,4242.563965,4251.922852,4265.0,4282.563965,4215.128418,4251.153809,4067.435791,4233.717773,4179.102539,4220.384766,4542.692383,4499.871582,4370.769043,4437.307617,3146.0,1.0,15.0,,,,0.0,4.0,4.0,4.0,4.0,4.0,4.0,4.0,4.0,4.0,4.0,4.0,4.0,4.0,4.0,100.0,,,,,,,,,,,,,,,,,,,,,,,,,,,,,,,,,,,,,,,,,,,,,,,,,,,,,,,,,,,,,,,,,,,,,,,,,,,,,,,,,,,,,,,,,,,,,,,,,,,,,,,,,,,,,,,,,,,,,,,,,,,,,,,,,,,
1725710365.956982,1725710365.958399,180.0,0.0,4247.307617,4252.563965,4265.897461,4283.589844,4214.358887,4250.769043,4065.0,4234.230957,4184.230957,4221.410156,4546.538574,4505.0,4371.282227,4441.794922,3420.0,1.0,15.0,,,,0.0,4.0,4.0,4.0,4.0,4.0,4.0,4.0,4.0,4.0,4.0,4.0,4.0,4.0,4.0,100.0,,,,,,,,,,,,,,,,,,,,,,,,,,,,,,,,,,,,,,,,,,,,,,,,,,,,,,,,,,,,,,,,,,,,,,,,,,,,,,,,,,,,,,,,,,,,,,,,,,,,,,,,,,,,,,,,,,,,,,,,,,,,,,,,,,,
1725710365.960886,1725710365.962303,181.0,0.0,4249.358887,4252.563965,4264.615234,4282.692383,4214.102539,4249.230957,4060.769287,4231.794922,4187.05127,4221.153809,4543.461426,4507.820313,4370.0,4441.282227,3916.0,1.0,15.0,,,,0.0,4.0,4.0,4.0,4.0,4.0,4.0,4.0,4.0,4.0,4.0,4.0,4.0,4.0,4.0,100.0,,,,,,,,,,,,,,,,,,,,,,,,,,,,,,,,,,,,,,,,,,,,,,,,,,,,,,,,,,,,,,,,,,,,,,,,,,,,,,,,,,,,,,,,,,,,,,,,,,,,,,,,,,,,,,,,,,,,,,,,,,,,,,,,,,,
1725710365.96479,1725710365.966207,182.0,0.0,4247.94873,4251.410156,4262.94873,4280.256348,4214.743652,4247.179688,4055.641113,4228.461426,4186.410156,4220.0,4535.256348,4507.820313,4368.077148,4436.666504,2907.0,1.0,15.0,,,,0.0,4.0,4.0,4.0,4.0,4.0,4.0,4.0,4.0,4.0,4.0,4.0,4.0,4.0,4.0,100.0,,,,,,,,,,,,,,,,,,,,,,,,,,,,,,,,,,,,,,,,,,,,,,,,,,,,,,,,,,,,,,,,,,,,,,,,,,,,,,,,,,,,,,,,,,,,,,,,,,,,,,,,,,,,,,,,,,,,,,,,,,,,,,,,,,,
1725710365.968694,1725710365.970111,183.0,0.0,4244.871582,4249.358887,4262.563965,4277.436035,4215.0,4245.769043,4051.410156,4226.410156,4183.717773,4218.717773,4526.666504,4506.025879,4366.794922,4431.025879,3146.0,1.0,15.0,,,,0.0,4.0,4.0,4.0,4.0,4.0,4.0,4.0,4.0,4.0,4.0,4.0,4.0,4.0,4.0,100.0,,,,,,,,,,,,,,,,,,,,,,,,,,,,,,,,,,,,,,,,,,,,,,,,,,,,,,,,,,,,,,,,,,,,,,,,,,,,,,,,,,,,,,,,,,,,,,,,,,,,,,,,,,,,,,,,,,,,,,,,,,,,,,,,,,,
1725710365.972598,1725710365.974016,184.0,0.0,4242.436035,4248.077148,4263.717773,4275.897461,4214.487305,4245.512695,4050.0,4226.410156,4181.666504,4218.717773,4522.307617,4504.102539,4366.922852,4428.205078,3420.0,1.0,15.0,,,,0.0,4.0,4.0,4.0,4.0,4.0,4.0,4.0,4.0,4.0,4.0,4.0,4.0,4.0,4.0,100.0,,,,,,,,,,,,,,,,,,,,,,,,,,,,,,,,,,,,,,,,,,,,,,,,,,,,,,,,0.0,0.0,1.0,0.0,2048.0,0.0,,,,,,,,,,,,,,,,,,,,,,,,,,,,,,,,,,,,,,,,,,,,,,,,,,,,,,,,,,,,,,,,,,,,,,
1725710365.976503,1725710365.97782,185.0,0.0,4242.820313,4248.461426,4265.769043,4276.538574,4213.589844,4246.794922,4051.923096,4228.333496,4182.05127,4221.025879,4524.102539,4503.589844,4368.589844,4429.743652,3916.0,1.0,15.0,,,,0.0,4.0,4.0,4.0,4.0,4.0,4.0,4.0,4.0,4.0,4.0,4.0,4.0,4.0,4.0,100.0,,,,,,,,,,,,,,,,,,,,,,,,,,,,,,,,,,,,,,,,,,,,,,,,,,,,,,,,,,,,,,,,,,,,,,,,,,,,,,,,,,,,,,,,,,,,,,,,,,,,,,,,,,,,,,,,,,,,,,,,,,,,,,,,,,,
1725710365.980407,1725710365.981724,186.0,0.0,4245.641113,4250.641113,4267.179688,4278.589844,4213.461426,4248.589844,4055.897461,4230.512695,4184.487305,4225.0,4531.025879,4505.128418,4371.410156,4435.641113,2907.0,1.0,15.0,,,,0.0,4.0,4.0,4.0,4.0,4.0,4.0,4.0,4.0,4.0,4.0,4.0,4.0,4.0,4.0,100.0,,,,,,,,,,,,,,,,,,,,,,,,,,,,,,,,,,,,,,,,,,,,,,,,,,,,,,,,,,,,,,,,,,,,,,,,,,,,,,,,,,,,,,,,,,,,,,,,,,,,,,,,,,,,,,,,,,,,,,,,,,,,,,,,,,,
1725710365.984311,1725710365.985728,187.0,0.0,4249.230957,4253.205078,4267.307617,4280.769043,4214.358887,4249.871582,4059.487061,4232.179688,4187.307617,4229.358887,4539.743652,4508.333496,4374.615234,4443.333496,3146.0,1.0,15.0,,,,0.0,4.0,4.0,4.0,4.0,4.0,4.0,4.0,4.0,4.0,4.0,4.0,4.0,4.0,4.0,100.0,,,,,,,,,,,,,,,,,,,,,,,,,,,,,,,,,,,,,,,,,,,,,,,,,,,,,,,,,,,,,,,,,,,,,,,,,,,,,,,,,,,,,,,,,,,,,,,,,,,,,,,,,,,,,,,,,,,,,,,,,,,,,,,,,,,
1725710365.988215,1725710365.989632,188.0,0.0,4251.538574,4254.230957,4266.666504,4282.05127,4215.769043,4250.0,4061.410156,4233.205078,4188.333496,4232.05127,4545.641113,4511.538574,4376.410156,4449.102539,3420.0,1.0,15.0,,,,0.0,4.0,4.0,4.0,4.0,4.0,4.0,4.0,4.0,4.0,4.0,4.0,4.0,4.0,4.0,100.0,,,,,,,,,,,,,,,,,,,,,,,,,,,,,,,,,,,,,,,,,,,,,,,,,,,,,,,,,,,,,,,,,,,,,,,,,,,,,,,,,,,,,,,,,,,,,,,,,,,,,,,,,,,,,,,,,,,,,,,,,,,,,,,,,,,
1725710365.992119,1725710365.993536,189.0,0.0,4251.666504,4252.94873,4266.282227,4281.794922,4216.922852,4249.102539,4061.153809,4233.717773,4187.307617,4231.666504,4546.410156,4512.94873,4375.512695,4449.615234,3916.0,1.0,15.0,,,,0.0,4.0,4.0,4.0,4.0,4.0,4.0,4.0,4.0,4.0,4.0,4.0,4.0,4.0,4.0,100.0,,,,,,,,,,,,,,,,,,,,,,,,,,,,,,,,,,,,,,,,,,,,,,,,,,,,,,,,,,,,,,,,,,,,,,,,,,,,,,,,,,,,,,,,,,,,,,,,,,,,,,,,,,,,,,,,,,,,,,,,,,,,,,,,,,,
1725710365.996023,1725710365.99744,190.0,0.0,4250.0,4250.128418,4266.538574,4280.512695,4216.794922,4247.94873,4059.743652,4234.230957,4185.128418,4228.077148,4542.05127,4511.794922,4371.410156,4444.871582,2907.0,1.0,15.0,,,,0.0,4.0,4.0,4.0,4.0,4.0,4.0,4.0,4.0,4.0,4.0,4.0,4.0,4.0,4.0,100.0,,,,,,,,,,,,,,,,,,,,,,,,,,,,,,,,,,,,,,,,,,,,,,,,,,,,,,,,,,,,,,,,,,,,,,,,,,,,,,,,,,,,,,,,,,,,,,,,,,,,,,,,,,,,,,,,,,,,,,,,,,,,,,,,,,,
1725710365.999927,1725710366.001344,191.0,0.0,4247.820313,4247.563965,4267.05127,4279.230957,4215.897461,4247.563965,4058.205078,4234.358887,4183.846191,4223.205078,4536.025879,4508.846191,4366.410156,4438.205078,3146.0,1.0,15.0,,,,0.0,4.0,4.0,4.0,4.0,4.0,4.0,4.0,4.0,4.0,4.0,4.0,4.0,4.0,4.0,100.0,,,,,,,,,,,,,,,,,,,,,,,,,,,,,,,,,,,,,,,,,,,,,,,,,,,,,,,,,,,,,,,,,,,,,,,,,,,,,,,,,,,,,,,,,,,,,,,,,,,,,,,,,,,,,,,,,,,,,,,,,,,,,,,,,,,
1725710366.003831,1725710366.005348,192.0,0.0,4246.410156,4247.563965,4267.307617,4278.717773,4215.128418,4248.461426,4057.435791,4233.974121,4184.230957,4219.102539,4531.922852,4505.897461,4363.333496,4433.717773,3420.0,1.0,15.0,,,,0.0,4.0,4.0,4.0,4.0,4.0,4.0,4.0,4.0,4.0,4.0,4.0,4.0,4.0,4.0,100.0,,,,,,,,,,,,,,,,,,,,,,,,,,,,,,,,,,,,,,,,,,,,,,,,,,,,,,,,0.0,0.0,1.0,0.0,2048.0,0.0,,,,,,,,,,,,,,,,,,,,,,,,,,,,,,,,,,,,,,,,,,,,,,,,,,,,,,,,,,,,,,,,,,,,,,
1725710366.007735,1725710366.009252,193.0,0.0,4246.025879,4250.0,4267.307617,4279.230957,4215.256348,4249.871582,4057.564209,4233.461426,4186.153809,4217.307617,4531.794922,4504.487305,4364.102539,4433.589844,3916.0,1.0,15.0,,,,0.0,4.0,4.0,4.0,4.0,4.0,4.0,4.0,4.0,4.0,4.0,4.0,4.0,4.0,4.0,100.0,,,,,,,,,,,,,,,,,,,,,,,,,,,,,,,,,,,,,,,,,,,,,,,,,,,,,,,,,,,,,,,,,,,,,,,,,,,,,,,,,,,,,,,,,,,,,,,,,,,,,,,,,,,,,,,,,,,,,,,,,,,,,,,,,,,
1725710366.011639,1725710366.013156,194.0,0.0,4246.666504,4252.820313,4267.692383,4280.0,4216.025879,4251.025879,4058.205078,4233.205078,4188.077148,4217.563965,4534.871582,4505.384766,4367.179688,4436.794922,2907.0,1.0,15.0,,,,0.0,4.0,4.0,4.0,4.0,4.0,4.0,4.0,4.0,4.0,4.0,4.0,4.0,4.0,4.0,100.0,,,,,,,,,,,,,,,,,,,,,,,,,,,,,,,,,,,,,,,,,,,,,,,,,,,,,,,,,,,,,,,,,,,,,,,,,,,,,,,,,,,,,,,,,,,,,,,,,,,,,,,,,,,,,,,,,,,,,,,,,,,,,,,,,,,
1725710366.015544,1725710366.017061,195.0,0.0,4247.436035,4253.717773,4268.846191,4280.256348,4217.05127,4251.282227,4058.974365,4232.820313,4189.102539,4218.717773,4538.461426,4507.692383,4369.871582,4440.0,3146.0,1.0,15.0,,,,0.0,4.0,4.0,4.0,4.0,4.0,4.0,4.0,4.0,4.0,4.0,4.0,4.0,4.0,4.0,100.0,,,,,,,,,,,,,,,,,,,,,,,,,,,,,,,,,,,,,,,,,,,,,,,,,,,,,,,,,,,,,,,,,,,,,,,,,,,,,,,,,,,,,,,,,,,,,,,,,,,,,,,,,,,,,,,,,,,,,,,,,,,,,,,,,,,
1725710366.019448,1725710366.020865,196.0,0.0,4248.077148,4251.794922,4270.512695,4279.743652,4217.436035,4250.641113,4060.128174,4232.05127,4188.589844,4219.743652,4539.743652,4509.615234,4370.128418,4440.384766,3420.0,1.0,15.0,,,,0.0,4.0,4.0,4.0,4.0,4.0,4.0,4.0,4.0,4.0,4.0,4.0,4.0,4.0,4.0,100.0,,,,,,,,,,,,,,,,,,,,,,,,,,,,,,,,,,,,,,,,,,,,,,,,,,,,,,,,,,,,,,,,,,,,,,,,,,,,,,,,,,,,,,,,,,,,,,,,,,,,,,,,,,,,,,,,,,,,,,,,,,,,,,,,,,,
1725710366.023352,1725710366.024769,197.0,0.0,4248.333496,4248.846191,4272.94873,4278.846191,4217.307617,4249.358887,4062.05127,4230.769043,4186.922852,4220.128418,4537.94873,4509.230957,4368.461426,4436.666504,3916.0,1.0,15.0,,,,0.0,4.0,4.0,4.0,4.0,4.0,4.0,4.0,4.0,4.0,4.0,4.0,4.0,4.0,4.0,100.0,,,,,,,,,,,,,,,,,,,,,,,,,,,,,,,,,,,,,,,,,,,,,,,,,,,,,,,,,,,,,,,,,,,,,,,,,,,,,,,,,,,,,,,,,,,,,,,,,,,,,,,,,,,,,,,,,,,,,,,,,,,,,,,,,,,
1725710366.027256,1725710366.028673,198.0,0.0,4248.077148,4248.077148,4275.512695,4278.333496,4216.666504,4248.589844,4064.615479,4229.487305,4185.128418,4219.871582,4533.461426,4505.641113,4366.922852,4430.897461,2907.0,1.0,15.0,,,,0.0,4.0,4.0,4.0,4.0,4.0,4.0,4.0,4.0,4.0,4.0,4.0,4.0,4.0,4.0,100.0,,,,,,,,,,,,,,,,,,,,,,,,,,,,,,,,,,,,,,,,,,,,,,,,,,,,,,,,,,,,,,,,,,,,,,,,,,,,,,,,,,,,,,,,,,,,,,,,,,,,,,,,,,,,,,,,,,,,,,,,,,,,,,,,,,,
1725710366.03116,1725710366.032577,199.0,0.0,4247.820313,4250.897461,4277.307617,4278.717773,4216.153809,4248.717773,4067.820557,4228.717773,4184.102539,4219.358887,4527.307617,4500.641113,4367.563965,4426.922852,3146.0,1.0,15.0,,,,0.0,4.0,4.0,4.0,4.0,4.0,4.0,4.0,4.0,4.0,4.0,4.0,4.0,4.0,4.0,100.0,,,,,,,,,,,,,,,,,,,,,,,,,,,,,,,,,,,,,,,,,,,,,,,,,,,,,,,,,,,,,,,,,,,,,,,,,,,,,,,,,,,,,,,,,,,,,,,,,,,,,,,,,,,,,,,,,,,,,,,,,,,,,,,,,,,
1725710366.035064,1725710366.036381,200.0,0.0,4248.077148,4256.025879,4277.05127,4279.615234,4216.153809,4249.615234,4071.153809,4228.333496,4183.974121,4218.717773,4521.410156,4497.05127,4370.769043,4427.307617,3420.0,1.0,15.0,,,,0.0,4.0,4.0,4.0,4.0,4.0,4.0,4.0,4.0,4.0,4.0,4.0,4.0,4.0,4.0,100.0,,,,,,,,,,,,,,,,,,,,,,,,,,,,,,,,,,,,,,,,,,,,,,,,,,,,,,,,0.0,0.0,1.0,0.0,2048.0,0.0,,,,,,,,,,,,,,,,,,,,,,,,,,,,,,,,,,,,,,,,,,,,,,,,,,,,,,,,,,,,,,,,,,,,,,
1725710366.038968,1725710366.040285,201.0,0.0,4249.102539,4260.384766,4274.615234,4280.512695,4216.410156,4250.641113,4074.487061,4227.820313,4184.230957,4218.205078,4518.461426,4496.922852,4374.358887,4432.05127,3916.0,1.0,15.0,,,,0.0,4.0,4.0,4.0,4.0,4.0,4.0,4.0,4.0,4.0,4.0,4.0,4.0,4.0,4.0,100.0,,,,,,,,,,,,,,,,,,,,,,,,,,,,,,,,,,,,,,,,,,,,,,,,,,,,,,,,,,,,,,,,,,,,,,,,,,,,,,,,,,,,,,,,,,,,,,,,,,,,,,,,,,,,,,,,,,,,,,,,,,,,,,,,,,,
1725710366.042872,1725710366.04419,202.0,0.0,4250.256348,4261.666504,4271.922852,4280.897461,4216.922852,4251.282227,4077.692383,4226.794922,4184.615234,4217.692383,4521.025879,4499.743652,4376.025879,4437.820313,2907.0,1.0,15.0,,,,0.0,4.0,4.0,4.0,4.0,4.0,4.0,4.0,4.0,4.0,4.0,4.0,4.0,4.0,4.0,100.0,,,,,,,,,,,,,,,,,,,,,,,,,,,,,,,,,,,,,,,,,,,,,,,,,,,,,,,,,,,,,,,,,,,,,,,,,,,,,,,,,,,,,,,,,,,,,,,,,,,,,,,,,,,,,,,,,,,,,,,,,,,,,,,,,,,
1725710366.046776,1725710366.048194,203.0,0.0,4250.897461,4260.128418,4269.871582,4280.512695,4217.307617,4251.025879,4080.0,4225.769043,4184.871582,4217.307617,4529.358887,4503.589844,4374.743652,4441.282227,3146.0,1.0,15.0,,,,0.0,4.0,4.0,4.0,4.0,4.0,4.0,4.0,4.0,4.0,4.0,4.0,4.0,4.0,4.0,100.0,,,,,,,,,,,,,,,,,,,,,,,,,,,,,,,,,,,,,,,,,,,,,,,,,,,,,,,,,,,,,,,,,,,,,,,,,,,,,,,,,,,,,,,,,,,,,,,,,,,,,,,,,,,,,,,,,,,,,,,,,,,,,,,,,,,
1725710366.050681,1725710366.052098,204.0,0.0,4250.641113,4257.820313,4268.974121,4279.230957,4217.436035,4250.0,4081.666748,4225.0,4184.871582,4217.307617,4540.128418,4506.282227,4371.922852,4441.025879,3420.0,1.0,15.0,,,,0.0,4.0,4.0,4.0,4.0,4.0,4.0,4.0,4.0,4.0,4.0,4.0,4.0,4.0,4.0,100.0,,,,,,,,,,,,,,,,,,,,,,,,,,,,,,,,,,,,,,,,,,,,,,,,,,,,,,,,,,,,,,,,,,,,,,,,,,,,,,,,,,,,,,,,,,,,,,,,,,,,,,,,,,,,,,,,,,,,,,,,,,,,,,,,,,,
1725710366.054585,1725710366.056002,205.0,0.0,4249.487305,4256.282227,4268.589844,4277.94873,4217.307617,4248.846191,4083.461426,4224.871582,4184.487305,4217.563965,4548.077148,4507.436035,4370.128418,4438.846191,3916.0,1.0,15.0,,,,0.0,4.0,4.0,4.0,4.0,4.0,4.0,4.0,4.0,4.0,4.0,4.0,4.0,4.0,4.0,100.0,,,,,,,,,,,,,,,,,,,,,,,,,,,,,,,,,,,,,,,,,,,,,,,,,,,,,,,,,,,,,,,,,,,,,,,,,,,,,,,,,,,,,,,,,,,,,,,,,,,,,,,,,,,,,,,,,,,,,,,,,,,,,,,,,,,
1725710366.058489,1725710366.059906,206.0,0.0,4248.461426,4255.384766,4268.333496,4277.05127,4216.922852,4248.077148,4086.538574,4225.897461,4183.846191,4217.94873,4550.384766,4507.179688,4370.897461,4437.820313,2907.0,1.0,15.0,,,,0.0,4.0,4.0,4.0,4.0,4.0,4.0,4.0,4.0,4.0,4.0,4.0,4.0,4.0,4.0,100.0,,,,,,,,,,,,,,,,,,,,,,,,,,,,,,,,,,,,,,,,,,,,,,,,,,,,,,,,,,,,,,,,,,,,,,,,,,,,,,,,,,,,,,,,,,,,,,,,,,,,,,,,,,,,,,,,,,,,,,,,,,,,,,,,,,,
1725710366.062393,1725710366.06391,207.0,0.0,4247.820313,4254.230957,4268.333496,4276.922852,4216.666504,4247.94873,4091.666748,4227.94873,4183.717773,4218.333496,4547.307617,4506.282227,4373.461426,4439.358887,3146.0,1.0,15.0,,,,0.0,4.0,4.0,4.0,4.0,4.0,4.0,4.0,4.0,4.0,4.0,4.0,4.0,4.0,4.0,100.0,,,,,,,,,,,,,,,,,,,,,,,,,,,,,,,,,,,,,,,,,,,,,,,,,,,,,,,,,,,,,,,,,,,,,,,,,,,,,,,,,,,,,,,,,,,,,,,,,,,,,,,,,,,,,,,,,,,,,,,,,,,,,,,,,,,
1725710366.066297,1725710366.067814,208.0,0.0,4248.077148,4252.307617,4268.589844,4277.05127,4216.538574,4248.461426,4098.333496,4230.256348,4184.358887,4218.846191,4542.05127,4505.641113,4375.512695,4441.922852,3420.0,1.0,15.0,,,,0.0,4.0,4.0,4.0,4.0,4.0,4.0,4.0,4.0,4.0,4.0,4.0,4.0,4.0,4.0,100.0,,,,,,,,,,,,,,,,,1.0,0.0,0.0,,,,,,,,,,,,,,,,,,,,,,,,,,,,,,,,,,,,,0.0,0.0,1.0,0.0,2048.0,0.0,0.532093,0.392986,0.43999,0.205135,0.092202,0.612696,0.538084,0.3055,0.224802,0.079158,0.404843,0.341192,0.172822,0.077105,0.039436,0.356263,0.208873,0.24929,0.247275,0.103811,0.222329,0.116533,0.081259,0.045231,0.023353,0.211624,0.071067,0.090368,0.053673,0.044568,3.11882,0.424183,0.864438,0.149164,0.084305,0.580513,0.699079,0.423452,0.141719,0.136466,1.21709,0.35497,0.438104,0.162721,0.078357,0.979889,0.498961,0.670732,0.182531,0.067753,1.474874,0.884571,0.699746,0.467123,0.19916,2.567402,0.738978,0.745747,0.287011,0.119586,0.856527,0.633695,0.711118,0.540379,0.108251,1.339358,0.443767,0.797432,0.263752,0.111616
1725710366.070201,1725710366.071718,209.0,0.0,4248.717773,4250.384766,4269.230957,4277.179688,4216.538574,4249.230957,4104.871582,4231.794922,4185.384766,4219.487305,4537.692383,4506.153809,4375.512695,4443.333496,3916.0,1.0,15.0,,,,0.0,4.0,4.0,4.0,4.0,4.0,4.0,4.0,4.0,4.0,4.0,4.0,4.0,4.0,4.0,100.0,,,,,,,,,,,,,,,,,,,,,,,,,,,,,,,,,,,,,,,,,,,,,,,,,,,,,,,,,,,,,,,,,,,,,,,,,,,,,,,,,,,,,,,,,,,,,,,,,,,,,,,,,,,,,,,,,,,,,,,,,,,,,,,,,,,
1725710366.074105,1725710366.075622,210.0,0.0,4249.743652,4250.769043,4269.615234,4277.05127,4216.666504,4249.743652,4109.743652,4231.794922,4186.153809,4220.0,4535.256348,4507.436035,4373.717773,4442.94873,2907.0,1.0,15.0,,,,0.0,4.0,4.0,4.0,4.0,4.0,4.0,4.0,4.0,4.0,4.0,4.0,4.0,4.0,4.0,100.0,,,,,,,,,,,,,,,,,,,,,,,,,,,,,,,,,,,,,,,,,,,,,,,,,,,,,,,,,,,,,,,,,,,,,,,,,,,,,,,,,,,,,,,,,,,,,,,,,,,,,,,,,,,,,,,,,,,,,,,,,,,,,,,,,,,
1725710366.078009,1725710366.079526,211.0,0.0,4250.769043,4254.743652,4269.358887,4276.922852,4216.666504,4249.743652,4111.922852,4230.128418,4186.025879,4219.743652,4534.102539,4508.205078,4372.05127,4442.563965,3146.0,1.0,15.0,,,,0.0,4.0,4.0,4.0,4.0,4.0,4.0,4.0,4.0,4.0,4.0,4.0,4.0,4.0,4.0,100.0,,,,,,,,,,,,,,,,,,,,,,,,,,,,,,,,,,,,,,,,,,,,,,,,,,,,,,,,,,,,,,,,,,,,,,,,,,,,,,,,,,,,,,,,,,,,,,,,,,,,,,,,,,,,,,,,,,,,,,,,,,,,,,,,,,,
1725710366.081913,1725710366.08333,212.0,0.0,4251.410156,4260.769043,4268.205078,4277.179688,4216.794922,4249.615234,4111.666504,4226.666504,4185.256348,4218.589844,4532.436035,4506.922852,4372.05127,4442.94873,3420.0,1.0,15.0,,,,0.0,4.0,4.0,4.0,4.0,4.0,4.0,4.0,4.0,4.0,4.0,4.0,4.0,4.0,4.0,100.0,,,,,,,,,,,,,,,,,,,,,,,,,,,,,,,,,,,,,,,,,,,,,,,,,,,,,,,,,,,,,,,,,,,,,,,,,,,,,,,,,,,,,,,,,,,,,,,,,,,,,,,,,,,,,,,,,,,,,,,,,,,,,,,,,,,
1725710366.085817,1725710366.087235,213.0,0.0,4251.282227,4265.128418,4266.410156,4277.692383,4216.922852,4249.615234,4109.743652,4221.922852,4184.615234,4216.666504,4529.487305,4503.333496,4373.205078,4443.846191,3916.0,1.0,15.0,,,,0.0,4.0,4.0,4.0,4.0,4.0,4.0,4.0,4.0,4.0,4.0,4.0,4.0,4.0,4.0,100.0,,,,,,,,,,,,,,,,,,,,,,,,,,,,,,,,,,,,,,,,,,,,,,,,,,,,,,,,,,,,,,,,,,,,,,,,,,,,,,,,,,,,,,,,,,,,,,,,,,,,,,,,,,,,,,,,,,,,,,,,,,,,,,,,,,,
1725710366.089721,1725710366.091239,214.0,0.0,4250.641113,4265.384766,4264.487305,4278.333496,4216.922852,4249.358887,4108.077148,4217.820313,4184.743652,4214.743652,4525.0,4498.461426,4373.846191,4443.717773,2907.0,1.0,15.0,,,,0.0,4.0,4.0,4.0,4.0,4.0,4.0,4.0,4.0,4.0,4.0,4.0,4.0,4.0,4.0,100.0,,,,,,,,,,,,,,,,,,,,,,,,,,,,,,,,,,,,,,,,,,,,,,,,,,,,,,,,,,,,,,,,,,,,,,,,,,,,,,,,,,,,,,,,,,,,,,,,,,,,,,,,,,,,,,,,,,,,,,,,,,,,,,,,,,,
1725710366.093625,1725710366.095143,215.0,0.0,4249.743652,4261.922852,4263.077148,4278.974121,4216.666504,4248.846191,4108.205078,4216.025879,4185.512695,4213.461426,4520.384766,4493.717773,4373.077148,4441.410156,3146.0,1.0,15.0,,,,0.0,4.0,4.0,4.0,4.0,4.0,4.0,4.0,4.0,4.0,4.0,4.0,4.0,4.0,4.0,100.0,,,,,,,,,,,,,,,,,,,,,,,,,,,,,,,,,,,,,,,,,,,,,,,,,,,,,,,,,,,,,,,,,,,,,,,,,,,,,,,,,,,,,,,,,,,,,,,,,,,,,,,,,,,,,,,,,,,,,,,,,,,,,,,,,,,
1725710366.09753,1725710366.099047,216.0,0.0,4248.589844,4257.820313,4262.436035,4279.871582,4216.025879,4248.077148,4110.128418,4217.692383,4185.897461,4213.205078,4517.820313,4490.512695,4371.282227,4437.563965,3420.0,1.0,15.0,,,,0.0,4.0,4.0,4.0,4.0,4.0,4.0,4.0,4.0,4.0,4.0,4.0,4.0,4.0,4.0,100.0,,,,,,,,,,,,,,,,,,,,,,,,,,,,,,,,,,,,,,,,,,,,,,,,,,,,,,,,0.0,0.0,1.0,0.0,2048.0,0.0,,,,,,,,,,,,,,,,,,,,,,,,,,,,,,,,,,,,,,,,,,,,,,,,,,,,,,,,,,,,,,,,,,,,,,
1725710366.101434,1725710366.102951,217.0,0.0,4247.820313,4256.666504,4262.179688,4280.897461,4215.641113,4247.179688,4113.077148,4221.794922,4185.0,4214.102539,4519.230957,4489.743652,4369.102539,4433.717773,3916.0,1.0,15.0,,,,0.0,4.0,4.0,4.0,4.0,4.0,4.0,4.0,4.0,4.0,4.0,4.0,4.0,4.0,4.0,100.0,,,,,,,,,,,,,,,,,,,,,,,,,,,,,,,,,,,,,,,,,,,,,,,,,,,,,,,,,,,,,,,,,,,,,,,,,,,,,,,,,,,,,,,,,,,,,,,,,,,,,,,,,,,,,,,,,,,,,,,,,,,,,,,,,,,
1725710366.105338,1725710366.106855,218.0,0.0,4247.179688,4258.974121,4261.666504,4281.922852,4215.769043,4246.922852,4116.025879,4226.025879,4183.717773,4215.641113,4524.871582,4491.153809,4366.922852,4431.410156,2907.0,1.0,15.0,,,,0.0,4.0,4.0,4.0,4.0,4.0,4.0,4.0,4.0,4.0,4.0,4.0,4.0,4.0,4.0,100.0,,,,,,,,,,,,,,,,,,,,,,,,,,,,,,,,,,,,,,,,,,,,,,,,,,,,,,,,,,,,,,,,,,,,,,,,,,,,,,,,,,,,,,,,,,,,,,,,,,,,,,,,,,,,,,,,,,,,,,,,,,,,,,,,,,,
1725710366.109242,1725710366.110659,219.0,0.0,4247.179688,4262.820313,4260.512695,4282.436035,4216.282227,4247.563965,4118.205078,4227.820313,4183.717773,4217.05127,4532.05127,4492.94873,4365.0,4430.769043,3146.0,1.0,15.0,,,,0.0,4.0,4.0,4.0,4.0,4.0,4.0,4.0,4.0,4.0,4.0,4.0,4.0,4.0,4.0,100.0,,,,,,,,,,,,,,,,,,,,,,,,,,,,,,,,,,,,,,,,,,,,,,,,,,,,,,,,,,,,,,,,,,,,,,,,,,,,,,,,,,,,,,,,,,,,,,,,,,,,,,,,,,,,,,,,,,,,,,,,,,,,,,,,,,,
1725710366.113146,1725710366.114563,220.0,0.0,4247.820313,4265.0,4259.615234,4282.436035,4217.179688,4248.974121,4119.871582,4226.153809,4186.153809,4217.94873,4536.794922,4493.974121,4363.333496,4431.282227,3420.0,1.0,15.0,,,,0.0,4.0,4.0,4.0,4.0,4.0,4.0,4.0,4.0,4.0,4.0,4.0,4.0,4.0,4.0,100.0,,,,,,,,,,,,,,,,,,,,,,,,,,,,,,,,,,,,,,,,,,,,,,,,,,,,,,,,,,,,,,,,,,,,,,,,,,,,,,,,,,,,,,,,,,,,,,,,,,,,,,,,,,,,,,,,,,,,,,,,,,,,,,,,,,,
1725710366.11705,1725710366.118467,221.0,0.0,4249.102539,4264.871582,4260.512695,4281.922852,4217.820313,4250.384766,4121.025879,4222.05127,4190.897461,4218.461426,4537.05127,4493.717773,4363.461426,4432.563965,3916.0,1.0,15.0,,,,0.0,4.0,4.0,4.0,4.0,4.0,4.0,4.0,4.0,4.0,4.0,4.0,4.0,4.0,4.0,100.0,,,,,,,,,,,,,,,,,,,,,,,,,,,,,,,,,,,,,,,,,,,,,,,,,,,,,,,,,,,,,,,,,,,,,,,,,,,,,,,,,,,,,,,,,,,,,,,,,,,,,,,,,,,,,,,,,,,,,,,,,,,,,,,,,,,
1725710366.120954,1725710366.122371,222.0,0.0,4250.384766,4263.205078,4262.563965,4281.153809,4217.692383,4251.025879,4121.025879,4218.461426,4196.153809,4218.717773,4533.333496,4492.692383,4366.538574,4434.615234,2907.0,1.0,15.0,,,,0.0,4.0,4.0,4.0,4.0,4.0,4.0,4.0,4.0,4.0,4.0,4.0,4.0,4.0,4.0,100.0,,,,,,,,,,,,,,,,,,,,,,,,,,,,,,,,,,,,,,,,,,,,,,,,,,,,,,,,,,,,,,,,,,,,,,,,,,,,,,,,,,,,,,,,,,,,,,,,,,,,,,,,,,,,,,,,,,,,,,,,,,,,,,,,,,,
1725710366.124858,1725710366.126176,223.0,0.0,4251.025879,4261.538574,4263.333496,4280.512695,4216.922852,4250.256348,4119.615234,4216.794922,4199.743652,4219.102539,4528.333496,4491.922852,4372.436035,4437.179688,3146.0,1.0,15.0,,,,0.0,4.0,4.0,4.0,4.0,4.0,4.0,4.0,4.0,4.0,4.0,4.0,4.0,4.0,4.0,100.0,,,,,,,,,,,,,,,,,,,,,,,,,,,,,,,,,,,,,,,,,,,,,,,,,,,,,,,,,,,,,,,,,,,,,,,,,,,,,,,,,,,,,,,,,,,,,,,,,,,,,,,,,,,,,,,,,,,,,,,,,,,,,,,,,,,
1725710366.128762,1725710366.13008,224.0,0.0,4250.641113,4260.128418,4260.641113,4280.0,4216.153809,4248.589844,4117.563965,4216.666504,4199.871582,4219.615234,4525.512695,4492.05127,4378.974121,4439.358887,3420.0,1.0,15.0,,,,0.0,4.0,4.0,4.0,4.0,4.0,4.0,4.0,4.0,4.0,4.0,4.0,4.0,4.0,4.0,100.0,,,,,,,,,,,,,,,,,,,,,,,,,,,,,,,,,,,,,,,,,,,,,,,,,,,,,,,,0.0,0.0,1.0,0.0,2048.0,0.0,,,,,,,,,,,,,,,,,,,,,,,,,,,,,,,,,,,,,,,,,,,,,,,,,,,,,,,,,,,,,,,,,,,,,,
1725710366.132666,1725710366.133984,225.0,0.0,4249.487305,4258.846191,4255.256348,4279.230957,4215.641113,4247.05127,4116.794922,4217.179688,4197.692383,4220.0,4526.666504,4493.077148,4383.077148,4440.0,3916.0,1.0,15.0,,,,0.0,4.0,4.0,4.0,4.0,4.0,4.0,4.0,4.0,4.0,4.0,4.0,4.0,4.0,4.0,100.0,,,,,,,,,,,,,,,,,,,,,,,,,,,,,,,,,,,,,,,,,,,,,,,,,,,,,,,,,,,,,,,,,,,,,,,,,,,,,,,,,,,,,,,,,,,,,,,,,,,,,,,,,,,,,,,,,,,,,,,,,,,,,,,,,,,
1725710366.136571,1725710366.137988,226.0,0.0,4248.205078,4257.307617,4250.256348,4278.333496,4215.641113,4246.538574,4118.205078,4218.077148,4196.025879,4219.871582,4531.025879,4495.128418,4383.077148,4438.974121,2907.0,1.0,15.0,,,,0.0,4.0,4.0,4.0,4.0,4.0,4.0,4.0,4.0,4.0,4.0,4.0,4.0,4.0,4.0,100.0,,,,,,,,,,,,,,,,,,,,,,,,,,,,,,,,,,,,,,,,,,,,,,,,,,,,,,,,,,,,,,,,,,,,,,,,,,,,,,,,,,,,,,,,,,,,,,,,,,,,,,,,,,,,,,,,,,,,,,,,,,,,,,,,,,,
1725710366.140475,1725710366.141892,227.0,0.0,4247.436035,4255.897461,4248.333496,4277.436035,4215.769043,4247.05127,4120.769043,4219.358887,4196.794922,4219.487305,4535.897461,4498.333496,4379.743652,4437.05127,3146.0,1.0,15.0,,,,0.0,4.0,4.0,4.0,4.0,4.0,4.0,4.0,4.0,4.0,4.0,4.0,4.0,4.0,4.0,100.0,,,,,,,,,,,,,,,,,,,,,,,,,,,,,,,,,,,,,,,,,,,,,,,,,,,,,,,,,,,,,,,,,,,,,,,,,,,,,,,,,,,,,,,,,,,,,,,,,,,,,,,,,,,,,,,,,,,,,,,,,,,,,,,,,,,
1725710366.144379,1725710366.145796,228.0,0.0,4247.05127,4254.615234,4250.128418,4277.307617,4216.025879,4248.077148,4122.307617,4220.512695,4199.230957,4219.230957,4538.461426,4502.436035,4375.641113,4435.641113,3420.0,1.0,15.0,,,,0.0,4.0,4.0,4.0,4.0,4.0,4.0,4.0,4.0,4.0,4.0,4.0,4.0,4.0,4.0,100.0,,,,,,,,,,,,,,,,,,,,,,,,,,,,,,,,,,,,,,,,,,,,,,,,,,,,,,,,,,,,,,,,,,,,,,,,,,,,,,,,,,,,,,,,,,,,,,,,,,,,,,,,,,,,,,,,,,,,,,,,,,,,,,,,,,,
1725710366.148283,1725710366.1497,229.0,0.0,4247.179688,4253.333496,4254.230957,4278.205078,4216.153809,4248.717773,4120.256348,4221.282227,4200.769043,4219.230957,4537.94873,4506.410156,4373.846191,4436.153809,3916.0,1.0,15.0,,,,0.0,4.0,4.0,4.0,4.0,4.0,4.0,4.0,4.0,4.0,4.0,4.0,4.0,4.0,4.0,100.0,,,,,,,,,,,,,,,,,,,,,,,,,,,,,,,,,,,,,,,,,,,,,,,,,,,,,,,,,,,,,,,,,,,,,,,,,,,,,,,,,,,,,,,,,,,,,,,,,,,,,,,,,,,,,,,,,,,,,,,,,,,,,,,,,,,
1725710366.152187,1725710366.153704,230.0,0.0,4247.179688,4251.666504,4258.205078,4279.487305,4216.153809,4248.461426,4114.615234,4220.897461,4199.358887,4218.974121,4536.282227,4508.333496,4375.512695,4438.333496,2907.0,1.0,15.0,,,,0.0,4.0,4.0,4.0,4.0,4.0,4.0,4.0,4.0,4.0,4.0,4.0,4.0,4.0,4.0,100.0,,,,,,,,,,,,,,,,,,,,,,,,,,,,,,,,,,,,,,,,,,,,,,,,,,,,,,,,,,,,,,,,,,,,,,,,,,,,,,,,,,,,,,,,,,,,,,,,,,,,,,,,,,,,,,,,,,,,,,,,,,,,,,,,,,,
1725710366.156091,1725710366.157608,231.0,0.0,4247.307617,4250.128418,4260.128418,4280.384766,4216.282227,4247.436035,4107.563965,4220.0,4195.897461,4218.077148,4536.025879,4507.94873,4379.743652,4441.538574,3146.0,1.0,15.0,,,,0.0,4.0,4.0,4.0,4.0,4.0,4.0,4.0,4.0,4.0,4.0,4.0,4.0,4.0,4.0,100.0,,,,,,,,,,,,,,,,,,,,,,,,,,,,,,,,,,,,,,,,,,,,,,,,,,,,,,,,,,,,,,,,,,,,,,,,,,,,,,,,,,,,,,,,,,,,,,,,,,,,,,,,,,,,,,,,,,,,,,,,,,,,,,,,,,,
1725710366.159995,1725710366.161512,232.0,0.0,4247.563965,4249.743652,4260.0,4280.512695,4216.666504,4246.410156,4102.563965,4219.615234,4192.94873,4216.794922,4537.94873,4506.410156,4383.717773,4444.102539,3420.0,1.0,15.0,,,,0.0,4.0,4.0,4.0,4.0,4.0,4.0,4.0,4.0,4.0,4.0,4.0,4.0,4.0,4.0,100.0,,,,,,,,,,,,,,,,,,,,,,,,,,,,,,,,,,,,,,,,,,,,,,,,,,,,,,,,0.0,0.0,1.0,0.0,2048.0,0.0,,,,,,,,,,,,,,,,,,,,,,,,,,,,,,,,,,,,,,,,,,,,,,,,,,,,,,,,,,,,,,,,,,,,,,
1725710366.163899,1725710366.165417,233.0,0.0,4248.205078,4251.922852,4258.846191,4280.384766,4217.179688,4245.897461,4102.307617,4221.666504,4192.94873,4216.025879,4540.641113,4506.410156,4385.641113,4445.384766,3916.0,1.0,15.0,,,,0.0,4.0,4.0,4.0,4.0,4.0,4.0,4.0,4.0,4.0,4.0,4.0,4.0,4.0,4.0,100.0,,,,,,,,,,,,,,,,,,,,,,,,,,,,,,,,,,,,,,,,,,,,,,,,,,,,,,,,,,,,,,,,,,,,,,,,,,,,,,,,,,,,,,,,,,,,,,,,,,,,,,,,,,,,,,,,,,,,,,,,,,,,,,,,,,,
1725710366.167803,1725710366.169421,234.0,0.0,4249.230957,4256.153809,4258.077148,4280.769043,4217.563965,4246.153809,4107.307617,4226.410156,4196.025879,4216.538574,4542.05127,4508.461426,4385.128418,4446.025879,2907.0,1.0,15.0,,,,0.0,4.0,4.0,4.0,4.0,4.0,4.0,4.0,4.0,4.0,4.0,4.0,4.0,4.0,4.0,100.0,,,,,,,,,,,,,,,,,,,,,,,,,,,,,,,,,,,,,,,,,,,,,,,,,,,,,,,,,,,,,,,,,,,,,,,,,,,,,,,,,,,,,,,,,,,,,,,,,,,,,,,,,,,,,,,,,,,,,,,,,,,,,,,,,,,
1725710366.171708,1725710366.173325,235.0,0.0,4250.256348,4260.384766,4258.589844,4281.282227,4217.94873,4246.922852,4114.615234,4231.794922,4200.512695,4218.333496,4541.282227,4511.153809,4383.717773,4446.025879,3146.0,1.0,15.0,,,,0.0,4.0,4.0,4.0,4.0,4.0,4.0,4.0,4.0,4.0,4.0,4.0,4.0,4.0,4.0,100.0,,,,,,,,,,,,,,,,,,,,,,,,,,,,,,,,,,,,,,,,,,,,,,,,,,,,,,,,,,,,,,,,,,,,,,,,,,,,,,,,,,,,,,,,,,,,,,,,,,,,,,,,,,,,,,,,,,,,,,,,,,,,,,,,,,,
1725710366.175612,1725710366.177229,236.0,0.0,4250.641113,4262.436035,4259.358887,4280.384766,4218.077148,4247.94873,4119.358887,4234.230957,4203.461426,4220.128418,4539.102539,4511.794922,4382.307617,4445.384766,3420.0,1.0,15.0,,,,0.0,4.0,4.0,4.0,4.0,4.0,4.0,4.0,4.0,4.0,4.0,4.0,4.0,4.0,4.0,100.0,,,,,,,,,,,,,,,,,,,,,,,,,,,,,,,,,,,,,,,,,,,,,,,,,,,,,,,,,,,,,,,,,,,,,,,,,,,,,,,,,,,,,,,,,,,,,,,,,,,,,,,,,,,,,,,,,,,,,,,,,,,,,,,,,,,
1725710366.179516,1725710366.181133,237.0,0.0,4250.512695,4261.153809,4259.358887,4278.333496,4217.94873,4248.333496,4118.333496,4232.307617,4203.589844,4220.897461,4537.05127,4510.128418,4381.025879,4443.589844,3916.0,1.0,15.0,,,,0.0,4.0,4.0,4.0,4.0,4.0,4.0,4.0,4.0,4.0,4.0,4.0,4.0,4.0,4.0,100.0,,,,,,,,,,,,,,,,,,,,,,,,,,,,,,,,,,,,,,,,,,,,,,,,,,,,,,,,,,,,,,,,,,,,,,,,,,,,,,,,,,,,,,,,,,,,,,,,,,,,,,,,,,,,,,,,,,,,,,,,,,,,,,,,,,,
1725710366.18342,1725710366.185037,238.0,0.0,4250.256348,4258.205078,4258.589844,4276.794922,4217.179688,4248.333496,4112.436035,4227.820313,4201.794922,4219.615234,4536.666504,4506.922852,4380.0,4441.153809,2907.0,1.0,15.0,,,,0.0,4.0,4.0,4.0,4.0,4.0,4.0,4.0,4.0,4.0,4.0,4.0,4.0,4.0,4.0,100.0,,,,,,,,,,,,,,,,,,,,,,,,,,,,,,,,,,,,,,,,,,,,,,,,,,,,,,,,,,,,,,,,,,,,,,,,,,,,,,,,,,,,,,,,,,,,,,,,,,,,,,,,,,,,,,,,,,,,,,,,,,,,,,,,,,,
1725710366.187324,1725710366.188841,239.0,0.0,4250.128418,4256.538574,4257.820313,4278.077148,4216.153809,4248.077148,4105.897461,4224.615234,4199.743652,4216.666504,4538.077148,4504.358887,4379.743652,4439.487305,3146.0,1.0,15.0,,,,0.0,4.0,4.0,4.0,4.0,4.0,4.0,4.0,4.0,4.0,4.0,4.0,4.0,4.0,4.0,100.0,,,,,,,,,,,,,,,,,,,,,,,,,,,,,,,,,,,,,,,,,,,,,,,,,,,,,,,,,,,,,,,,,,,,,,,,,,,,,,,,,,,,,,,,,,,,,,,,,,,,,,,,,,,,,,,,,,,,,,,,,,,,,,,,,,,
1725710366.191228,1725710366.192745,240.0,0.0,4250.512695,4258.077148,4257.94873,4282.563965,4215.384766,4248.077148,4103.461426,4224.871582,4199.230957,4213.717773,4540.128418,4503.589844,4381.025879,4439.871582,3420.0,1.0,15.0,,,,0.0,4.0,4.0,4.0,4.0,4.0,4.0,4.0,4.0,4.0,4.0,4.0,4.0,4.0,4.0,100.0,,,,,,,,,,,,,,,,,1.0,0.0,0.0,,,,,,,,,,,,,,,,,,,,,,,,,,,,,,,,,,,,,0.0,0.0,1.0,0.0,1024.0,0.0,0.378999,0.331508,0.427745,0.181277,0.088838,0.538939,0.467848,0.261415,0.21458,0.078617,0.393042,0.364615,0.189158,0.069492,0.04071,0.32983,0.202246,0.247978,0.231878,0.103979,0.147317,0.081947,0.076941,0.048776,0.02254,0.16468,0.065372,0.088613,0.059168,0.038187,2.97466,0.530467,0.969623,0.155374,0.082396,0.717742,0.509322,0.411057,0.112873,0.121247,1.447653,0.378792,0.454205,0.162593,0.067182,1.231958,0.529092,0.749578,0.22288,0.072368,1.904203,1.003655,0.623463,0.547848,0.205758,2.869726,0.600323,0.646829,0.236275,0.123381,0.961009,0.702832,0.749737,0.498028,0.110864,1.247234,0.374561,0.778779,0.258894,0.133913
1725710366.195132,1725710366.196749,241.0,0.0,4251.282227,4261.794922,4259.487305,4288.205078,4215.769043,4248.205078,4106.794922,4228.846191,4200.512695,4212.692383,4541.410156,4505.0,4383.461426,4442.307617,3916.0,1.0,15.0,,,,0.0,4.0,4.0,4.0,4.0,4.0,4.0,4.0,4.0,4.0,4.0,4.0,4.0,4.0,4.0,100.0,,,,,,,,,,,,,,,,,,,,,,,,,,,,,,,,,,,,,,,,,,,,,,,,,,,,,,,,,,,,,,,,,,,,,,,,,,,,,,,,,,,,,,,,,,,,,,,,,,,,,,,,,,,,,,,,,,,,,,,,,,,,,,,,,,,
1725710366.199036,1725710366.200653,242.0,0.0,4252.05127,4265.0,4261.538574,4291.794922,4216.922852,4248.333496,4113.717773,4233.846191,4202.436035,4214.102539,4541.025879,4507.820313,4386.282227,4445.769043,2907.0,1.0,15.0,,,,0.0,4.0,4.0,4.0,4.0,4.0,4.0,4.0,4.0,4.0,4.0,4.0,4.0,4.0,4.0,100.0,,,,,,,,,,,,,,,,,,,,,,,,,,,,,,,,,,,,,,,,,,,,,,,,,,,,,,,,,,,,,,,,,,,,,,,,,,,,,,,,,,,,,,,,,,,,,,,,,,,,,,,,,,,,,,,,,,,,,,,,,,,,,,,,,,,
1725710366.20294,1725710366.204557,243.0,0.0,4252.307617,4265.769043,4262.692383,4291.025879,4218.077148,4248.589844,4120.256348,4236.922852,4203.461426,4216.282227,4538.333496,4510.769043,4387.94873,4448.205078,3146.0,1.0,15.0,,,,0.0,4.0,4.0,4.0,4.0,4.0,4.0,4.0,4.0,4.0,4.0,4.0,4.0,4.0,4.0,100.0,,,,,,,,,,,,,,,,,,,,,,,,,,,,,,,,,,,,,,,,,,,,,,,,,,,,,,,,,,,,,,,,,,,,,,,,,,,,,,,,,,,,,,,,,,,,,,,,,,,,,,,,,,,,,,,,,,,,,,,,,,,,,,,,,,,
1725710366.206844,1725710366.208462,244.0,0.0,4251.794922,4264.487305,4262.179688,4285.897461,4218.333496,4248.205078,4124.230957,4236.538574,4202.436035,4216.666504,4535.0,4511.794922,4388.077148,4448.589844,3420.0,1.0,15.0,,,,0.0,4.0,4.0,4.0,4.0,4.0,4.0,4.0,4.0,4.0,4.0,4.0,4.0,4.0,4.0,100.0,,,,,,,,,,,,,,,,,,,,,,,,,,,,,,,,,,,,,,,,,,,,,,,,,,,,,,,,,,,,,,,,,,,,,,,,,,,,,,,,,,,,,,,,,,,,,,,,,,,,,,,,,,,,,,,,,,,,,,,,,,,,,,,,,,,
1725710366.210749,1725710366.212466,245.0,0.0,4250.897461,4263.077148,4260.769043,4279.102539,4217.436035,4247.05127,4125.641113,4233.077148,4200.128418,4213.974121,4533.333496,4509.743652,4386.666504,4446.410156,3916.0,1.0,15.0,,,,0.0,4.0,4.0,4.0,4.0,4.0,4.0,4.0,4.0,4.0,4.0,4.0,4.0,4.0,4.0,100.0,,,,,,,,,,,,,,,,,,,,,,,,,,,,,,,,,,,,,,,,,,,,,,,,,,,,,,,,,,,,,,,,,,,,,,,,,,,,,,,,,,,,,,,,,,,,,,,,,,,,,,,,,,,,,,,,,,,,,,,,,,,,,,,,,,,
1725710366.214653,1725710366.21637,246.0,0.0,4249.871582,4262.05127,4259.358887,4274.230957,4215.897461,4245.128418,4126.025879,4228.077148,4198.589844,4208.846191,4534.487305,4504.743652,4383.461426,4442.307617,2907.0,1.0,15.0,,,,0.0,4.0,4.0,4.0,4.0,4.0,4.0,4.0,4.0,4.0,4.0,4.0,4.0,4.0,4.0,100.0,,,,,,,,,,,,,,,,,,,,,,,,,,,,,,,,,,,,,,,,,,,,,,,,,,,,,,,,,,,,,,,,,,,,,,,,,,,,,,,,,,,,,,,,,,,,,,,,,,,,,,,,,,,,,,,,,,,,,,,,,,,,,,,,,,,
1725710366.218557,1725710366.220274,247.0,0.0,4249.358887,4260.512695,4258.589844,4273.461426,4215.0,4243.333496,4127.307617,4223.461426,4199.615234,4203.846191,4535.897461,4498.077148,4378.461426,4437.05127,3146.0,1.0,15.0,,,,0.0,4.0,4.0,4.0,4.0,4.0,4.0,4.0,4.0,4.0,4.0,4.0,4.0,4.0,4.0,100.0,,,,,,,,,,,,,,,,,,,,,,,,,,,,,,,,,,,,,,,,,,,,,,,,,,,,,,,,,,,,,,,,,,,,,,,,,,,,,,,,,,,,,,,,,,,,,,,,,,,,,,,,,,,,,,,,,,,,,,,,,,,,,,,,,,,
1725710366.222461,1725710366.224178,248.0,0.0,4249.102539,4257.563965,4258.077148,4275.641113,4215.0,4242.563965,4130.256348,4219.743652,4202.307617,4201.025879,4533.846191,4492.05127,4372.692383,4432.307617,3420.0,1.0,15.0,,,,0.0,4.0,4.0,4.0,4.0,4.0,4.0,4.0,4.0,4.0,4.0,4.0,4.0,4.0,4.0,100.0,,,,,,,,,,,,,,,,,,,,,,,,,,,,,,,,,,,,,,,,,,,,,,,,,,,,,,,,0.0,0.0,1.0,0.0,1024.0,0.0,,,,,,,,,,,,,,,,,,,,,,,,,,,,,,,,,,,,,,,,,,,,,,,,,,,,,,,,,,,,,,,,,,,,,,
1725710366.226365,1725710366.228082,249.0,0.0,4248.846191,4253.589844,4257.05127,4277.563965,4215.897461,4243.077148,4134.102539,4217.179688,4204.230957,4201.282227,4526.922852,4488.461426,4367.94873,4429.615234,3916.0,1.0,15.0,,,,0.0,4.0,4.0,4.0,4.0,4.0,4.0,4.0,4.0,4.0,4.0,4.0,4.0,4.0,4.0,100.0,,,,,,,,,,,,,,,,,,,,,,,,,,,,,,,,,,,,,,,,,,,,,,,,,,,,,,,,,,,,,,,,,,,,,,,,,,,,,,,,,,,,,,,,,,,,,,,,,,,,,,,,,,,,,,,,,,,,,,,,,,,,,,,,,,,
1725710366.230269,1725710366.231886,250.0,0.0,4248.717773,4250.897461,4255.256348,4276.922852,4216.666504,4244.102539,4137.563965,4215.128418,4202.820313,4202.94873,4517.307617,4487.820313,4365.512695,4428.717773,2907.0,1.0,15.0,,,,0.0,4.0,4.0,4.0,4.0,4.0,4.0,4.0,4.0,4.0,4.0,4.0,4.0,4.0,4.0,100.0,,,,,,,,,,,,,,,,,,,,,,,,,,,,,,,,,,,,,,,,,,,,,,,,,,,,,,,,,,,,,,,,,,,,,,,,,,,,,,,,,,,,,,,,,,,,,,,,,,,,,,,,,,,,,,,,,,,,,,,,,,,,,,,,,,,
1725710366.234173,1725710366.23579,251.0,0.0,4248.461426,4251.282227,4252.820313,4274.102539,4217.05127,4245.0,4139.230957,4213.461426,4198.077148,4203.846191,4508.717773,4488.846191,4365.512695,4428.589844,3146.0,1.0,15.0,,,,0.0,4.0,4.0,4.0,4.0,4.0,4.0,4.0,4.0,4.0,4.0,4.0,4.0,4.0,4.0,100.0,,,,,,,,,,,,,,,,,,,,,,,,,,,,,,,,,,,,,,,,,,,,,,,,,,,,,,,,,,,,,,,,,,,,,,,,,,,,,,,,,,,,,,,,,,,,,,,,,,,,,,,,,,,,,,,,,,,,,,,,,,,,,,,,,,,
1725710366.238077,1725710366.239694,252.0,0.0,4248.077148,4255.128418,4250.769043,4272.05127,4216.794922,4245.384766,4139.487305,4212.179688,4192.307617,4203.077148,4504.871582,4489.230957,4366.794922,4428.333496,3420.0,1.0,15.0,,,,0.0,4.0,4.0,4.0,4.0,4.0,4.0,4.0,4.0,4.0,4.0,4.0,4.0,4.0,4.0,100.0,,,,,,,,,,,,,,,,,,,,,,,,,,,,,,,,,,,,,,,,,,,,,,,,,,,,,,,,,,,,,,,,,,,,,,,,,,,,,,,,,,,,,,,,,,,,,,,,,,,,,,,,,,,,,,,,,,,,,,,,,,,,,,,,,,,
1725710366.241981,1725710366.243698,253.0,0.0,4247.94873,4260.641113,4250.256348,4272.436035,4216.410156,4245.641113,4139.615234,4212.05127,4189.230957,4201.538574,4507.05127,4488.333496,4368.846191,4428.589844,3916.0,1.0,15.0,,,,0.0,4.0,4.0,4.0,4.0,4.0,4.0,4.0,4.0,4.0,4.0,4.0,4.0,4.0,4.0,100.0,,,,,,,,,,,,,,,,,,,,,,,,,,,,,,,,,,,,,,,,,,,,,,,,,,,,,,,,,,,,,,,,,,,,,,,,,,,,,,,,,,,,,,,,,,,,,,,,,,,,,,,,,,,,,,,,,,,,,,,,,,,,,,,,,,,
1725710366.245885,1725710366.247603,254.0,0.0,4248.077148,4264.358887,4252.05127,4274.743652,4216.282227,4246.025879,4140.769043,4213.461426,4190.897461,4201.153809,4514.615234,4487.563965,4372.05127,4430.256348,2907.0,1.0,15.0,,,,0.0,4.0,4.0,4.0,4.0,4.0,4.0,4.0,4.0,4.0,4.0,4.0,4.0,4.0,4.0,100.0,,,,,,,,,,,,,,,,,,,,,,,,,,,,,,,,,,,,,,,,,,,,,,,,,,,,,,,,,,,,,,,,,,,,,,,,,,,,,,,,,,,,,,,,,,,,,,,,,,,,,,,,,,,,,,,,,,,,,,,,,,,,,,,,,,,
1725710366.24979,1725710366.251507,255.0,0.0,4248.589844,4264.743652,4255.641113,4276.025879,4216.282227,4246.666504,4142.307617,4215.384766,4195.897461,4202.436035,4523.846191,4488.589844,4376.410156,4433.333496,15.0,1.0,15.0,,,,0.0,4.0,4.0,4.0,4.0,4.0,4.0,4.0,4.0,4.0,4.0,4.0,4.0,4.0,4.0,100.0,,,,,,,,,,,,,,,,,,,,,,,,,,,,,,,,,,,,,,,,,,,,,,,,,,,,,,,,,,,,,,,,,,,,,,,,,,,,,,,,,,,,,,,,,,,,,,,,,,,,,,,,,,,,,,,,,,,,,,,,,,,,,,,,,,,
1725710366.253694,1725710366.255411,0.0,0.0,4249.230957,4262.436035,4259.230957,4274.358887,4216.025879,4246.922852,4142.563965,4217.05127,4201.025879,4204.358887,4530.512695,4492.179688,4380.512695,4436.794922,2707.0,1.0,15.0,,,,0.0,4.0,4.0,4.0,4.0,4.0,4.0,4.0,4.0,4.0,4.0,4.0,4.0,4.0,4.0,100.0,,,,,,,,,,,,,,,,,,,,,,,,,,,,,,,,,,,,,,,,,,,,,,,,,,,,,,,,0.0,0.0,1.0,0.0,1024.0,0.0,,,,,,,,,,,,,,,,,,,,,,,,,,,,,,,,,,,,,,,,,,,,,,,,,,,,,,,,,,,,,,,,,,,,,,
1725710366.257598,1725710366.259415,1.0,0.0,4249.743652,4260.128418,4261.282227,4270.256348,4215.384766,4246.538574,4140.512695,4217.563965,4203.846191,4205.769043,4531.538574,4496.794922,4382.436035,4439.358887,2586.0,1.0,15.0,,,,0.0,4.0,4.0,4.0,4.0,4.0,4.0,4.0,4.0,4.0,4.0,4.0,4.0,4.0,4.0,100.0,,,,,,,,,,,,,,,,,,,,,,,,,,,,,,,,,,,,,,,,,,,,,,,,,,,,,,,,,,,,,,,,,,,,,,,,,,,,,,,,,,,,,,,,,,,,,,,,,,,,,,,,,,,,,,,,,,,,,,,,,,,,,,,,,,,
1725710366.261502,1725710366.263319,2.0,0.0,4250.256348,4259.615234,4261.538574,4266.025879,4214.487305,4246.153809,4137.179688,4217.820313,4204.487305,4206.025879,4527.94873,4500.128418,4381.282227,4440.256348,2515.0,1.0,15.0,,,,0.0,4.0,4.0,4.0,4.0,4.0,4.0,4.0,4.0,4.0,4.0,4.0,4.0,4.0,4.0,100.0,,,,,,,,,,,,,,,,,,,,,,,,,,,,,,,,,,,,,,,,,,,,,,,,,,,,,,,,,,,,,,,,,,,,,,,,,,,,,,,,,,,,,,,,,,,,,,,,,,,,,,,,,,,,,,,,,,,,,,,,,,,,,,,,,,,
1725710366.265406,1725710366.267223,3.0,0.0,4250.512695,4260.897461,4260.897461,4263.846191,4214.102539,4246.153809,4134.743652,4218.717773,4205.256348,4206.282227,4523.846191,4501.282227,4378.333496,4439.871582,2476.0,1.0,15.0,,,,0.0,4.0,4.0,4.0,4.0,4.0,4.0,4.0,4.0,4.0,4.0,4.0,4.0,4.0,4.0,100.0,,,,,,,,,,,,,,,,,,,,,,,,,,,,,,,,,,,,,,,,,,,,,,,,,,,,,,,,,,,,,,,,,,,,,,,,,,,,,,,,,,,,,,,,,,,,,,,,,,,,,,,,,,,,,,,,,,,,,,,,,,,,,,,,,,,
1725710366.26931,1725710366.271127,4.0,0.0,4250.769043,4262.94873,4260.641113,4264.358887,4214.615234,4246.794922,4135.256348,4221.538574,4208.205078,4207.563965,4524.230957,4501.794922,4375.897461,4439.743652,2448.0,1.0,15.0,,,,0.0,4.0,4.0,4.0,4.0,4.0,4.0,4.0,4.0,4.0,4.0,4.0,4.0,4.0,4.0,100.0,,,,,,,,,,,,,,,,,,,,,,,,,,,,,,,,,,,,,,,,,,,,,,,,,,,,,,,,,,,,,,,,,,,,,,,,,,,,,,,,,,,,,,,,,,,,,,,,,,,,,,,,,,,,,,,,,,,,,,,,,,,,,,,,,,,
1725710366.273214,1725710366.275131,5.0,0.0,4251.153809,4263.974121,4261.153809,4266.410156,4215.769043,4247.820313,4138.205078,4226.153809,4213.077148,4210.384766,4530.641113,4503.461426,4375.897461,4441.153809,2404.0,1.0,15.0,,,,0.0,4.0,4.0,4.0,4.0,4.0,4.0,4.0,4.0,4.0,4.0,4.0,4.0,4.0,4.0,100.0,,,,,,,,,,,,,,,,,,,,,,,,,,,,,,,,,,,,,,,,,,,,,,,,,,,,,,,,,,,,,,,,,,,,,,,,,,,,,,,,,,,,,,,,,,,,,,,,,,,,,,,,,,,,,,,,,,,,,,,,,,,,,,,,,,,
1725710366.277118,1725710366.279035,6.0,0.0,4251.410156,4263.333496,4262.05127,4267.820313,4216.666504,4248.589844,4141.666504,4231.282227,4217.94873,4214.230957,4539.358887,4507.05127,4377.820313,4443.333496,2433.0,1.0,15.0,,,,0.0,4.0,4.0,4.0,4.0,4.0,4.0,4.0,4.0,4.0,4.0,4.0,4.0,4.0,4.0,100.0,,,,,,,,,,,,,,,,,,,,,,,,,,,,,,,,,,,,,,,,,,,,,,,,,,,,,,,,,,,,,,,,,,,,,,,,,,,,,,,,,,,,,,,,,,,,,,,,,,,,,,,,,,,,,,,,,,,,,,,,,,,,,,,,,,,
1725710366.281022,1725710366.282939,7.0,0.0,4251.282227,4261.922852,4262.563965,4267.307617,4216.538574,4248.589844,4143.205078,4235.0,4220.384766,4217.692383,4544.102539,4510.641113,4380.384766,4444.871582,2493.0,1.0,15.0,,,,0.0,4.0,4.0,4.0,4.0,4.0,4.0,4.0,4.0,4.0,4.0,4.0,4.0,4.0,4.0,100.0,,,,,,,,,,,,,,,,,,,,,,,,,,,,,,,,,,,,,,,,,,,,,,,,,,,,,,,,,,,,,,,,,,,,,,,,,,,,,,,,,,,,,,,,,,,,,,,,,,,,,,,,,,,,,,,,,,,,,,,,,,,,,,,,,,,
1725710366.284926,1725710366.286843,8.0,0.0,4250.512695,4260.512695,4262.436035,4265.641113,4215.897461,4247.563965,4142.05127,4236.153809,4219.487305,4219.358887,4540.769043,4512.05127,4381.922852,4444.358887,2466.0,1.0,15.0,,,,0.0,4.0,4.0,4.0,4.0,4.0,4.0,4.0,4.0,4.0,4.0,4.0,4.0,4.0,4.0,100.0,,,,,,,,,,,,,,,,,,,,,,,,,,,,,,,,,,,,,,,,,,,,,,,,,,,,,,,,0.0,0.0,1.0,0.0,1024.0,0.0,,,,,,,,,,,,,,,,,,,,,,,,,,,,,,,,,,,,,,,,,,,,,,,,,,,,,,,,,,,,,,,,,,,,,,
1725710366.28883,1725710366.290648,9.0,0.0,4249.871582,4259.743652,4262.179688,4265.512695,4215.0,4246.153809,4139.358887,4234.487305,4216.410156,4218.205078,4530.897461,4510.256348,4382.179688,4442.307617,2561.0,1.0,15.0,,,,0.0,4.0,4.0,4.0,4.0,4.0,4.0,4.0,4.0,4.0,4.0,4.0,4.0,4.0,4.0,100.0,,,,,,,,,,,,,,,,,,,,,,,,,,,,,,,,,,,,,,,,,,,,,,,,,,,,,,,,,,,,,,,,,,,,,,,,,,,,,,,,,,,,,,,,,,,,,,,,,,,,,,,,,,,,,,,,,,,,,,,,,,,,,,,,,,,
1725710366.292735,1725710366.294552,10.0,0.0,4249.871582,4259.743652,4262.436035,4268.717773,4214.871582,4245.256348,4137.692383,4231.153809,4213.589844,4214.743652,4521.153809,4506.410156,4382.05127,4440.641113,2907.0,1.0,15.0,,,,0.0,4.0,4.0,4.0,4.0,4.0,4.0,4.0,4.0,4.0,4.0,4.0,4.0,4.0,4.0,100.0,,,,,,,,,,,,,,,,,,,,,,,,,,,,,,,,,,,,,,,,,,,,,,,,,,,,,,,,,,,,,,,,,,,,,,,,,,,,,,,,,,,,,,,,,,,,,,,,,,,,,,,,,,,,,,,,,,,,,,,,,,,,,,,,,,,
1725710366.296639,1725710366.298456,11.0,0.0,4250.897461,4260.769043,4263.333496,4274.230957,4215.512695,4245.0,4139.102539,4228.077148,4212.692383,4210.384766,4518.077148,4502.692383,4383.461426,4440.897461,3146.0,1.0,15.0,,,,0.0,4.0,4.0,4.0,4.0,4.0,4.0,4.0,4.0,4.0,4.0,4.0,4.0,4.0,4.0,100.0,,,,,,,,,,,,,,,,,,,,,,,,,,,,,,,,,,,,,,,,,,,,,,,,,,,,,,,,,,,,,,,,,,,,,,,,,,,,,,,,,,,,,,,,,,,,,,,,,,,,,,,,,,,,,,,,,,,,,,,,,,,,,,,,,,,
1725710366.300543,1725710366.30246,12.0,0.0,4252.307617,4262.692383,4264.230957,4278.974121,4216.538574,4245.384766,4143.717773,4227.05127,4213.461426,4207.307617,4523.974121,4501.538574,4386.922852,4443.333496,3421.0,1.0,15.0,,,,0.0,4.0,4.0,4.0,4.0,4.0,4.0,4.0,4.0,4.0,4.0,4.0,4.0,4.0,4.0,100.0,,,,,,,,,,,,,,,,,,,,,,,,,,,,,,,,,,,,,,,,,,,,,,,,,,,,,,,,,,,,,,,,,,,,,,,,,,,,,,,,,,,,,,,,,,,,,,,,,,,,,,,,,,,,,,,,,,,,,,,,,,,,,,,,,,,
1725710366.304447,1725710366.306364,13.0,0.0,4253.461426,4264.615234,4264.871582,4280.128418,4217.05127,4245.641113,4149.871582,4228.333496,4215.0,4207.179688,4534.871582,4503.461426,4391.410156,4446.153809,3916.0,1.0,15.0,,,,0.0,4.0,4.0,4.0,4.0,4.0,4.0,4.0,4.0,4.0,4.0,4.0,4.0,4.0,4.0,100.0,,,,,,,,,,,,,,,,,,,,,,,,,,,,,,,,,,,,,,,,,,,,,,,,,,,,,,,,,,,,,,,,,,,,,,,,,,,,,,,,,,,,,,,,,,,,,,,,,,,,,,,,,,,,,,,,,,,,,,,,,,,,,,,,,,,
1725710366.308351,1725710366.310268,14.0,0.0,4253.205078,4265.769043,4265.769043,4277.820313,4216.922852,4245.641113,4154.615234,4230.256348,4216.666504,4210.128418,4543.717773,4507.307617,4394.102539,4447.436035,2907.0,1.0,15.0,,,,0.0,4.0,4.0,4.0,4.0,4.0,4.0,4.0,4.0,4.0,4.0,4.0,4.0,4.0,4.0,100.0,,,,,,,,,,,,,,,,,,,,,,,,,,,,,,,,,,,,,,,,,,,,,,,,,,,,,,,,,,,,,,,,,,,,,,,,,,,,,,,,,,,,,,,,,,,,,,,,,,,,,,,,,,,,,,,,,,,,,,,,,,,,,,,,,,,
1725710366.312255,1725710366.314172,15.0,0.0,4251.666504,4266.025879,4267.05127,4274.487305,4216.410156,4245.769043,4156.538574,4230.641113,4217.94873,4214.358887,4545.256348,4510.641113,4392.820313,4447.05127,3146.0,1.0,15.0,,,,0.0,4.0,4.0,4.0,4.0,4.0,4.0,4.0,4.0,4.0,4.0,4.0,4.0,4.0,4.0,100.0,,,,,,,,,,,,,,,,,,,,,,,,,,,,,,,,,,,,,,,,,,,,,,,,,,,,,,,,,,,,,,,,,,,,,,,,,,,,,,,,,,,,,,,,,,,,,,,,,,,,,,,,,,,,,,,,,,,,,,,,,,,,,,,,,,,
1725710366.316159,1725710366.318076,16.0,0.0,4249.871582,4265.897461,4268.589844,4272.563965,4216.282227,4246.282227,4155.769043,4227.94873,4218.333496,4217.563965,4540.256348,4511.794922,4387.563965,4445.897461,3421.0,1.0,15.0,,,,0.0,4.0,4.0,4.0,4.0,4.0,4.0,4.0,4.0,4.0,4.0,4.0,4.0,4.0,4.0,100.0,1.0,8.333333,4.0,4.0,4.0,4.0,0.0,0.0,1.0,4.0,4.0,4.0,4.0,4.0,4.0,4.0,1.0,0.0,0.0,,,,,,,,,,,,,,,,,,,,,,,,,,,,,,,,,,,,,0.0,0.0,1.0,0.0,1.0,0.0,0.265986,0.284913,0.406717,0.160675,0.082747,0.490377,0.443593,0.257864,0.202809,0.080509,0.408695,0.383796,0.215544,0.067426,0.041929,0.367991,0.248997,0.251331,0.226925,0.105542,0.115151,0.066794,0.080656,0.060373,0.023504,0.121205,0.067819,0.092588,0.060856,0.032254,2.969852,0.74093,1.054341,0.165215,0.082325,0.839772,0.437345,0.440518,0.098553,0.10458,1.638079,0.49586,0.526385,0.168284,0.060973,1.581323,0.647877,0.888775,0.283294,0.077246,2.328026,1.132283,0.624122,0.637999,0.212649,3.017207,0.559278,0.629022,0.212037,0.123404,1.218641,0.871849,0.877359,0.474855,0.115172,1.15831,0.386018,0.810063,0.270365,0.15322
1725710366.320063,1725710366.32188,17.0,0.0,4249.487305,4265.897461,4269.615234,4272.692383,4217.05127,4247.05127,4153.974121,4222.307617,4217.307617,4218.205078,4534.487305,4510.769043,4380.256348,4445.128418,3916.0,1.0,15.0,,,,0.0,4.0,4.0,4.0,4.0,4.0,4.0,4.0,4.0,4.0,4.0,4.0,4.0,4.0,4.0,100.0,,,,,,,,,,,,,,,,,,,,,,,,,,,,,,,,,,,,,,,,,,,,,,,,,,,,,,,,,,,,,,,,,,,,,,,,,,,,,,,,,,,,,,,,,,,,,,,,,,,,,,,,,,,,,,,,,,,,,,,,,,,,,,,,,,,
1725710366.323967,1725710366.325784,18.0,0.0,4251.410156,4265.897461,4270.641113,4273.974121,4218.333496,4247.563965,4152.436035,4216.538574,4215.512695,4216.538574,4533.205078,4509.102539,4373.717773,4445.0,2907.0,1.0,15.0,,,,0.0,4.0,4.0,4.0,4.0,4.0,4.0,4.0,4.0,4.0,4.0,4.0,4.0,4.0,4.0,100.0,,,,,,,,,,,,,,,,,,,,,,,,,,,,,,,,,,,,,,,,,,,,,,,,,,,,,,,,,,,,,,,,,,,,,,,,,,,,,,,,,,,,,,,,,,,,,,,,,,,,,,,,,,,,,,,,,,,,,,,,,,,,,,,,,,,
1725710366.327871,1725710366.329689,19.0,0.0,4255.0,4265.897461,4271.922852,4275.641113,4219.230957,4247.692383,4151.794922,4213.846191,4213.974121,4214.487305,4536.538574,4507.94873,4370.0,4445.256348,3146.0,1.0,15.0,,,,0.0,4.0,4.0,4.0,4.0,4.0,4.0,4.0,4.0,4.0,4.0,4.0,4.0,4.0,4.0,100.0,,,,,,,,,,,,,,,,,,,,,,,,,,,,,,,,,,,,,,,,,,,,,,,,,,,,,,,,,,,,,,,,,,,,,,,,,,,,,,,,,,,,,,,,,,,,,,,,,,,,,,,,,,,,,,,,,,,,,,,,,,,,,,,,,,,
1725710366.331776,1725710366.333593,20.0,0.0,4258.974121,4265.897461,4273.333496,4276.794922,4219.102539,4247.436035,4151.666504,4215.384766,4214.358887,4214.102539,4540.128418,4507.94873,4370.384766,4445.641113,3421.0,1.0,15.0,,,,0.0,4.0,4.0,4.0,4.0,4.0,4.0,4.0,4.0,4.0,4.0,4.0,4.0,4.0,4.0,100.0,,,,,,,,,,,,,,,,,,,,,,,,,,,,,,,,,,,,,,,,,,,,,,,,,,,,,,,,,,,,,,,,,,,,,,,,,,,,,,,,,,,,,,,,,,,,,,,,,,,,,,,,,,,,,,,,,,,,,,,,,,,,,,,,,,,
1725710366.33568,1725710366.337397,21.0,0.0,4261.666504,4265.641113,4274.102539,4277.692383,4218.205078,4247.179688,4151.538574,4219.487305,4216.153809,4215.256348,4540.0,4508.461426,4373.974121,4445.897461,3916.0,1.0,15.0,,,,0.0,4.0,4.0,4.0,4.0,4.0,4.0,4.0,4.0,4.0,4.0,4.0,4.0,4.0,4.0,100.0,,,,,,,,,,,,,,,,,,,,,,,,,,,,,,,,,,,,,,,,,,,,,,,,,,,,,,,,,,,,,,,,,,,,,,,,,,,,,,,,,,,,,,,,,,,,,,,,,,,,,,,,,,,,,,,,,,,,,,,,,,,,,,,,,,,
1725710366.339584,1725710366.341301,22.0,0.0,4262.436035,4265.0,4273.333496,4278.589844,4216.922852,4247.179688,4151.666504,4222.307617,4218.333496,4215.384766,4535.384766,4508.333496,4378.589844,4445.641113,2907.0,1.0,15.0,,,,0.0,4.0,4.0,4.0,4.0,4.0,4.0,4.0,4.0,4.0,4.0,4.0,4.0,4.0,4.0,100.0,,,,,,,,,,,,,,,,,,,,,,,,,,,,,,,,,,,,,,,,,,,,,,,,,,,,,,,,,,,,,,,,,,,,,,,,,,,,,,,,,,,,,,,,,,,,,,,,,,,,,,,,,,,,,,,,,,,,,,,,,,,,,,,,,,,
1725710366.343488,1725710366.345205,23.0,0.0,4262.05127,4264.230957,4270.897461,4279.615234,4216.282227,4247.563965,4152.05127,4221.410156,4219.230957,4212.563965,4529.102539,4507.692383,4381.282227,4444.615234,3146.0,1.0,15.0,,,,0.0,4.0,4.0,4.0,4.0,4.0,4.0,4.0,4.0,4.0,4.0,4.0,4.0,4.0,4.0,100.0,,,,,,,,,,,,,,,,,,,,,,,,,,,,,,,,,,,,,,,,,,,,,,,,,,,,,,,,,,,,,,,,,,,,,,,,,,,,,,,,,,,,,,,,,,,,,,,,,,,,,,,,,,,,,,,,,,,,,,,,,,,,,,,,,,,
1725710366.347392,1725710366.349209,24.0,0.0,4261.538574,4263.461426,4267.436035,4280.641113,4216.666504,4248.077148,4152.692383,4217.94873,4218.846191,4207.692383,4525.512695,4507.05127,4380.897461,4443.205078,3421.0,1.0,15.0,,,,0.0,4.0,4.0,4.0,4.0,4.0,4.0,4.0,4.0,4.0,4.0,4.0,4.0,4.0,4.0,100.0,,,,,,,,,,,,,,,,,,,,,,,,,,,,,,,,,,,,,,,,,,,,,,,,,,,,,,,,0.0,0.0,1.0,0.0,1.0,0.0,,,,,,,,,,,,,,,,,,,,,,,,,,,,,,,,,,,,,,,,,,,,,,,,,,,,,,,,,,,,,,,,,,,,,,
1725710366.351296,1725710366.353113,25.0,0.0,4261.538574,4263.205078,4264.487305,4281.025879,4217.436035,4248.717773,4153.205078,4215.769043,4218.205078,4204.230957,4527.820313,4507.179688,4378.717773,4442.307617,3916.0,1.0,15.0,,,,0.0,4.0,4.0,4.0,4.0,4.0,4.0,4.0,4.0,4.0,4.0,4.0,4.0,4.0,4.0,100.0,,,,,,,,,,,,,,,,,,,,,,,,,,,,,,,,,,,,,,,,,,,,,,,,,,,,,,,,,,,,,,,,,,,,,,,,,,,,,,,,,,,,,,,,,,,,,,,,,,,,,,,,,,,,,,,,,,,,,,,,,,,,,,,,,,,
1725710366.3552,1725710366.357017,26.0,0.0,4261.922852,4263.846191,4263.205078,4280.384766,4218.077148,4249.615234,4153.461426,4217.692383,4218.461426,4204.487305,4534.615234,4508.333496,4377.563965,4442.692383,2907.0,1.0,15.0,,,,0.0,4.0,4.0,4.0,4.0,4.0,4.0,4.0,4.0,4.0,4.0,4.0,4.0,4.0,4.0,100.0,,,,,,,,,,,,,,,,,,,,,,,,,,,,,,,,,,,,,,,,,,,,,,,,,,,,,,,,,,,,,,,,,,,,,,,,,,,,,,,,,,,,,,,,,,,,,,,,,,,,,,,,,,,,,,,,,,,,,,,,,,,,,,,,,,,
1725710366.359104,1725710366.360921,27.0,0.0,4261.794922,4264.871582,4264.487305,4278.717773,4218.077148,4250.128418,4153.717773,4223.333496,4219.743652,4207.692383,4541.282227,4509.743652,4379.102539,4444.615234,3146.0,1.0,15.0,,,,0.0,4.0,4.0,4.0,4.0,4.0,4.0,4.0,4.0,4.0,4.0,4.0,4.0,4.0,4.0,100.0,,,,,,,,,,,,,,,,,,,,,,,,,,,,,,,,,,,,,,,,,,,,,,,,,,,,,,,,,,,,,,,,,,,,,,,,,,,,,,,,,,,,,,,,,,,,,,,,,,,,,,,,,,,,,,,,,,,,,,,,,,,,,,,,,,,
1725710366.363008,1725710366.364826,28.0,0.0,4261.025879,4265.641113,4266.794922,4276.922852,4217.692383,4249.871582,4153.717773,4228.589844,4220.769043,4210.128418,4543.205078,4511.025879,4382.05127,4446.794922,3421.0,1.0,15.0,,,,0.0,4.0,4.0,4.0,4.0,4.0,4.0,4.0,4.0,4.0,4.0,4.0,4.0,4.0,4.0,100.0,,,,,,,,,,,,,,,,,,,,,,,,,,,,,,,,,,,,,,,,,,,,,,,,,,,,,,,,,,,,,,,,,,,,,,,,,,,,,,,,,,,,,,,,,,,,,,,,,,,,,,,,,,,,,,,,,,,,,,,,,,,,,,,,,,,
1725710366.366912,1725710366.36863,29.0,0.0,4260.128418,4265.769043,4268.205078,4276.538574,4217.307617,4248.717773,4153.077148,4229.487305,4220.641113,4209.230957,4538.589844,4511.794922,4383.333496,4447.692383,3916.0,1.0,15.0,,,,0.0,4.0,4.0,4.0,4.0,4.0,4.0,4.0,4.0,4.0,4.0,4.0,4.0,4.0,4.0,100.0,,,,,,,,,,,,,,,,,,,,,,,,,,,,,,,,,,,,,,,,,,,,,,,,,,,,,,,,,,,,,,,,,,,,,,,,,,,,,,,,,,,,,,,,,,,,,,,,,,,,,,,,,,,,,,,,,,,,,,,,,,,,,,,,,,,
1725710366.370817,1725710366.372534,30.0,0.0,4259.487305,4265.128418,4267.692383,4277.563965,4217.436035,4246.922852,4152.307617,4225.0,4219.230957,4205.384766,4530.512695,4512.436035,4381.410156,4446.410156,2907.0,1.0,15.0,,,,0.0,4.0,4.0,4.0,4.0,4.0,4.0,4.0,4.0,4.0,4.0,4.0,4.0,4.0,4.0,100.0,,,,,,,,,,,,,,,,,,,,,,,,,,,,,,,,,,,,,,,,,,,,,,,,,,,,,,,,,,,,,,,,,,,,,,,,,,,,,,,,,,,,,,,,,,,,,,,,,,,,,,,,,,,,,,,,,,,,,,,,,,,,,,,,,,,
1725710366.374721,1725710366.376438,31.0,0.0,4258.974121,4264.102539,4265.897461,4279.102539,4217.692383,4245.384766,4152.307617,4218.589844,4217.94873,4201.153809,4524.230957,4513.461426,4377.436035,4444.230957,3146.0,1.0,15.0,,,,0.0,4.0,4.0,4.0,4.0,4.0,4.0,4.0,4.0,4.0,4.0,4.0,4.0,4.0,4.0,100.0,,,,,,,,,,,,,,,,,,,,,,,,,,,,,,,,,,,,,,,,,,,,,,,,,,,,,,,,,,,,,,,,,,,,,,,,,,,,,,,,,,,,,,,,,,,,,,,,,,,,,,,,,,,,,,,,,,,,,,,,,,,,,,,,,,,
1725710366.378625,1725710366.380242,32.0,0.0,4258.461426,4263.333496,4265.0,4280.256348,4217.94873,4245.384766,4153.717773,4214.615234,4217.94873,4199.102539,4524.487305,4515.0,4375.256348,4443.333496,0.0,1.0,15.0,,,,0.0,4.0,4.0,4.0,4.0,4.0,4.0,4.0,4.0,4.0,4.0,4.0,4.0,4.0,4.0,100.0,,,,,,,,,,,,,,,,,,,,,,,,,,,,,,,,,,,,,,,,,,,,,,,,,,,,,,,,0.0,0.0,1.0,0.0,1.0,0.0,,,,,,,,,,,,,,,,,,,,,,,,,,,,,,,,,,,,,,,,,,,,,,,,,,,,,,,,,,,,,,,,,,,,,,
1725710366.382529,1725710366.384146,33.0,0.0,4258.077148,4263.461426,4266.794922,4281.025879,4217.820313,4246.666504,4155.769043,4215.769043,4219.102539,4199.871582,4532.179688,4517.05127,4377.436035,4445.0,0.0,1.0,15.0,,,,0.0,4.0,4.0,4.0,4.0,4.0,4.0,4.0,4.0,4.0,4.0,4.0,4.0,4.0,4.0,100.0,,,,,,,,,,,,,,,,,,,,,,,,,,,,,,,,,,,,,,,,,,,,,,,,,,,,,,,,,,,,,,,,,,,,,,,,,,,,,,,,,,,,,,,,,,,,,,,,,,,,,,,,,,,,,,,,,,,,,,,,,,,,,,,,,,,
1725710366.386433,1725710366.38805,34.0,0.0,4257.94873,4264.230957,4271.153809,4282.179688,4217.563965,4247.94873,4155.897461,4220.641113,4220.128418,4201.922852,4542.94873,4519.358887,4383.205078,4449.230957,0.0,1.0,15.0,,,,0.0,4.0,4.0,4.0,4.0,4.0,4.0,4.0,4.0,4.0,4.0,4.0,4.0,4.0,4.0,100.0,,,,,,,,,,,,,,,,,,,,,,,,,,,,,,,,,,,,,,,,,,,,,,,,,,,,,,,,,,,,,,,,,,,,,,,,,,,,,,,,,,,,,,,,,,,,,,,,,,,,,,,,,,,,,,,,,,,,,,,,,,,,,,,,,,,
1725710366.390337,1725710366.391954,35.0,0.0,4258.717773,4265.512695,4276.153809,4283.846191,4217.563965,4247.563965,4152.563965,4225.897461,4220.0,4203.205078,4550.641113,4521.794922,4389.487305,4454.230957,0.0,1.0,15.0,,,,0.0,4.0,4.0,4.0,4.0,4.0,4.0,4.0,4.0,4.0,4.0,4.0,4.0,4.0,4.0,100.0,,,,,,,,,,,,,,,,,,,,,,,,,,,,,,,,,,,,,,,,,,,,,,,,,,,,,,,,,,,,,,,,,,,,,,,,,,,,,,,,,,,,,,,,,,,,,,,,,,,,,,,,,,,,,,,,,,,,,,,,,,,,,,,,,,,
1725710366.394241,1725710366.395958,36.0,0.0,4260.897461,4266.538574,4279.743652,4285.384766,4217.94873,4245.0,4146.153809,4228.589844,4219.102539,4202.436035,4552.563965,4523.717773,4393.077148,4457.94873,0.0,1.0,15.0,,,,0.0,4.0,4.0,4.0,4.0,4.0,4.0,4.0,4.0,4.0,4.0,4.0,4.0,4.0,4.0,100.0,,,,,,,,,,,,,,,,,,,,,,,,,,,,,,,,,,,,,,,,,,,,,,,,,,,,,,,,,,,,,,,,,,,,,,,,,,,,,,,,,,,,,,,,,,,,,,,,,,,,,,,,,,,,,,,,,,,,,,,,,,,,,,,,,,,
1725710366.398145,1725710366.399863,37.0,0.0,4263.846191,4267.05127,4280.897461,4286.538574,4218.589844,4241.410156,4139.358887,4228.461426,4219.102539,4200.512695,4550.0,4525.0,4393.205078,4459.358887,0.0,1.0,15.0,,,,0.0,4.0,4.0,4.0,4.0,4.0,4.0,4.0,4.0,4.0,4.0,4.0,4.0,4.0,4.0,100.0,,,,,,,,,,,,,,,,,,,,,,,,,,,,,,,,,,,,,,,,,,,,,,,,,,,,,,,,,,,,,,,,,,,,,,,,,,,,,,,,,,,,,,,,,,,,,,,,,,,,,,,,,,,,,,,,,,,,,,,,,,,,,,,,,,,
1725710366.402049,1725710366.403767,38.0,0.0,4266.282227,4267.05127,4280.128418,4287.436035,4219.358887,4238.846191,4135.512695,4227.307617,4221.666504,4199.102539,4546.538574,4524.871582,4391.153809,4458.717773,0.0,1.0,15.0,,,,0.0,4.0,4.0,4.0,4.0,4.0,4.0,4.0,4.0,4.0,4.0,4.0,4.0,4.0,4.0,100.0,,,,,,,,,,,,,,,,,,,,,,,,,,,,,,,,,,,,,,,,,,,,,,,,,,,,,,,,,,,,,,,,,,,,,,,,,,,,,,,,,,,,,,,,,,,,,,,,,,,,,,,,,,,,,,,,,,,,,,,,,,,,,,,,,,,
1725710366.405954,1725710366.407771,39.0,0.0,4267.179688,4267.436035,4278.717773,4288.461426,4219.871582,4238.846191,4135.512695,4227.179688,4226.410156,4199.358887,4544.102539,4523.205078,4388.333496,4456.794922,0.0,1.0,15.0,,,,0.0,4.0,4.0,4.0,4.0,4.0,4.0,4.0,4.0,4.0,4.0,4.0,4.0,4.0,4.0,100.0,,,,,,,,,,,,,,,,,,,,,,,,,,,,,,,,,,,,,,,,,,,,,,,,,,,,,,,,,,,,,,,,,,,,,,,,,,,,,,,,,,,,,,,,,,,,,,,,,,,,,,,,,,,,,,,,,,,,,,,,,,,,,,,,,,,
1725710366.409858,1725710366.411675,40.0,0.0,4267.05127,4268.205078,4278.077148,4289.743652,4219.871582,4241.282227,4137.179688,4228.846191,4231.794922,4201.025879,4542.05127,4521.153809,4385.384766,4454.615234,0.0,1.0,15.0,,,,0.0,4.0,4.0,4.0,4.0,4.0,4.0,4.0,4.0,4.0,4.0,4.0,4.0,4.0,4.0,100.0,,,,,,,,,,,,,,,,,,,,,,,,,,,,,,,,,,,,,,,,,,,,,,,,,,,,,,,,0.0,0.0,1.0,0.0,1.0,0.0,,,,,,,,,,,,,,,,,,,,,,,,,,,,,,,,,,,,,,,,,,,,,,,,,,,,,,,,,,,,,,,,,,,,,,
1725710366.413762,1725710366.415579,41.0,0.0,4266.538574,4268.589844,4278.589844,4290.512695,4219.615234,4244.615234,4137.05127,4231.410156,4235.769043,4202.563965,4538.589844,4520.256348,4381.794922,4452.307617,0.0,1.0,15.0,,,,0.0,4.0,4.0,4.0,4.0,4.0,4.0,4.0,4.0,4.0,4.0,4.0,4.0,4.0,4.0,100.0,,,,,,,,,,,,,,,,,,,,,,,,,,,,,,,,,,,,,,,,,,,,,,,,,,,,,,,,,,,,,,,,,,,,,,,,,,,,,,,,,,,,,,,,,,,,,,,,,,,,,,,,,,,,,,,,,,,,,,,,,,,,,,,,,,,
1725710366.417666,1725710366.419483,42.0,0.0,4265.897461,4267.05127,4279.743652,4289.487305,4219.230957,4247.307617,4132.820313,4233.717773,4237.436035,4202.820313,4533.077148,4521.410156,4377.692383,4449.743652,0.0,1.0,15.0,,,,0.0,4.0,4.0,4.0,4.0,4.0,4.0,4.0,4.0,4.0,4.0,4.0,4.0,4.0,4.0,100.0,,,,,,,,,,,,,,,,,,,,,,,,,,,,,,,,,,,,,,,,,,,,,,,,,,,,,,,,,,,,,,,,,,,,,,,,,,,,,,,,,,,,,,,,,,,,,,,,,,,,,,,,,,,,,,,,,,,,,,,,,,,,,,,,,,,
1725710366.42157,1725710366.423387,43.0,0.0,4264.615234,4263.717773,4280.128418,4286.153809,4219.358887,4248.333496,4125.512695,4235.128418,4237.179688,4201.922852,4527.94873,4523.461426,4373.974121,4446.922852,0.0,1.0,15.0,,,,0.0,4.0,4.0,4.0,4.0,4.0,4.0,4.0,4.0,4.0,4.0,4.0,4.0,4.0,4.0,100.0,,,,,,,,,,,,,,,,,,,,,,,,,,,,,,,,,,,,,,,,,,,,,,,,,,,,,,,,,,,,,,,,,,,,,,,,,,,,,,,,,,,,,,,,,,,,,,,,,,,,,,,,,,,,,,,,,,,,,,,,,,,,,,,,,,,
1725710366.425474,1725710366.427191,44.0,0.0,4262.179688,4260.384766,4278.333496,4281.538574,4219.743652,4248.077148,4118.974121,4236.153809,4236.282227,4200.769043,4526.153809,4524.615234,4372.05127,4444.358887,0.0,1.0,15.0,,,,0.0,4.0,4.0,4.0,4.0,4.0,4.0,4.0,4.0,4.0,4.0,4.0,4.0,4.0,4.0,100.0,,,,,,,,,,,,,,,,,,,,,,,,,,,,,,,,,,,,,,,,,,,,,,,,,,,,,,,,,,,,,,,,,,,,,,,,,,,,,,,,,,,,,,,,,,,,,,,,,,,,,,,,,,,,,,,,,,,,,,,,,,,,,,,,,,,
1725710366.429378,1725710366.431095,45.0,0.0,4258.589844,4258.974121,4274.358887,4277.692383,4220.128418,4247.820313,4116.538574,4236.282227,4235.512695,4199.871582,4528.974121,4522.94873,4372.563965,4443.205078,0.0,1.0,15.0,,,,0.0,4.0,4.0,4.0,4.0,4.0,4.0,4.0,4.0,4.0,4.0,4.0,4.0,4.0,4.0,100.0,,,,,,,,,,,,,,,,,,,,,,,,,,,,,,,,,,,,,,,,,,,,,,,,,,,,,,,,,,,,,,,,,,,,,,,,,,,,,,,,,,,,,,,,,,,,,,,,,,,,,,,,,,,,,,,,,,,,,,,,,,,,,,,,,,,
1725710366.433282,1725710366.435,46.0,0.0,4255.256348,4259.230957,4269.743652,4276.153809,4220.0,4247.94873,4117.94873,4235.0,4235.128418,4199.743652,4533.846191,4518.717773,4374.102539,4443.974121,0.0,1.0,15.0,,,,0.0,4.0,4.0,4.0,4.0,4.0,4.0,4.0,4.0,4.0,4.0,4.0,4.0,4.0,4.0,100.0,,,,,,,,,,,,,,,,,,,,,,,,,,,,,,,,,,,,,,,,,,,,,,,,,,,,,,,,,,,,,,,,,,,,,,,,,,,,,,,,,,,,,,,,,,,,,,,,,,,,,,,,,,,,,,,,,,,,,,,,,,,,,,,,,,,
1725710366.437186,1725710366.438904,47.0,0.0,4253.461426,4259.358887,4266.153809,4277.05127,4219.102539,4248.589844,4119.615234,4231.794922,4235.0,4200.128418,4536.538574,4513.846191,4375.0,4446.025879,0.0,1.0,15.0,,,,0.0,4.0,4.0,4.0,4.0,4.0,4.0,4.0,4.0,4.0,4.0,4.0,4.0,4.0,4.0,100.0,,,,,,,,,,,,,,,,,,,,,,,,,,,,,,,,,,,,,,,,,,,,,,,,,,,,,,,,,,,,,,,,,,,,,,,,,,,,,,,,,,,,,,,,,,,,,,,,,,,,,,,,,,,,,,,,,,,,,,,,,,,,,,,,,,,
1725710366.44109,1725710366.442708,48.0,0.0,4253.717773,4257.820313,4264.358887,4278.846191,4217.820313,4249.102539,4118.205078,4226.922852,4235.128418,4200.0,4535.0,4510.0,4374.487305,4447.179688,0.0,1.0,15.0,,,,0.0,4.0,4.0,4.0,4.0,4.0,4.0,4.0,4.0,4.0,4.0,4.0,4.0,4.0,4.0,100.0,,,,,,,,,,,,,,,,,1.0,0.0,0.0,,,,,,,,,,,,,,,,,,,,,,,,,,,,,,,,,,,,,0.0,0.0,1.0,0.0,1024.0,0.040617,0.198892,0.259855,0.379293,0.145828,0.076209,0.455058,0.445067,0.276944,0.188843,0.085168,0.443647,0.38783,0.24512,0.069191,0.042732,0.451358,0.321838,0.256185,0.229363,0.106281,0.12482,0.069766,0.088641,0.077178,0.025312,0.088912,0.071199,0.097039,0.058024,0.026945,3.455527,1.014221,1.091324,0.177141,0.085456,0.915368,0.442424,0.492182,0.099341,0.089876,1.712023,0.648803,0.619949,0.176895,0.060987,1.893317,0.804372,1.033976,0.342789,0.081508,2.595653,1.224701,0.660687,0.714551,0.219821,2.964174,0.59515,0.673921,0.208426,0.121356,1.516515,1.064584,1.014105,0.461429,0.120636,1.067446,0.451027,0.853798,0.284269,0.165345
1725710366.444995,1725710366.446612,49.0,0.0,4255.384766,4254.871582,4264.230957,4279.358887,4216.666504,4249.230957,4113.461426,4221.666504,4234.615234,4197.94873,4530.512695,4507.563965,4372.94873,4446.153809,0.0,1.0,15.0,,,,0.0,4.0,4.0,4.0,4.0,4.0,4.0,4.0,4.0,4.0,4.0,4.0,4.0,4.0,4.0,100.0,,,,,,,,,,,,,,,,,,,,,,,,,,,,,,,,,,,,,,,,,,,,,,,,,,,,,,,,,,,,,,,,,,,,,,,,,,,,,,,,,,,,,,,,,,,,,,,,,,,,,,,,,,,,,,,,,,,,,,,,,,,,,,,,,,,
1725710366.448899,1725710366.450516,50.0,0.0,4256.922852,4252.563965,4264.615234,4277.179688,4216.153809,4248.717773,4108.846191,4217.307617,4232.94873,4193.461426,4526.025879,4506.153809,4370.897461,4443.077148,0.0,1.0,15.0,,,,0.0,4.0,4.0,4.0,4.0,4.0,4.0,4.0,4.0,4.0,4.0,4.0,4.0,4.0,4.0,100.0,,,,,,,,,,,,,,,,,,,,,,,,,,,,,,,,,,,,,,,,,,,,,,,,,,,,,,,,,,,,,,,,,,,,,,,,,,,,,,,,,,,,,,,,,,,,,,,,,,,,,,,,,,,,,,,,,,,,,,,,,,,,,,,,,,,
1725710366.452803,1725710366.45452,51.0,0.0,4257.436035,4252.820313,4265.0,4273.589844,4216.666504,4247.94873,4107.436035,4214.487305,4229.615234,4187.94873,4523.333496,4505.256348,4368.589844,4440.0,0.0,1.0,15.0,,,,0.0,4.0,4.0,4.0,4.0,4.0,4.0,4.0,4.0,4.0,4.0,4.0,4.0,4.0,4.0,100.0,,,,,,,,,,,,,,,,,,,,,,,,,,,,,,,,,,,,,,,,,,,,,,,,,,,,,,,,,,,,,,,,,,,,,,,,,,,,,,,,,,,,,,,,,,,,,,,,,,,,,,,,,,,,,,,,,,,,,,,,,,,,,,,,,,,
1725710366.456707,1725710366.458424,52.0,0.0,4256.922852,4256.538574,4264.615234,4271.153809,4217.436035,4247.436035,4110.512695,4212.94873,4225.384766,4183.974121,4521.794922,4504.743652,4365.769043,4438.974121,0.0,1.0,15.0,,,,0.0,4.0,4.0,4.0,4.0,4.0,4.0,4.0,4.0,4.0,4.0,4.0,4.0,4.0,4.0,100.0,,,,,,,,,,,,,,,,,,,,,,,,,,,,,,,,,,,,,,,,,,,,,,,,,,,,,,,,,,,,,,,,,,,,,,,,,,,,,,,,,,,,,,,,,,,,,,,,,,,,,,,,,,,,,,,,,,,,,,,,,,,,,,,,,,,
1725710366.460611,1725710366.462328,53.0,0.0,4256.794922,4261.538574,4263.717773,4271.410156,4217.820313,4247.05127,4116.794922,4211.794922,4221.282227,4183.589844,4520.128418,4505.0,4362.94873,4440.897461,0.0,1.0,15.0,,,,0.0,4.0,4.0,4.0,4.0,4.0,4.0,4.0,4.0,4.0,4.0,4.0,4.0,4.0,4.0,100.0,,,,,,,,,,,,,,,,,,,,,,,,,,,,,,,,,,,,,,,,,,,,,,,,,,,,,,,,,,,,,,,,,,,,,,,,,,,,,,,,,,,,,,,,,,,,,,,,,,,,,,,,,,,,,,,,,,,,,,,,,,,,,,,,,,,
1725710366.464515,1725710366.466232,54.0,0.0,4257.820313,4265.256348,4263.205078,4274.358887,4217.563965,4246.922852,4123.717773,4210.256348,4218.974121,4186.282227,4517.94873,4505.897461,4361.282227,4444.230957,0.0,1.0,15.0,,,,0.0,4.0,4.0,4.0,4.0,4.0,4.0,4.0,4.0,4.0,4.0,4.0,4.0,4.0,4.0,100.0,,,,,,,,,,,,,,,,,,,,,,,,,,,,,,,,,,,,,,,,,,,,,,,,,,,,,,,,,,,,,,,,,,,,,,,,,,,,,,,,,,,,,,,,,,,,,,,,,,,,,,,,,,,,,,,,,,,,,,,,,,,,,,,,,,,
1725710366.468419,1725710366.470236,55.0,0.0,4259.743652,4265.384766,4264.102539,4278.461426,4217.307617,4246.794922,4128.589844,4208.461426,4219.871582,4189.615234,4517.436035,4506.794922,4362.436035,4446.538574,0.0,1.0,15.0,,,,0.0,4.0,4.0,4.0,4.0,4.0,4.0,4.0,4.0,4.0,4.0,4.0,4.0,4.0,4.0,100.0,,,,,,,,,,,,,,,,,,,,,,,,,,,,,,,,,,,,,,,,,,,,,,,,,,,,,,,,,,,,,,,,,,,,,,,,,,,,,,,,,,,,,,,,,,,,,,,,,,,,,,,,,,,,,,,,,,,,,,,,,,,,,,,,,,,
1725710366.472323,1725710366.47414,56.0,0.0,4261.538574,4262.820313,4266.794922,4282.179688,4217.307617,4246.538574,4131.153809,4207.692383,4223.846191,4190.897461,4521.025879,4507.307617,4366.794922,4446.410156,0.0,1.0,15.0,,,,0.0,4.0,4.0,4.0,4.0,4.0,4.0,4.0,4.0,4.0,4.0,4.0,4.0,4.0,4.0,100.0,,,,,,,,,,,,,,,,,,,,,,,,,,,,,,,,,,,,,,,,,,,,,,,,,,,,,,,,0.0,0.0,1.0,0.0,1024.0,0.040617,,,,,,,,,,,,,,,,,,,,,,,,,,,,,,,,,,,,,,,,,,,,,,,,,,,,,,,,,,,,,,,,,,,,,,
1725710366.476227,1725710366.478045,57.0,0.0,4262.05127,4260.0,4271.153809,4285.256348,4218.077148,4246.153809,4132.436035,4208.846191,4228.846191,4189.615234,4528.717773,4508.333496,4373.205078,4445.0,0.0,1.0,15.0,,,,0.0,4.0,4.0,4.0,4.0,4.0,4.0,4.0,4.0,4.0,4.0,4.0,4.0,4.0,4.0,100.0,,,,,,,,,,,,,,,,,,,,,,,,,,,,,,,,,,,,,,,,,,,,,,,,,,,,,,,,,,,,,,,,,,,,,,,,,,,,,,,,,,,,,,,,,,,,,,,,,,,,,,,,,,,,,,,,,,,,,,,,,,,,,,,,,,,
1725710366.480132,1725710366.481949,58.0,0.0,4261.538574,4259.230957,4275.897461,4287.692383,4219.230957,4245.384766,4134.743652,4211.410156,4232.307617,4187.179688,4537.436035,4511.538574,4379.487305,4444.743652,0.0,1.0,15.0,,,,0.0,4.0,4.0,4.0,4.0,4.0,4.0,4.0,4.0,4.0,4.0,4.0,4.0,4.0,4.0,100.0,,,,,,,,,,,,,,,,,,,,,,,,,,,,,,,,,,,,,,,,,,,,,,,,,,,,,,,,,,,,,,,,,,,,,,,,,,,,,,,,,,,,,,,,,,,,,,,,,,,,,,,,,,,,,,,,,,,,,,,,,,,,,,,,,,,
1725710366.484036,1725710366.485853,59.0,0.0,4260.641113,4260.641113,4279.230957,4290.0,4220.128418,4244.743652,4138.846191,4214.230957,4233.077148,4185.897461,4542.436035,4516.282227,4384.102539,4447.436035,0.0,1.0,15.0,,,,0.0,4.0,4.0,4.0,4.0,4.0,4.0,4.0,4.0,4.0,4.0,4.0,4.0,4.0,4.0,100.0,,,,,,,,,,,,,,,,,,,,,,,,,,,,,,,,,,,,,,,,,,,,,,,,,,,,,,,,,,,,,,,,,,,,,,,,,,,,,,,,,,,,,,,,,,,,,,,,,,,,,,,,,,,,,,,,,,,,,,,,,,,,,,,,,,,
1725710366.48794,1725710366.489657,60.0,0.0,4260.384766,4263.077148,4279.871582,4292.307617,4220.128418,4244.871582,4144.102539,4216.025879,4232.563965,4187.307617,4541.666504,4520.641113,4386.538574,4452.563965,0.0,1.0,15.0,,,,0.0,4.0,4.0,4.0,4.0,4.0,4.0,4.0,4.0,4.0,4.0,4.0,4.0,4.0,4.0,100.0,,,,,,,,,,,,,,,,,,,,,,,,,,,,,,,,,,,,,,,,,,,,,,,,,,,,,,,,,,,,,,,,,,,,,,,,,,,,,,,,,,,,,,,,,,,,,,,,,,,,,,,,,,,,,,,,,,,,,,,,,,,,,,,,,,,
