Timestamp,OriginalTimestamp,EEG.Counter,EEG.Interpolated,EEG.AF3,EEG.F7,EEG.F3,EEG.FC5,EEG.T7,EEG.P7,EEG.O1,EEG.O2,EEG.P8,EEG.T8,EEG.FC6,EEG.F4,EEG.F8,EEG.AF4,EEG.RawCq,EEG.Battery,EEG.BatteryPercent,MarkerIndex,MarkerType,MarkerValueInt,EEG.MarkerHardware,CQ.AF3,CQ.F7,CQ.F3,CQ.FC5,CQ.T7,CQ.P7,CQ.O1,CQ.O2,CQ.P8,CQ.T8,CQ.FC6,CQ.F4,CQ.F8,CQ.AF4,CQ.Overall,EQ.SampleRateQuality,EQ.OVERALL,EQ.AF3,EQ.F7,EQ.F3,EQ.FC5,EQ.T7,EQ.P7,EQ.O1,EQ.O2,EQ.P8,EQ.T8,EQ.FC6,EQ.F4,EQ.F8,EQ.AF4,MC.Action,MC.ActionPower,MC.IsActive,PM.Attention.IsActive,PM.Attention.Scaled,PM.Attention.Raw,PM.Attention.Min,PM.Attention.Max,PM.Engagement.IsActive,PM.Engagement.Scaled,PM.Engagement.Raw,PM.Engagement.Min,PM.Engagement.Max,PM.Excitement.IsActive,PM.Excitement.Scaled,PM.Excitement.Raw,PM.Excitement.Min,PM.Excitement.Max,PM.LongTermExcitement,PM.Stress.IsActive,PM.Stress.Scaled,PM.Stress.Raw,PM.Stress.Min,PM.Stress.Max,PM.Relaxation.IsActive,PM.Relaxation.Scaled,PM.Relaxation.Raw,PM.Relaxation.Min,PM.Relaxation.Max,PM.Interest.IsActive,PM.Interest.Scaled,PM.Interest.Raw,PM.Interest.Min,PM.Interest.Max,PM.Focus.IsActive,PM.Focus.Scaled,PM.Focus.Raw,PM.Focus.Min,PM.Focus.Max,FE.BlinkWink,FE.HorizontalEyesDirection,FE.UpperFaceAction,FE.UpperFaceActionPower,FE.LowerFaceAction,FE.LowerFaceActionPower,POW.AF3.Theta,POW.AF3.Alpha,POW.AF3.BetaL,POW.AF3.BetaH,POW.AF3.Gamma,POW.F7.Theta,POW.F7.Alpha,POW.F7.BetaL,POW.F7.BetaH,POW.F7.Gamma,POW.F3.Theta,POW.F3.Alpha,POW.F3.BetaL,POW.F3.BetaH,POW.F3.Gamma,POW.FC5.Theta,POW.FC5.Alpha,POW.FC5.BetaL,POW.FC5.BetaH,POW.FC5.Gamma,POW.T7.Theta,POW.T7.Alpha,POW.T7.BetaL,POW.T7.BetaH,POW.T7.Gamma,POW.P7.Theta,POW.P7.Alpha,POW.P7.BetaL,POW.P7.BetaH,POW.P7.Gamma,POW.O1.Theta,POW.O1.Alpha,POW.O1.BetaL,POW.O1.BetaH,POW.O1.Gamma,POW.O2.Theta,POW.O2.Alpha,POW.O2.BetaL,POW.O2.BetaH,POW.O2.Gamma,POW.P8.Theta,POW.P8.Alpha,POW.P8.BetaL,POW.P8.BetaH,POW.P8.Gamma,POW.T8.Theta,POW.T8.Alpha,POW.T8.BetaL,POW.T8.BetaH,POW.T8.Gamma,POW.FC6.Theta,POW.FC6.Alpha,POW.FC6.BetaL,POW.FC6.BetaH,POW.FC6.Gamma,POW.F4.Theta,POW.F4.Alpha,POW.F4.BetaL,POW.F4.BetaH,POW.F4.Gamma,POW.F8.Theta,POW.F8.Alpha,POW.F8.BetaL,POW.F8.BetaH,POW.F8.Gamma,POW.AF4.Theta,POW.AF4.Alpha,POW.AF4.BetaL,POW.AF4.BetaH,POW.AF4.Gamma
1725717255.779879,1725717255.782346,221.0,0.0,4233.717773,4275.384766,4279.102539,4278.461426,4247.94873,4383.333496,4216.538574,4230.769043,4225.0,4235.128418,4484.358887,4503.205078,4359.230957,4410.128418,3877.0,0.0,11.0,1.0,1.0,1.0,0.0,4.0,4.0,4.0,4.0,4.0,4.0,4.0,4.0,4.0,4.0,4.0,4.0,4.0,4.0,100.0,,,,,,,,,,,,,,,,,,,,,,,,,,,,,,,,,,,,,,,,,,,,,,,,,,,,,,,,,,,,,,,,,,,,,,,,,,,,,,,,,,,,,,,,,,,,,,,,,,,,,,,,,,,,,,,,,,,,,,,,,,,,,,,,,,,
1725717255.783783,1725717255.78625,222.0,0.0,4234.358887,4273.205078,4278.589844,4278.717773,4249.102539,4382.820313,4216.025879,4231.538574,4224.871582,4234.358887,4477.436035,4506.666504,4359.102539,4412.05127,2877.0,0.0,11.0,,,,0.0,4.0,4.0,4.0,4.0,4.0,4.0,4.0,4.0,4.0,4.0,4.0,4.0,4.0,4.0,100.0,,,,,,,,,,,,,,,,,,,,,,,,,,,,,,,,,,,,,,,,,,,,,,,,,,,,,,,,,,,,,,,,,,,,,,,,,,,,,,,,,,,,,,,,,,,,,,,,,,,,,,,,,,,,,,,,,,,,,,,,,,,,,,,,,,,
1725717255.787687,1725717255.790155,223.0,0.0,4236.410156,4272.05127,4278.461426,4279.102539,4249.102539,4382.94873,4214.230957,4232.179688,4221.922852,4233.077148,4472.692383,4509.487305,4358.333496,4413.077148,3127.0,0.0,11.0,,,,0.0,4.0,4.0,4.0,4.0,4.0,4.0,4.0,4.0,4.0,4.0,4.0,4.0,4.0,4.0,100.0,,,,,,,,,,,,,,,,,,,,,,,,,,,,,,,,,,,,,,,,,,,,,,,,,,,,,,,,,,,,,,,,,,,,,,,,,,,,,,,,,,,,,,,,,,,,,,,,,,,,,,,,,,,,,,,,,,,,,,,,,,,,,,,,,,,
1725717255.791592,1725717255.793959,224.0,0.0,4237.692383,4271.794922,4278.717773,4279.743652,4248.846191,4383.846191,4210.897461,4232.94873,4218.333496,4231.922852,4472.94873,4510.0,4357.307617,4412.179688,3426.0,0.0,11.0,,,,0.0,4.0,4.0,4.0,4.0,4.0,4.0,4.0,4.0,4.0,4.0,4.0,4.0,4.0,4.0,100.0,,,,,,,,,,,,,,,,,,,,,,,,,,,,,,,,,,,,,,,,,,,,,,,,,,,,,,,,,,,,,,,,,,,,,,,,,,,,,,,,,,,,,,,,,,,,,,,,,,,,,,,,,,,,,,,,,,,,,,,,,,,,,,,,,,,
1725717255.795496,1725717255.797863,225.0,0.0,4236.922852,4270.512695,4279.230957,4279.871582,4248.461426,4384.871582,4206.666504,4233.846191,4216.538574,4231.153809,4476.282227,4508.333496,4356.025879,4409.487305,3877.0,0.0,11.0,,,,0.0,4.0,4.0,4.0,4.0,4.0,4.0,4.0,4.0,4.0,4.0,4.0,4.0,4.0,4.0,100.0,,,,,,,,,,,,,,,,,,,,,,,,,,,,,,,,,,,,,,,,,,,,,,,,,,,,,,,,,,,,,,,,,,,,,,,,,,,,,,,,,,,,,,,,,,,,,,,,,,,,,,,,,,,,,,,,,,,,,,,,,,,,,,,,,,,
1725717255.7994,1725717255.801767,226.0,0.0,4234.871582,4266.538574,4279.487305,4278.974121,4247.820313,4385.512695,4203.205078,4233.974121,4217.179688,4230.384766,4477.820313,4506.282227,4354.358887,4406.922852,2877.0,0.0,11.0,,,,0.0,4.0,4.0,4.0,4.0,4.0,4.0,4.0,4.0,4.0,4.0,4.0,4.0,4.0,4.0,100.0,,,,,,,,,,,,,,,,,,,,,,,,,,,,,,,,,,,,,,,,,,,,,,,,,,,,,,,,,,,,,,,,,,,,,,,,,,,,,,,,,,,,,,,,,,,,,,,,,,,,,,,,,,,,,,,,,,,,,,,,,,,,,,,,,,,
1725717255.803304,1725717255.805771,227.0,0.0,4233.077148,4260.128418,4279.358887,4277.436035,4246.794922,4386.025879,4201.025879,4232.94873,4218.974121,4228.846191,4474.358887,4504.615234,4351.666504,4405.0,3127.0,0.0,11.0,,,,0.0,4.0,4.0,4.0,4.0,4.0,4.0,4.0,4.0,4.0,4.0,4.0,4.0,4.0,4.0,100.0,,,,,,,,,,,,,,,,,,,,,,,,,,,,,,,,,,,,,,,,,,,,,,,,,,,,,,,,,,,,,,,,,,,,,,,,,,,,,,,,,,,,,,,,,,,,,,,,,,,,,,,,,,,,,,,,,,,,,,,,,,,,,,,,,,,
1725717255.807208,1725717255.809675,228.0,0.0,4233.077148,4253.974121,4278.846191,4275.897461,4245.641113,4386.282227,4200.256348,4231.153809,4219.615234,4225.897461,4467.820313,4503.461426,4347.820313,4403.333496,3426.0,0.0,11.0,,,,0.0,4.0,4.0,4.0,4.0,4.0,4.0,4.0,4.0,4.0,4.0,4.0,4.0,4.0,4.0,100.0,,,,,,,,,,,,,,,,,,,,,,,,,,,,,,,,,,,,,,,,,,,,,,,,,,,,,,,,0.0,0.0,64.0,0.000216,1.0,0.0,,,,,,,,,,,,,,,,,,,,,,,,,,,,,,,,,,,,,,,,,,,,,,,,,,,,,,,,,,,,,,,,,,,,,,
1725717255.811112,1725717255.813579,229.0,0.0,4234.615234,4250.897461,4277.94873,4275.128418,4244.487305,4385.897461,4200.384766,4229.871582,4217.692383,4221.794922,4463.205078,4502.179688,4343.461426,4401.666504,3877.0,0.0,11.0,,,,0.0,4.0,4.0,4.0,4.0,4.0,4.0,4.0,4.0,4.0,4.0,4.0,4.0,4.0,4.0,100.0,,,,,,,,,,,,,,,,,,,,,,,,,,,,,,,,,,,,,,,,,,,,,,,,,,,,,,,,,,,,,,,,,,,,,,,,,,,,,,,,,,,,,,,,,,,,,,,,,,,,,,,,,,,,,,,,,,,,,,,,,,,,,,,,,,,
1725717255.815016,1725717255.817483,230.0,0.0,4236.153809,4252.307617,4277.692383,4275.512695,4243.974121,4385.128418,4201.410156,4229.615234,4214.615234,4217.307617,4463.589844,4500.897461,4340.384766,4400.256348,2877.0,0.0,11.0,,,,0.0,4.0,4.0,4.0,4.0,4.0,4.0,4.0,4.0,4.0,4.0,4.0,4.0,4.0,4.0,100.0,,,,,,,,,,,,,,,,,,,,,,,,,,,,,,,,,,,,,,,,,,,,,,,,,,,,,,,,,,,,,,,,,,,,,,,,,,,,,,,,,,,,,,,,,,,,,,,,,,,,,,,,,,,,,,,,,,,,,,,,,,,,,,,,,,,
1725717255.81892,1725717255.821287,231.0,0.0,4236.282227,4256.922852,4277.94873,4276.794922,4244.743652,4384.487305,4202.563965,4229.358887,4213.205078,4214.358887,4467.820313,4499.743652,4339.358887,4400.128418,3127.0,0.0,11.0,,,,0.0,4.0,4.0,4.0,4.0,4.0,4.0,4.0,4.0,4.0,4.0,4.0,4.0,4.0,4.0,100.0,,,,,,,,,,,,,,,,,,,,,,,,,,,,,,,,,,,,,,,,,,,,,,,,,,,,,,,,,,,,,,,,,,,,,,,,,,,,,,,,,,,,,,,,,,,,,,,,,,,,,,,,,,,,,,,,,,,,,,,,,,,,,,,,,,,
1725717255.822824,1725717255.825192,232.0,0.0,4235.0,4261.794922,4278.333496,4278.205078,4246.922852,4384.358887,4202.820313,4227.436035,4214.487305,4213.974121,4471.922852,4498.077148,4340.256348,4400.897461,3426.0,0.0,11.0,,,,0.0,4.0,4.0,4.0,4.0,4.0,4.0,4.0,4.0,4.0,4.0,4.0,4.0,4.0,4.0,100.0,,,,,,,,,,,,,,,,,,,,,,,,,,,,,,,,,,,,,,,,,,,,,,,,,,,,,,,,,,,,,,,,,,,,,,,,,,,,,,,,,,,,,,,,,,,,,,,,,,,,,,,,,,,,,,,,,,,,,,,,,,,,,,,,,,,
1725717255.826728,1725717255.829096,233.0,0.0,4233.461426,4264.743652,4278.333496,4278.717773,4248.846191,4384.615234,4200.897461,4223.589844,4216.666504,4215.769043,4472.563965,4495.384766,4341.538574,4401.282227,3877.0,0.0,11.0,,,,0.0,4.0,4.0,4.0,4.0,4.0,4.0,4.0,4.0,4.0,4.0,4.0,4.0,4.0,4.0,100.0,,,,,,,,,,,,,,,,,,,,,,,,,,,,,,,,,,,,,,,,,,,,,,,,,,,,,,,,,,,,,,,,,,,,,,,,,,,,,,,,,,,,,,,,,,,,,,,,,,,,,,,,,,,,,,,,,,,,,,,,,,,,,,,,,,,
1725717255.830632,1725717255.833,234.0,0.0,4232.820313,4264.871582,4277.692383,4278.205078,4248.846191,4384.102539,4196.282227,4219.358887,4217.179688,4217.692383,4469.871582,4492.692383,4342.307617,4400.769043,2877.0,0.0,11.0,,,,0.0,4.0,4.0,4.0,4.0,4.0,4.0,4.0,4.0,4.0,4.0,4.0,4.0,4.0,4.0,100.0,,,,,,,,,,,,,,,,,,,,,,,,,,,,,,,,,,,,,,,,,,,,,,,,,,,,,,,,,,,,,,,,,,,,,,,,,,,,,,,,,,,,,,,,,,,,,,,,,,,,,,,,,,,,,,,,,,,,,,,,,,,,,,,,,,,
1725717255.834536,1725717255.836804,235.0,0.0,4234.102539,4263.974121,4276.794922,4277.307617,4246.025879,4381.794922,4190.256348,4216.282227,4215.0,4217.94873,4467.05127,4491.282227,4342.179688,4399.487305,3127.0,0.0,11.0,,,,0.0,4.0,4.0,4.0,4.0,4.0,4.0,4.0,4.0,4.0,4.0,4.0,4.0,4.0,4.0,100.0,,,,,,,,,,,,,,,,,,,,,,,,,,,,,,,,,,,,,,,,,,,,,,,,,,,,,,,,,,,,,,,,,,,,,,,,,,,,,,,,,,,,,,,,,,,,,,,,,,,,,,,,,,,,,,,,,,,,,,,,,,,,,,,,,,,
1725717255.838441,1725717255.840708,236.0,0.0,4237.307617,4263.974121,4276.025879,4276.666504,4241.666504,4377.692383,4184.615234,4215.128418,4211.410156,4216.666504,4467.563965,4491.538574,4342.05127,4398.717773,3426.0,0.0,11.0,,,,0.0,4.0,4.0,4.0,4.0,4.0,4.0,4.0,4.0,4.0,4.0,4.0,4.0,4.0,4.0,100.0,,,,,,,,,,,,,,,,,,,,,,,,,,,,,,,,,,,,,,,,,,,,,,,,,,,,,,,,0.0,0.0,64.0,0.000216,1.0,0.0,,,,,,,,,,,,,,,,,,,,,,,,,,,,,,,,,,,,,,,,,,,,,,,,,,,,,,,,,,,,,,,,,,,,,,
1725717255.842345,1725717255.844612,237.0,0.0,4242.05127,4265.256348,4275.769043,4276.666504,4237.05127,4373.333496,4181.282227,4214.871582,4208.846191,4215.512695,4472.179688,4492.179688,4342.94873,4398.589844,3877.0,0.0,11.0,,,,0.0,4.0,4.0,4.0,4.0,4.0,4.0,4.0,4.0,4.0,4.0,4.0,4.0,4.0,4.0,100.0,,,,,,,,,,,,,,,,,,,,,,,,,,,,,,,,,,,,,,,,,,,,,,,,,,,,,,,,,,,,,,,,,,,,,,,,,,,,,,,,,,,,,,,,,,,,,,,,,,,,,,,,,,,,,,,,,,,,,,,,,,,,,,,,,,,
1725717255.846249,1725717255.848516,238.0,0.0,4246.538574,4266.794922,4276.410156,4277.05127,4233.846191,4370.384766,4181.153809,4214.487305,4208.974121,4216.410156,4477.563965,4491.794922,4345.641113,4399.230957,2877.0,0.0,11.0,,,,0.0,4.0,4.0,4.0,4.0,4.0,4.0,4.0,4.0,4.0,4.0,4.0,4.0,4.0,4.0,100.0,,,,,,,,,,,,,,,,,,,,,,,,,,,,,,,,,,,,,,,,,,,,,,,,,,,,,,,,,,,,,,,,,,,,,,,,,,,,,,,,,,,,,,,,,,,,,,,,,,,,,,,,,,,,,,,,,,,,,,,,,,,,,,,,,,,
1725717255.850153,1725717255.85232,239.0,0.0,4248.846191,4266.666504,4277.179688,4277.05127,4232.436035,4369.871582,4182.820313,4214.230957,4211.282227,4220.0,4478.846191,4490.769043,4348.846191,4400.384766,3127.0,0.0,11.0,,,,0.0,4.0,4.0,4.0,4.0,4.0,4.0,4.0,4.0,4.0,4.0,4.0,4.0,4.0,4.0,100.0,,,,,,,,,,,,,,,,,,,,,,,,,,,,,,,,,,,,,,,,,,,,,,,,,,,,,,,,,,,,,,,,,,,,,,,,,,,,,,,,,,,,,,,,,,,,,,,,,,,,,,,,,,,,,,,,,,,,,,,,,,,,,,,,,,,
1725717255.854057,1725717255.856225,240.0,0.0,4248.461426,4265.0,4277.436035,4276.410156,4232.436035,4371.666504,4184.230957,4215.384766,4215.128418,4224.871582,4473.589844,4491.410156,4351.410156,4401.922852,3426.0,0.0,11.0,,,,0.0,4.0,4.0,4.0,4.0,4.0,4.0,4.0,4.0,4.0,4.0,4.0,4.0,4.0,4.0,100.0,,,,,,,,,,,,,,,,,,,,,,,,,,,,,,,,,,,,,,,,,,,,,,,,,,,,,,,,,,,,,,,,,,,,,,,,,,,,,,,,,,,,,,,,,,,,,,,,,,,,,,,,,,,,,,,,,,,,,,,,,,,,,,,,,,,
1725717255.857961,1725717255.860129,241.0,0.0,4246.538574,4263.846191,4277.307617,4275.256348,4233.333496,4374.102539,4183.461426,4219.102539,4219.358887,4229.230957,4464.743652,4495.384766,4352.307617,4404.230957,3877.0,0.0,11.0,,,,0.0,4.0,4.0,4.0,4.0,4.0,4.0,4.0,4.0,4.0,4.0,4.0,4.0,4.0,4.0,100.0,,,,,,,,,,,,,,,,,,,,,,,,,,,,,,,,,,,,,,,,,,,,,,,,,,,,,,,,,,,,,,,,,,,,,,,,,,,,,,,,,,,,,,,,,,,,,,,,,,,,,,,,,,,,,,,,,,,,,,,,,,,,,,,,,,,
1725717255.861865,1725717255.864133,242.0,0.0,4245.0,4265.769043,4277.436035,4274.487305,4234.358887,4375.256348,4181.025879,4225.128418,4223.461426,4231.922852,4459.358887,4501.922852,4351.922852,4407.307617,2877.0,0.0,11.0,,,,0.0,4.0,4.0,4.0,4.0,4.0,4.0,4.0,4.0,4.0,4.0,4.0,4.0,4.0,4.0,100.0,,,,,,,,,,,,,,,,,,,,,,,,,,,,,,,,,,,,,,,,,,,,,,,,,,,,,,,,,,,,,,,,,,,,,,,,,,,,,,,,,,,,,,,,,,,,,,,,,,,,,,,,,,,,,,,,,,,,,,,,,,,,,,,,,,,
1725717255.865769,1725717255.868037,243.0,0.0,4245.0,4271.025879,4278.974121,4275.0,4235.128418,4374.871582,4178.974121,4231.153809,4227.05127,4233.077148,4462.692383,4508.205078,4351.410156,4410.641113,3127.0,0.0,11.0,,,,0.0,4.0,4.0,4.0,4.0,4.0,4.0,4.0,4.0,4.0,4.0,4.0,4.0,4.0,4.0,100.0,,,,,,,,,,,,,,,,,,,,,,,,,,,,,,,,,,,,,,,,,,,,,,,,,,,,,,,,,,,,,,,,,,,,,,,,,,,,,,,,,,,,,,,,,,,,,,,,,,,,,,,,,,,,,,,,,,,,,,,,,,,,,,,,,,,
1725717255.869673,1725717255.871941,244.0,0.0,4246.282227,4277.436035,4281.410156,4276.794922,4235.512695,4373.717773,4178.974121,4234.743652,4230.0,4233.205078,4473.846191,4511.282227,4352.05127,4413.077148,3426.0,0.0,11.0,,,,0.0,4.0,4.0,4.0,4.0,4.0,4.0,4.0,4.0,4.0,4.0,4.0,4.0,4.0,4.0,100.0,,,,,,,,,,,,,,,,,1.0,0.0,0.0,,,,,,,,,,,,,,,,,,,,,,,,,,,,,,,,,,,,,0.0,0.0,64.0,0.002423,1.0,0.0,1.976572,1.313555,0.385404,0.233747,0.12706,1.873268,1.332167,0.489566,0.247473,0.071702,1.380063,1.180612,0.381645,0.300823,0.119154,1.285446,0.784662,0.404075,0.219129,0.111151,0.581808,0.35631,0.213144,0.195334,0.09958,0.374734,0.299947,0.293258,0.112155,0.057904,1.581155,0.507156,0.105166,0.108278,0.069505,0.877787,3.448064,1.415676,0.6719,0.302496,1.128525,3.140819,0.713472,0.567986,0.133264,1.741159,2.207873,1.082131,0.697452,0.191628,3.152675,4.738336,1.319135,0.970301,0.393461,3.628249,4.230376,1.151888,1.130775,0.351826,3.080408,3.710118,1.638332,0.646194,0.204542,3.053693,2.087293,1.03089,0.651937,0.195345
1725717255.873577,1725717255.875845,245.0,0.0,4248.077148,4281.794922,4283.717773,4279.230957,4235.512695,4373.205078,4181.025879,4235.512695,4231.538574,4232.94873,4486.025879,4510.512695,4353.717773,4413.846191,3877.0,0.0,11.0,,,,0.0,4.0,4.0,4.0,4.0,4.0,4.0,4.0,4.0,4.0,4.0,4.0,4.0,4.0,4.0,100.0,,,,,,,,,,,,,,,,,,,,,,,,,,,,,,,,,,,,,,,,,,,,,,,,,,,,,,,,,,,,,,,,,,,,,,,,,,,,,,,,,,,,,,,,,,,,,,,,,,,,,,,,,,,,,,,,,,,,,,,,,,,,,,,,,,,
1725717255.877482,1725717255.879849,246.0,0.0,4249.230957,4282.94873,4284.615234,4281.538574,4235.512695,4374.102539,4183.461426,4234.871582,4231.794922,4232.820313,4491.666504,4507.563965,4355.384766,4412.820313,2877.0,0.0,11.0,,,,0.0,4.0,4.0,4.0,4.0,4.0,4.0,4.0,4.0,4.0,4.0,4.0,4.0,4.0,4.0,100.0,,,,,,,,,,,,,,,,,,,,,,,,,,,,,,,,,,,,,,,,,,,,,,,,,,,,,,,,,,,,,,,,,,,,,,,,,,,,,,,,,,,,,,,,,,,,,,,,,,,,,,,,,,,,,,,,,,,,,,,,,,,,,,,,,,,
1725717255.881386,1725717255.883753,247.0,0.0,4249.487305,4281.410156,4283.974121,4283.333496,4236.025879,4376.666504,4184.615234,4234.358887,4231.153809,4232.94873,4488.589844,4506.025879,4356.282227,4411.025879,3127.0,0.0,11.0,,,,0.0,4.0,4.0,4.0,4.0,4.0,4.0,4.0,4.0,4.0,4.0,4.0,4.0,4.0,4.0,100.0,,,,,,,,,,,,,,,,,,,,,,,,,,,,,,,,,,,,,,,,,,,,,,,,,,,,,,,,,,,,,,,,,,,,,,,,,,,,,,,,,,,,,,,,,,,,,,,,,,,,,,,,,,,,,,,,,,,,,,,,,,,,,,,,,,,
1725717255.88529,1725717255.887657,248.0,0.0,4249.102539,4279.102539,4282.820313,4285.0,4237.563965,4379.487305,4184.358887,4234.615234,4230.384766,4233.205078,4480.769043,4507.05127,4356.538574,4410.384766,3426.0,0.0,11.0,,,,0.0,4.0,4.0,4.0,4.0,4.0,4.0,4.0,4.0,4.0,4.0,4.0,4.0,4.0,4.0,100.0,,,,,,,,,,,,,,,,,,,,,,,,,,,,,,,,,,,,,,,,,,,,,,,,,,,,,,,,,,,,,,,,,,,,,,,,,,,,,,,,,,,,,,,,,,,,,,,,,,,,,,,,,,,,,,,,,,,,,,,,,,,,,,,,,,,
1725717255.889194,1725717255.891561,249.0,0.0,4248.589844,4277.563965,4282.05127,4287.05127,4239.743652,4381.666504,4183.589844,4235.512695,4230.641113,4233.461426,4474.230957,4509.358887,4357.436035,4411.794922,3877.0,0.0,11.0,,,,0.0,4.0,4.0,4.0,4.0,4.0,4.0,4.0,4.0,4.0,4.0,4.0,4.0,4.0,4.0,100.0,,,,,,,,,,,,,,,,,,,,,,,,,,,,,,,,,,,,,,,,,,,,,,,,,,,,,,,,,,,,,,,,,,,,,,,,,,,,,,,,,,,,,,,,,,,,,,,,,,,,,,,,,,,,,,,,,,,,,,,,,,,,,,,,,,,
1725717255.893098,1725717255.895465,250.0,0.0,4248.461426,4277.94873,4282.179688,4289.615234,4242.436035,4382.179688,4183.333496,4236.538574,4232.05127,4233.461426,4473.589844,4510.641113,4359.102539,4414.230957,2877.0,0.0,11.0,,,,0.0,4.0,4.0,4.0,4.0,4.0,4.0,4.0,4.0,4.0,4.0,4.0,4.0,4.0,4.0,100.0,,,,,,,,,,,,,,,,,,,,,,,,,,,,,,,,,,,,,,,,,,,,,,,,,,,,,,,,,,,,,,,,,,,,,,,,,,,,,,,,,,,,,,,,,,,,,,,,,,,,,,,,,,,,,,,,,,,,,,,,,,,,,,,,,,,
1725717255.897002,1725717255.89927,251.0,0.0,4248.974121,4280.128418,4282.820313,4292.179688,4245.0,4381.025879,4183.717773,4237.692383,4233.846191,4233.974121,4478.717773,4509.743652,4361.282227,4415.384766,3127.0,0.0,11.0,,,,0.0,4.0,4.0,4.0,4.0,4.0,4.0,4.0,4.0,4.0,4.0,4.0,4.0,4.0,4.0,100.0,,,,,,,,,,,,,,,,,,,,,,,,,,,,,,,,,,,,,,,,,,,,,,,,,,,,,,,,,,,,,,,,,,,,,,,,,,,,,,,,,,,,,,,,,,,,,,,,,,,,,,,,,,,,,,,,,,,,,,,,,,,,,,,,,,,
1725717255.900906,1725717255.903174,252.0,0.0,4249.871582,4283.589844,4283.589844,4294.102539,4247.179688,4378.846191,4184.487305,4238.589844,4234.615234,4234.743652,4486.282227,4507.692383,4362.820313,4414.230957,3426.0,0.0,11.0,,,,0.0,4.0,4.0,4.0,4.0,4.0,4.0,4.0,4.0,4.0,4.0,4.0,4.0,4.0,4.0,100.0,,,,,,,,,,,,,,,,,,,,,,,,,,,,,,,,,,,,,,,,,,,,,,,,,,,,,,,,0.0,0.0,64.0,0.002423,1.0,0.0,,,,,,,,,,,,,,,,,,,,,,,,,,,,,,,,,,,,,,,,,,,,,,,,,,,,,,,,,,,,,,,,,,,,,,
1725717255.90481,1725717255.907078,253.0,0.0,4250.897461,4286.666504,4283.589844,4294.871582,4248.333496,4376.025879,4185.128418,4239.102539,4233.717773,4235.512695,4491.794922,4506.538574,4364.102539,4412.436035,3877.0,0.0,11.0,,,,0.0,4.0,4.0,4.0,4.0,4.0,4.0,4.0,4.0,4.0,4.0,4.0,4.0,4.0,4.0,100.0,,,,,,,,,,,,,,,,,,,,,,,,,,,,,,,,,,,,,,,,,,,,,,,,,,,,,,,,,,,,,,,,,,,,,,,,,,,,,,,,,,,,,,,,,,,,,,,,,,,,,,,,,,,,,,,,,,,,,,,,,,,,,,,,,,,
1725717255.908714,1725717255.911082,254.0,0.0,4251.282227,4288.461426,4283.077148,4294.743652,4248.333496,4373.717773,4185.769043,4239.358887,4231.922852,4236.025879,4492.692383,4507.05127,4366.025879,4412.820313,2877.0,0.0,11.0,,,,0.0,4.0,4.0,4.0,4.0,4.0,4.0,4.0,4.0,4.0,4.0,4.0,4.0,4.0,4.0,100.0,,,,,,,,,,,,,,,,,,,,,,,,,,,,,,,,,,,,,,,,,,,,,,,,,,,,,,,,,,,,,,,,,,,,,,,,,,,,,,,,,,,,,,,,,,,,,,,,,,,,,,,,,,,,,,,,,,,,,,,,,,,,,,,,,,,
1725717255.912619,1725717255.914986,255.0,0.0,4250.897461,4288.717773,4282.307617,4294.102539,4246.794922,4372.692383,4186.153809,4239.358887,4230.128418,4236.025879,4489.871582,4508.846191,4369.230957,4417.179688,11.0,0.0,11.0,,,,0.0,4.0,4.0,4.0,4.0,4.0,4.0,4.0,4.0,4.0,4.0,4.0,4.0,4.0,4.0,100.0,,,,,,,,,,,,,,,,,,,,,,,,,,,,,,,,,,,,,,,,,,,,,,,,,,,,,,,,,,,,,,,,,,,,,,,,,,,,,,,,,,,,,,,,,,,,,,,,,,,,,,,,,,,,,,,,,,,,,,,,,,,,,,,,,,,
1725717255.916523,1725717255.91889,0.0,0.0,4249.743652,4288.333496,4281.794922,4293.333496,4243.846191,4373.205078,4186.410156,4239.102539,4228.205078,4235.512695,4486.666504,4510.769043,4372.307617,4423.461426,2692.0,0.0,11.0,,,,0.0,4.0,4.0,4.0,4.0,4.0,4.0,4.0,4.0,4.0,4.0,4.0,4.0,4.0,4.0,100.0,,,,,,,,,,,,,,,,,,,,,,,,,,,,,,,,,,,,,,,,,,,,,,,,,,,,,,,,,,,,,,,,,,,,,,,,,,,,,,,,,,,,,,,,,,,,,,,,,,,,,,,,,,,,,,,,,,,,,,,,,,,,,,,,,,,
1725717255.920427,1725717255.922794,1.0,0.0,4248.077148,4287.692383,4281.410156,4292.179688,4240.0,4374.615234,4186.410156,4238.717773,4225.384766,4234.102539,4485.128418,4511.666504,4373.077148,4428.077148,2571.0,0.0,11.0,,,,0.0,4.0,4.0,4.0,4.0,4.0,4.0,4.0,4.0,4.0,4.0,4.0,4.0,4.0,4.0,100.0,,,,,,,,,,,,,,,,,,,,,,,,,,,,,,,,,,,,,,,,,,,,,,,,,,,,,,,,,,,,,,,,,,,,,,,,,,,,,,,,,,,,,,,,,,,,,,,,,,,,,,,,,,,,,,,,,,,,,,,,,,,,,,,,,,,
1725717255.924331,1725717255.926598,2.0,0.0,4246.282227,4287.563965,4280.384766,4290.897461,4236.153809,4375.641113,4186.025879,4238.205078,4221.794922,4232.05127,4485.384766,4511.025879,4370.897461,4428.077148,2506.0,0.0,11.0,,,,0.0,4.0,4.0,4.0,4.0,4.0,4.0,4.0,4.0,4.0,4.0,4.0,4.0,4.0,4.0,100.0,,,,,,,,,,,,,,,,,,,,,,,,,,,,,,,,,,,,,,,,,,,,,,,,,,,,,,,,,,,,,,,,,,,,,,,,,,,,,,,,,,,,,,,,,,,,,,,,,,,,,,,,,,,,,,,,,,,,,,,,,,,,,,,,,,,
1725717255.928235,1725717255.930502,3.0,0.0,4245.0,4288.205078,4278.589844,4289.615234,4233.461426,4375.128418,4185.384766,4237.436035,4218.974121,4230.384766,4486.282227,4508.974121,4367.563965,4424.230957,2469.0,0.0,11.0,,,,0.0,4.0,4.0,4.0,4.0,4.0,4.0,4.0,4.0,4.0,4.0,4.0,4.0,4.0,4.0,100.0,,,,,,,,,,,,,,,,,,,,,,,,,,,,,,,,,,,,,,,,,,,,,,,,,,,,,,,,,,,,,,,,,,,,,,,,,,,,,,,,,,,,,,,,,,,,,,,,,,,,,,,,,,,,,,,,,,,,,,,,,,,,,,,,,,,
1725717255.932139,1725717255.934407,4.0,0.0,4245.128418,4290.0,4277.179688,4289.487305,4232.563965,4372.563965,4185.256348,4235.897461,4217.820313,4230.641113,4487.436035,4506.794922,4366.282227,4419.743652,2439.0,0.0,11.0,,,,0.0,4.0,4.0,4.0,4.0,4.0,4.0,4.0,4.0,4.0,4.0,4.0,4.0,4.0,4.0,100.0,,,,,,,,,,,,,,,,,,,,,,,,,,,,,,,,,,,,,,,,,,,,,,,,,,,,,,,,0.0,0.0,64.0,0.002423,1.0,0.0,,,,,,,,,,,,,,,,,,,,,,,,,,,,,,,,,,,,,,,,,,,,,,,,,,,,,,,,,,,,,,,,,,,,,,
1725717255.936043,1725717255.938311,5.0,0.0,4247.436035,4292.307617,4277.820313,4290.897461,4233.205078,4368.589844,4185.641113,4233.333496,4218.077148,4232.563965,4488.846191,4506.153809,4368.077148,4418.205078,2399.0,0.0,11.0,,,,0.0,4.0,4.0,4.0,4.0,4.0,4.0,4.0,4.0,4.0,4.0,4.0,4.0,4.0,4.0,100.0,,,,,,,,,,,,,,,,,,,,,,,,,,,,,,,,,,,,,,,,,,,,,,,,,,,,,,,,,,,,,,,,,,,,,,,,,,,,,,,,,,,,,,,,,,,,,,,,,,,,,,,,,,,,,,,,,,,,,,,,,,,,,,,,,,,
1725717255.939947,1725717255.942115,6.0,0.0,4251.666504,4293.717773,4280.897461,4293.333496,4234.358887,4364.743652,4186.025879,4230.128418,4218.717773,4234.487305,4490.128418,4508.333496,4370.897461,4420.897461,2428.0,0.0,11.0,,,,0.0,4.0,4.0,4.0,4.0,4.0,4.0,4.0,4.0,4.0,4.0,4.0,4.0,4.0,4.0,100.0,,,,,,,,,,,,,,,,,,,,,,,,,,,,,,,,,,,,,,,,,,,,,,,,,,,,,,,,,,,,,,,,,,,,,,,,,,,,,,,,,,,,,,,,,,,,,,,,,,,,,,,,,,,,,,,,,,,,,,,,,,,,,,,,,,,
1725717255.943851,1725717255.946019,7.0,0.0,4256.666504,4293.974121,4285.512695,4296.153809,4234.743652,4362.692383,4185.897461,4227.94873,4218.846191,4234.487305,4490.897461,4512.820313,4371.666504,4426.153809,2494.0,0.0,11.0,,,,0.0,4.0,4.0,4.0,4.0,4.0,4.0,4.0,4.0,4.0,4.0,4.0,4.0,4.0,4.0,100.0,,,,,,,,,,,,,,,,,,,,,,,,,,,,,,,,,,,,,,,,,,,,,,,,,,,,,,,,,,,,,,,,,,,,,,,,,,,,,,,,,,,,,,,,,,,,,,,,,,,,,,,,,,,,,,,,,,,,,,,,,,,,,,,,,,,
1725717255.947755,1725717255.950023,8.0,0.0,4261.282227,4294.487305,4290.0,4298.461426,4234.230957,4362.820313,4185.256348,4228.333496,4218.974121,4232.94873,4491.282227,4518.333496,4370.128418,4430.641113,2464.0,0.0,11.0,,,,0.0,4.0,4.0,4.0,4.0,4.0,4.0,4.0,4.0,4.0,4.0,4.0,4.0,4.0,4.0,100.0,,,,,,,,,,,,,,,,,,,,,,,,,,,,,,,,,,,,,,,,,,,,,,,,,,,,,,,,,,,,,,,,,,,,,,,,,,,,,,,,,,,,,,,,,,,,,,,,,,,,,,,,,,,,,,,,,,,,,,,,,,,,,,,,,,,
1725717255.95166,1725717255.953927,9.0,0.0,4264.487305,4296.538574,4293.461426,4300.641113,4233.461426,4364.487305,4185.769043,4232.307617,4220.256348,4232.179688,4491.922852,4523.077148,4368.717773,4432.436035,2556.0,0.0,11.0,,,,0.0,4.0,4.0,4.0,4.0,4.0,4.0,4.0,4.0,4.0,4.0,4.0,4.0,4.0,4.0,100.0,,,,,,,,,,,,,,,,,,,,,,,,,,,,,,,,,,,,,,,,,,,,,,,,,,,,,,,,,,,,,,,,,,,,,,,,,,,,,,,,,,,,,,,,,,,,,,,,,,,,,,,,,,,,,,,,,,,,,,,,,,,,,,,,,,,
1725717255.955564,1725717255.957831,10.0,0.0,4266.410156,4299.615234,4296.025879,4302.436035,4233.589844,4366.153809,4188.717773,4238.846191,4223.589844,4234.615234,4492.820313,4525.769043,4369.871582,4432.05127,2902.0,0.0,11.0,,,,0.0,4.0,4.0,4.0,4.0,4.0,4.0,4.0,4.0,4.0,4.0,4.0,4.0,4.0,4.0,100.0,,,,,,,,,,,,,,,,,,,,,,,,,,,,,,,,,,,,,,,,,,,,,,,,,,,,,,,,,,,,,,,,,,,,,,,,,,,,,,,,,,,,,,,,,,,,,,,,,,,,,,,,,,,,,,,,,,,,,,,,,,,,,,,,,,,
1725717255.959468,1725717255.961735,11.0,0.0,4267.307617,4301.025879,4297.563965,4303.717773,4234.615234,4366.922852,4193.461426,4245.256348,4228.589844,4240.256348,4493.846191,4526.153809,4373.846191,4431.025879,3126.0,0.0,11.0,,,,0.0,4.0,4.0,4.0,4.0,4.0,4.0,4.0,4.0,4.0,4.0,4.0,4.0,4.0,4.0,100.0,,,,,,,,,,,,,,,,,,,,,,,,,,,,,,,,,,,,,,,,,,,,,,,,,,,,,,,,,,,,,,,,,,,,,,,,,,,,,,,,,,,,,,,,,,,,,,,,,,,,,,,,,,,,,,,,,,,,,,,,,,,,,,,,,,,
1725717255.963372,1725717255.965639,12.0,0.0,4267.307617,4298.205078,4297.563965,4303.846191,4235.769043,4366.538574,4197.94873,4249.487305,4233.461426,4246.794922,4494.230957,4524.871582,4378.461426,4430.769043,3446.0,0.0,11.0,,,,0.0,4.0,4.0,4.0,4.0,4.0,4.0,4.0,4.0,4.0,4.0,4.0,4.0,4.0,4.0,100.0,,,,,,,,,,,,,,,,,,,,,,,,,,,,,,,,,,,,,,,,,,,,,,,,,,,,,,,,0.0,0.0,64.0,0.002423,1.0,0.0,,,,,,,,,,,,,,,,,,,,,,,,,,,,,,,,,,,,,,,,,,,,,,,,,,,,,,,,,,,,,,,,,,,,,,
1725717255.967276,1725717255.969643,13.0,0.0,4266.282227,4291.282227,4295.384766,4302.563965,4235.897461,4365.128418,4200.0,4251.153809,4236.282227,4251.025879,4493.846191,4523.205078,4380.897461,4430.641113,3846.0,0.0,11.0,,,,0.0,4.0,4.0,4.0,4.0,4.0,4.0,4.0,4.0,4.0,4.0,4.0,4.0,4.0,4.0,100.0,,,,,,,,,,,,,,,,,,,,,,,,,,,,,,,,,,,,,,,,,,,,,,,,,,,,,,,,,,,,,,,,,,,,,,,,,,,,,,,,,,,,,,,,,,,,,,,,,,,,,,,,,,,,,,,,,,,,,,,,,,,,,,,,,,,
1725717255.97118,1725717255.973548,14.0,0.0,4264.358887,4283.333496,4291.410156,4300.384766,4235.128418,4363.589844,4198.974121,4251.153809,4236.666504,4251.666504,4493.205078,4522.05127,4380.0,4429.615234,2902.0,0.0,11.0,,,,0.0,4.0,4.0,4.0,4.0,4.0,4.0,4.0,4.0,4.0,4.0,4.0,4.0,4.0,4.0,100.0,,,,,,,,,,,,,,,,,,,,,,,,,,,,,,,,,,,,,,,,,,,,,,,,,,,,,,,,,,,,,,,,,,,,,,,,,,,,,,,,,,,,,,,,,,,,,,,,,,,,,,,,,,,,,,,,,,,,,,,,,,,,,,,,,,,
1725717255.975084,1725717255.977452,15.0,0.0,4262.05127,4278.974121,4286.410156,4297.94873,4233.974121,4362.820313,4197.05127,4250.128418,4235.384766,4249.615234,4493.077148,4521.794922,4376.794922,4427.563965,3126.0,0.0,11.0,,,,0.0,4.0,4.0,4.0,4.0,4.0,4.0,4.0,4.0,4.0,4.0,4.0,4.0,4.0,4.0,100.0,,,,,,,,,,,,,,,,,,,,,,,,,,,,,,,,,,,,,,,,,,,,,,,,,,,,,,,,,,,,,,,,,,,,,,,,,,,,,,,,,,,,,,,,,,,,,,,,,,,,,,,,,,,,,,,,,,,,,,,,,,,,,,,,,,,
1725717255.978988,1725717255.981356,16.0,0.0,4260.384766,4280.384766,4282.179688,4296.025879,4233.717773,4363.846191,4196.794922,4249.230957,4234.358887,4247.94873,4493.333496,4522.05127,4374.871582,4425.769043,3446.0,0.0,11.0,,,,0.0,4.0,4.0,4.0,4.0,4.0,4.0,4.0,4.0,4.0,4.0,4.0,4.0,4.0,4.0,100.0,,,,,,,,,,,,,,,,,,,,,,,,,,,,,,,,,,,,,,,,,,,,,,,,,,,,,,,,,,,,,,,,,,,,,,,,,,,,,,,,,,,,,,,,,,,,,,,,,,,,,,,,,,,,,,,,,,,,,,,,,,,,,,,,,,,
1725717255.982892,1725717255.98536,17.0,0.0,4259.487305,4286.794922,4279.743652,4295.256348,4234.230957,4366.538574,4198.717773,4248.974121,4234.487305,4248.717773,4494.102539,4522.692383,4376.666504,4425.897461,3846.0,0.0,11.0,,,,0.0,4.0,4.0,4.0,4.0,4.0,4.0,4.0,4.0,4.0,4.0,4.0,4.0,4.0,4.0,100.0,,,,,,,,,,,,,,,,,,,,,,,,,,,,,,,,,,,,,,,,,,,,,,,,,,,,,,,,,,,,,,,,,,,,,,,,,,,,,,,,,,,,,,,,,,,,,,,,,,,,,,,,,,,,,,,,,,,,,,,,,,,,,,,,,,,
1725717255.986796,1725717255.989264,18.0,0.0,4259.358887,4294.615234,4279.358887,4295.512695,4235.128418,4370.0,4200.897461,4249.615234,4235.512695,4251.538574,4495.0,4523.077148,4381.922852,4427.820313,2902.0,0.0,11.0,,,,0.0,4.0,4.0,4.0,4.0,4.0,4.0,4.0,4.0,4.0,4.0,4.0,4.0,4.0,4.0,100.0,,,,,,,,,,,,,,,,,,,,,,,,,,,,,,,,,,,,,,,,,,,,,,,,,,,,,,,,,,,,,,,,,,,,,,,,,,,,,,,,,,,,,,,,,,,,,,,,,,,,,,,,,,,,,,,,,,,,,,,,,,,,,,,,,,,
1725717255.9907,1725717255.993168,19.0,0.0,4259.487305,4300.128418,4280.384766,4296.025879,4236.025879,4372.307617,4200.256348,4250.0,4236.153809,4253.589844,4495.512695,4523.205078,4387.05127,4430.128418,3126.0,0.0,11.0,,,,0.0,4.0,4.0,4.0,4.0,4.0,4.0,4.0,4.0,4.0,4.0,4.0,4.0,4.0,4.0,100.0,,,,,,,,,,,,,,,,,,,,,,,,,,,,,,,,,,,,,,,,,,,,,,,,,,,,,,,,,,,,,,,,,,,,,,,,,,,,,,,,,,,,,,,,,,,,,,,,,,,,,,,,,,,,,,,,,,,,,,,,,,,,,,,,,,,
1725717255.994604,1725717255.997072,20.0,0.0,4259.358887,4301.282227,4281.282227,4295.769043,4236.025879,4372.05127,4195.897461,4249.102539,4234.871582,4252.05127,4495.384766,4522.563965,4388.589844,4430.384766,3446.0,0.0,11.0,,,,0.0,4.0,4.0,4.0,4.0,4.0,4.0,4.0,4.0,4.0,4.0,4.0,4.0,4.0,4.0,100.0,,,,,,,,,,,,,,,,,1.0,0.0,0.0,,,,,,,,,,,,,,,,,,,,,,,,,,,,,,,,,,,,,0.0,0.0,1.0,0.0,1.0,0.0,1.98988,1.687378,0.395508,0.252378,0.125667,1.950324,1.391401,0.551565,0.256463,0.066613,1.404792,1.297009,0.360764,0.302873,0.114974,1.231283,0.95945,0.401907,0.181581,0.096405,0.576641,0.363503,0.199231,0.186518,0.100637,0.33464,0.306093,0.259939,0.100181,0.050794,1.797372,0.434862,0.112626,0.116051,0.072535,0.952567,3.14525,1.400056,0.705648,0.256357,1.238758,3.093447,0.708526,0.587405,0.130586,1.845639,2.217294,1.160312,0.754914,0.203709,3.328643,4.846759,1.362741,1.002997,0.355472,3.553329,4.67245,1.158197,1.080684,0.364497,3.16421,3.696607,1.625945,0.719945,0.211958,3.042506,2.406359,0.973153,0.656515,0.186962
1725717255.998509,1725717256.000976,21.0,0.0,4258.589844,4298.205078,4280.897461,4294.871582,4235.641113,4369.615234,4190.0,4247.05127,4232.05127,4246.282227,4494.102539,4521.538574,4385.0,4428.333496,3846.0,0.0,11.0,,,,0.0,4.0,4.0,4.0,4.0,4.0,4.0,4.0,4.0,4.0,4.0,4.0,4.0,4.0,4.0,100.0,,,,,,,,,,,,,,,,,,,,,,,,,,,,,,,,,,,,,,,,,,,,,,,,,,,,,,,,,,,,,,,,,,,,,,,,,,,,,,,,,,,,,,,,,,,,,,,,,,,,,,,,,,,,,,,,,,,,,,,,,,,,,,,,,,,
1725717256.002413,1725717256.00478,22.0,0.0,4257.563965,4292.563965,4279.871582,4294.102539,4235.384766,4366.282227,4185.512695,4245.0,4229.230957,4239.230957,4492.179688,4520.769043,4378.333496,4425.897461,2902.0,0.0,11.0,,,,0.0,4.0,4.0,4.0,4.0,4.0,4.0,4.0,4.0,4.0,4.0,4.0,4.0,4.0,4.0,100.0,,,,,,,,,,,,,,,,,,,,,,,,,,,,,,,,,,,,,,,,,,,,,,,,,,,,,,,,,,,,,,,,,,,,,,,,,,,,,,,,,,,,,,,,,,,,,,,,,,,,,,,,,,,,,,,,,,,,,,,,,,,,,,,,,,,
1725717256.006317,1725717256.008684,23.0,0.0,4257.436035,4286.922852,4279.102539,4294.230957,4235.384766,4364.102539,4184.615234,4242.692383,4227.94873,4233.974121,4490.256348,4520.897461,4372.94873,4425.0,3126.0,0.0,11.0,,,,0.0,4.0,4.0,4.0,4.0,4.0,4.0,4.0,4.0,4.0,4.0,4.0,4.0,4.0,4.0,100.0,,,,,,,,,,,,,,,,,,,,,,,,,,,,,,,,,,,,,,,,,,,,,,,,,,,,,,,,,,,,,,,,,,,,,,,,,,,,,,,,,,,,,,,,,,,,,,,,,,,,,,,,,,,,,,,,,,,,,,,,,,,,,,,,,,,
1725717256.010221,1725717256.012589,24.0,0.0,4258.717773,4282.94873,4279.230957,4295.128418,4235.384766,4363.846191,4186.538574,4239.358887,4228.333496,4232.692383,4489.358887,4521.794922,4372.179688,4426.025879,3446.0,0.0,11.0,,,,0.0,4.0,4.0,4.0,4.0,4.0,4.0,4.0,4.0,4.0,4.0,4.0,4.0,4.0,4.0,100.0,,,,,,,,,,,,,,,,,,,,,,,,,,,,,,,,,,,,,,,,,,,,,,,,,,,,,,,,,,,,,,,,,,,,,,,,,,,,,,,,,,,,,,,,,,,,,,,,,,,,,,,,,,,,,,,,,,,,,,,,,,,,,,,,,,,
1725717256.014125,1725717256.016393,25.0,0.0,4260.769043,4281.410156,4279.743652,4296.025879,4235.0,4365.128418,4188.717773,4235.128418,4229.743652,4234.358887,4489.487305,4522.820313,4376.922852,4427.94873,3846.0,0.0,11.0,,,,0.0,4.0,4.0,4.0,4.0,4.0,4.0,4.0,4.0,4.0,4.0,4.0,4.0,4.0,4.0,100.0,,,,,,,,,,,,,,,,,,,,,,,,,,,,,,,,,,,,,,,,,,,,,,,,,,,,,,,,,,,,,,,,,,,,,,,,,,,,,,,,,,,,,,,,,,,,,,,,,,,,,,,,,,,,,,,,,,,,,,,,,,,,,,,,,,,
1725717256.018029,1725717256.020297,26.0,0.0,4262.307617,4281.794922,4279.871582,4296.025879,4234.615234,4366.794922,4189.102539,4231.922852,4231.025879,4236.538574,4490.384766,4523.333496,4385.256348,4430.0,2902.0,0.0,11.0,,,,0.0,4.0,4.0,4.0,4.0,4.0,4.0,4.0,4.0,4.0,4.0,4.0,4.0,4.0,4.0,100.0,,,,,,,,,,,,,,,,,,,,,,,,,,,,,,,,,,,,,,,,,,,,,,,,,,,,,,,,,,,,,,,,,,,,,,,,,,,,,,,,,,,,,,,,,,,,,,,,,,,,,,,,,,,,,,,,,,,,,,,,,,,,,,,,,,,
1725717256.021933,1725717256.024201,27.0,0.0,4262.692383,4284.102539,4279.358887,4295.128418,4235.128418,4367.436035,4187.820313,4231.538574,4231.153809,4237.307617,4491.410156,4523.205078,4393.205078,4431.538574,3126.0,0.0,11.0,,,,0.0,4.0,4.0,4.0,4.0,4.0,4.0,4.0,4.0,4.0,4.0,4.0,4.0,4.0,4.0,100.0,,,,,,,,,,,,,,,,,,,,,,,,,,,,,,,,,,,,,,,,,,,,,,,,,,,,,,,,,,,,,,,,,,,,,,,,,,,,,,,,,,,,,,,,,,,,,,,,,,,,,,,,,,,,,,,,,,,,,,,,,,,,,,,,,,,
1725717256.025837,1725717256.028205,28.0,0.0,4262.436035,4287.820313,4278.589844,4294.871582,4236.794922,4366.666504,4187.307617,4233.974121,4229.615234,4236.153809,4492.179688,4523.205078,4397.692383,4432.563965,3446.0,0.0,11.0,,,,0.0,4.0,4.0,4.0,4.0,4.0,4.0,4.0,4.0,4.0,4.0,4.0,4.0,4.0,4.0,100.0,,,,,,,,,,,,,,,,,,,,,,,,,,,,,,,,,,,,,,,,,,,,,,,,,,,,,,,,0.0,0.0,1.0,0.0,1.0,0.0,,,,,,,,,,,,,,,,,,,,,,,,,,,,,,,,,,,,,,,,,,,,,,,,,,,,,,,,,,,,,,,,,,,,,,
1725717256.029741,1725717256.032109,29.0,0.0,4263.333496,4292.179688,4277.692383,4296.538574,4239.358887,4365.128418,4189.230957,4237.563965,4226.922852,4234.615234,4493.077148,4524.487305,4397.820313,4433.717773,3846.0,0.0,11.0,,,,0.0,4.0,4.0,4.0,4.0,4.0,4.0,4.0,4.0,4.0,4.0,4.0,4.0,4.0,4.0,100.0,,,,,,,,,,,,,,,,,,,,,,,,,,,,,,,,,,,,,,,,,,,,,,,,,,,,,,,,,,,,,,,,,,,,,,,,,,,,,,,,,,,,,,,,,,,,,,,,,,,,,,,,,,,,,,,,,,,,,,,,,,,,,,,,,,,
1725717256.033646,1725717256.036013,30.0,0.0,4266.025879,4295.0,4276.794922,4300.512695,4241.538574,4363.717773,4192.94873,4241.666504,4224.871582,4234.743652,4494.487305,4528.589844,4395.769043,4436.666504,2902.0,0.0,11.0,,,,0.0,4.0,4.0,4.0,4.0,4.0,4.0,4.0,4.0,4.0,4.0,4.0,4.0,4.0,4.0,100.0,,,,,,,,,,,,,,,,,,,,,,,,,,,,,,,,,,,,,,,,,,,,,,,,,,,,,,,,,,,,,,,,,,,,,,,,,,,,,,,,,,,,,,,,,,,,,,,,,,,,,,,,,,,,,,,,,,,,,,,,,,,,,,,,,,,
1725717256.03755,1725717256.039917,31.0,0.0,4269.615234,4295.512695,4276.538574,4305.641113,4242.563965,4362.820313,4196.282227,4246.794922,4225.641113,4237.692383,4496.538574,4536.153809,4395.769043,4442.179688,3126.0,0.0,11.0,,,,0.0,4.0,4.0,4.0,4.0,4.0,4.0,4.0,4.0,4.0,4.0,4.0,4.0,4.0,4.0,100.0,,,,,,,,,,,,,,,,,,,,,,,,,,,,,,,,,,,,,,,,,,,,,,,,,,,,,,,,,,,,,,,,,,,,,,,,,,,,,,,,,,,,,,,,,,,,,,,,,,,,,,,,,,,,,,,,,,,,,,,,,,,,,,,,,,,
1725717256.041454,1725717256.043821,32.0,0.0,4273.077148,4294.358887,4278.077148,4310.256348,4242.94873,4362.692383,4197.692383,4252.820313,4229.871582,4243.461426,4499.871582,4545.897461,4400.0,4449.743652,0.0,0.0,11.0,,,,0.0,4.0,4.0,4.0,4.0,4.0,4.0,4.0,4.0,4.0,4.0,4.0,4.0,4.0,4.0,100.0,,,,,,,,,,,,,,,,,,,,,,,,,,,,,,,,,,,,,,,,,,,,,,,,,,,,,,,,,,,,,,,,,,,,,,,,,,,,,,,,,,,,,,,,,,,,,,,,,,,,,,,,,,,,,,,,,,,,,,,,,,,,,,,,,,,
1725717256.045358,1725717256.047626,33.0,0.0,4276.025879,4292.820313,4281.922852,4313.205078,4243.717773,4363.461426,4197.436035,4258.205078,4235.769043,4249.487305,4504.230957,4554.615234,4406.922852,4457.05127,0.0,0.0,11.0,,,,0.0,4.0,4.0,4.0,4.0,4.0,4.0,4.0,4.0,4.0,4.0,4.0,4.0,4.0,4.0,100.0,,,,,,,,,,,,,,,,,,,,,,,,,,,,,,,,,,,,,,,,,,,,,,,,,,,,,,,,,,,,,,,,,,,,,,,,,,,,,,,,,,,,,,,,,,,,,,,,,,,,,,,,,,,,,,,,,,,,,,,,,,,,,,,,,,,
1725717256.049262,1725717256.05153,34.0,0.0,4278.461426,4292.179688,4286.794922,4313.974121,4245.384766,4365.256348,4196.538574,4261.282227,4240.256348,4253.333496,4508.333496,4559.358887,4412.179688,4461.025879,0.0,0.0,11.0,,,,0.0,4.0,4.0,4.0,4.0,4.0,4.0,4.0,4.0,4.0,4.0,4.0,4.0,4.0,4.0,100.0,,,,,,,,,,,,,,,,,,,,,,,,,,,,,,,,,,,,,,,,,,,,,,,,,,,,,,,,,,,,,,,,,,,,,,,,,,,,,,,,,,,,,,,,,,,,,,,,,,,,,,,,,,,,,,,,,,,,,,,,,,,,,,,,,,,
1725717256.053166,1725717256.055534,35.0,0.0,4279.743652,4292.820313,4290.512695,4313.077148,4247.563965,4366.922852,4196.282227,4261.153809,4241.282227,4253.589844,4510.256348,4558.461426,4411.922852,4460.0,0.0,0.0,11.0,,,,0.0,4.0,4.0,4.0,4.0,4.0,4.0,4.0,4.0,4.0,4.0,4.0,4.0,4.0,4.0,100.0,,,,,,,,,,,,,,,,,,,,,,,,,,,,,,,,,,,,,,,,,,,,,,,,,,,,,,,,,,,,,,,,,,,,,,,,,,,,,,,,,,,,,,,,,,,,,,,,,,,,,,,,,,,,,,,,,,,,,,,,,,,,,,,,,,,
1725717256.05707,1725717256.059438,36.0,0.0,4278.974121,4294.487305,4290.641113,4310.769043,4248.974121,4366.538574,4196.922852,4258.461426,4238.717773,4251.410156,4508.717773,4552.692383,4405.769043,4454.615234,0.0,0.0,11.0,,,,0.0,4.0,4.0,4.0,4.0,4.0,4.0,4.0,4.0,4.0,4.0,4.0,4.0,4.0,4.0,100.0,,,,,,,,,,,,,,,,,,,,,,,,,,,,,,,,,,,,,,,,,,,,,,,,,,,,,,,,0.0,0.0,1.0,0.0,1.0,0.0,,,,,,,,,,,,,,,,,,,,,,,,,,,,,,,,,,,,,,,,,,,,,,,,,,,,,,,,,,,,,,,,,,,,,,
1725717256.060974,1725717256.063342,37.0,0.0,4276.025879,4295.897461,4287.05127,4307.820313,4248.717773,4363.461426,4197.820313,4253.717773,4234.358887,4249.102539,4503.846191,4544.230957,4396.794922,4447.436035,0.0,0.0,11.0,,,,0.0,4.0,4.0,4.0,4.0,4.0,4.0,4.0,4.0,4.0,4.0,4.0,4.0,4.0,4.0,100.0,,,,,,,,,,,,,,,,,,,,,,,,,,,,,,,,,,,,,,,,,,,,,,,,,,,,,,,,,,,,,,,,,,,,,,,,,,,,,,,,,,,,,,,,,,,,,,,,,,,,,,,,,,,,,,,,,,,,,,,,,,,,,,,,,,,
1725717256.064878,1725717256.067246,38.0,0.0,4271.666504,4296.025879,4281.922852,4304.871582,4247.692383,4359.358887,4198.333496,4247.436035,4230.512695,4247.820313,4497.692383,4535.512695,4388.846191,4441.794922,0.0,0.0,11.0,,,,0.0,4.0,4.0,4.0,4.0,4.0,4.0,4.0,4.0,4.0,4.0,4.0,4.0,4.0,4.0,100.0,,,,,,,,,,,,,,,,,,,,,,,,,,,,,,,,,,,,,,,,,,,,,,,,,,,,,,,,,,,,,,,,,,,,,,,,,,,,,,,,,,,,,,,,,,,,,,,,,,,,,,,,,,,,,,,,,,,,,,,,,,,,,,,,,,,
1725717256.068782,1725717256.07115,39.0,0.0,4268.077148,4294.871582,4278.077148,4302.94873,4247.307617,4356.922852,4198.717773,4241.282227,4228.974121,4247.179688,4492.563965,4529.102539,4385.0,4440.0,0.0,0.0,11.0,,,,0.0,4.0,4.0,4.0,4.0,4.0,4.0,4.0,4.0,4.0,4.0,4.0,4.0,4.0,4.0,100.0,,,,,,,,,,,,,,,,,,,,,,,,,,,,,,,,,,,,,,,,,,,,,,,,,,,,,,,,,,,,,,,,,,,,,,,,,,,,,,,,,,,,,,,,,,,,,,,,,,,,,,,,,,,,,,,,,,,,,,,,,,,,,,,,,,,
1725717256.072687,1725717256.075154,40.0,0.0,4267.179688,4293.589844,4277.820313,4303.077148,4248.589844,4357.94873,4199.871582,4237.692383,4230.0,4246.153809,4490.512695,4527.179688,4385.897461,4441.794922,0.0,0.0,11.0,,,,0.0,4.0,4.0,4.0,4.0,4.0,4.0,4.0,4.0,4.0,4.0,4.0,4.0,4.0,4.0,100.0,,,,,,,,,,,,,,,,,,,,,,,,,,,,,,,,,,,,,,,,,,,,,,,,,,,,,,,,,,,,,,,,,,,,,,,,,,,,,,,,,,,,,,,,,,,,,,,,,,,,,,,,,,,,,,,,,,,,,,,,,,,,,,,,,,,
1725717256.076591,1725717256.079058,41.0,0.0,4269.871582,4294.230957,4280.641113,4305.512695,4251.282227,4361.410156,4201.794922,4238.717773,4232.05127,4243.846191,4491.666504,4530.128418,4390.128418,4445.512695,0.0,0.0,11.0,,,,0.0,4.0,4.0,4.0,4.0,4.0,4.0,4.0,4.0,4.0,4.0,4.0,4.0,4.0,4.0,100.0,,,,,,,,,,,,,,,,,,,,,,,,,,,,,,,,,,,,,,,,,,,,,,,,,,,,,,,,,,,,,,,,,,,,,,,,,,,,,,,,,,,,,,,,,,,,,,,,,,,,,,,,,,,,,,,,,,,,,,,,,,,,,,,,,,,
1725717256.080495,1725717256.082962,42.0,0.0,4274.743652,4297.436035,4284.358887,4309.230957,4253.205078,4364.615234,4203.333496,4243.205078,4232.563965,4240.128418,4494.230957,4535.256348,4394.743652,4448.333496,0.0,0.0,11.0,,,,0.0,4.0,4.0,4.0,4.0,4.0,4.0,4.0,4.0,4.0,4.0,4.0,4.0,4.0,4.0,100.0,,,,,,,,,,,,,,,,,,,,,,,,,,,,,,,,,,,,,,,,,,,,,,,,,,,,,,,,,,,,,,,,,,,,,,,,,,,,,,,,,,,,,,,,,,,,,,,,,,,,,,,,,,,,,,,,,,,,,,,,,,,,,,,,,,,
1725717256.084399,1725717256.086866,43.0,0.0,4278.589844,4301.666504,4285.641113,4312.307617,4252.563965,4364.871582,4203.461426,4247.436035,4230.128418,4235.641113,4495.384766,4538.333496,4396.282227,4448.461426,0.0,0.0,11.0,,,,0.0,4.0,4.0,4.0,4.0,4.0,4.0,4.0,4.0,4.0,4.0,4.0,4.0,4.0,4.0,100.0,,,,,,,,,,,,,,,,,,,,,,,,,,,,,,,,,,,,,,,,,,,,,,,,,,,,,,,,,,,,,,,,,,,,,,,,,,,,,,,,,,,,,,,,,,,,,,,,,,,,,,,,,,,,,,,,,,,,,,,,,,,,,,,,,,,
1725717256.088303,1725717256.09087,44.0,0.0,4278.974121,4304.230957,4283.333496,4312.820313,4249.743652,4362.179688,4201.922852,4247.179688,4224.871582,4231.538574,4493.974121,4536.794922,4392.563965,4445.897461,0.0,0.0,11.0,,,,0.0,4.0,4.0,4.0,4.0,4.0,4.0,4.0,4.0,4.0,4.0,4.0,4.0,4.0,4.0,100.0,,,,,,,,,,,,,,,,,,,,,,,,,,,,,,,,,,,,,,,,,,,,,,,,,,,,,,,,0.0,0.0,1.0,0.0,1.0,0.0,,,,,,,,,,,,,,,,,,,,,,,,,,,,,,,,,,,,,,,,,,,,,,,,,,,,,,,,,,,,,,,,,,,,,,
1725717256.092207,1725717256.094775,45.0,0.0,4275.512695,4303.717773,4279.487305,4311.025879,4246.922852,4357.94873,4200.256348,4241.922852,4219.487305,4229.487305,4491.025879,4531.538574,4385.0,4442.692383,0.0,0.0,11.0,,,,0.0,4.0,4.0,4.0,4.0,4.0,4.0,4.0,4.0,4.0,4.0,4.0,4.0,4.0,4.0,100.0,,,,,,,,,,,,,,,,,,,,,,,,,,,,,,,,,,,,,,,,,,,,,,,,,,,,,,,,,,,,,,,,,,,,,,,,,,,,,,,,,,,,,,,,,,,,,,,,,,,,,,,,,,,,,,,,,,,,,,,,,,,,,,,,,,,
1725717256.096111,1725717256.098679,46.0,0.0,4270.512695,4300.897461,4276.922852,4308.974121,4246.666504,4354.743652,4199.871582,4234.615234,4216.666504,4230.512695,4488.846191,4525.769043,4376.922852,4440.641113,0.0,0.0,11.0,,,,0.0,4.0,4.0,4.0,4.0,4.0,4.0,4.0,4.0,4.0,4.0,4.0,4.0,4.0,4.0,100.0,,,,,,,,,,,,,,,,,,,,,,,,,,,,,,,,,,,,,,,,,,,,,,,,,,,,,,,,,,,,,,,,,,,,,,,,,,,,,,,,,,,,,,,,,,,,,,,,,,,,,,,,,,,,,,,,,,,,,,,,,,,,,,,,,,,
1725717256.100015,1725717256.102583,47.0,0.0,4267.05127,4297.692383,4277.179688,4308.589844,4248.461426,4353.589844,4200.512695,4229.102539,4216.922852,4234.230957,4488.077148,4522.179688,4371.666504,4439.743652,0.0,0.0,11.0,,,,0.0,4.0,4.0,4.0,4.0,4.0,4.0,4.0,4.0,4.0,4.0,4.0,4.0,4.0,4.0,100.0,,,,,,,,,,,,,,,,,,,,,,,,,,,,,,,,,,,,,,,,,,,,,,,,,,,,,,,,,,,,,,,,,,,,,,,,,,,,,,,,,,,,,,,,,,,,,,,,,,,,,,,,,,,,,,,,,,,,,,,,,,,,,,,,,,,
1725717256.103919,1725717256.106487,48.0,0.0,4265.897461,4295.384766,4278.717773,4309.743652,4249.743652,4353.974121,4200.897461,4227.820313,4218.589844,4237.563965,4487.692383,4521.666504,4368.974121,4438.461426,0.0,0.0,11.0,,,,0.0,4.0,4.0,4.0,4.0,4.0,4.0,4.0,4.0,4.0,4.0,4.0,4.0,4.0,4.0,100.0,,,,,,,,,,,,,,,,,,,,,,,,,,,,,,,,,,,,,,,,,,,,,,,,,,,,,,,,,,,,,,,,,,,,,,,,,,,,,,,,,,,,,,,,,,,,,,,,,,,,,,,,,,,,,,,,,,,,,,,,,,,,,,,,,,,
1725717256.107823,1725717256.110291,49.0,0.0,4265.769043,4293.461426,4278.589844,4310.641113,4247.94873,4354.102539,4199.102539,4230.641113,4219.615234,4236.922852,4485.384766,4523.077148,4366.666504,4435.256348,0.0,0.0,11.0,,,,0.0,4.0,4.0,4.0,4.0,4.0,4.0,4.0,4.0,4.0,4.0,4.0,4.0,4.0,4.0,100.0,,,,,,,,,,,,,,,,,,,,,,,,,,,,,,,,,,,,,,,,,,,,,,,,,,,,,,,,,,,,,,,,,,,,,,,,,,,,,,,,,,,,,,,,,,,,,,,,,,,,,,,,,,,,,,,,,,,,,,,,,,,,,,,,,,,
1725717256.111728,1725717256.114195,50.0,0.0,4263.589844,4290.256348,4275.256348,4309.102539,4242.94873,4352.307617,4194.358887,4235.128418,4218.846191,4231.025879,4480.384766,4524.487305,4361.922852,4429.871582,0.0,0.0,11.0,,,,0.0,4.0,4.0,4.0,4.0,4.0,4.0,4.0,4.0,4.0,4.0,4.0,4.0,4.0,4.0,100.0,,,,,,,,,,,,,,,,,,,,,,,,,,,,,,,,,,,,,,,,,,,,,,,,,,,,,,,,,,,,,,,,,,,,,,,,,,,,,,,,,,,,,,,,,,,,,,,,,,,,,,,,,,,,,,,,,,,,,,,,,,,,,,,,,,,
1725717256.115632,1725717256.118099,51.0,0.0,4258.077148,4285.0,4269.358887,4304.615234,4236.538574,4348.846191,4188.333496,4238.333496,4217.436035,4222.563965,4474.358887,4524.743652,4354.871582,4423.461426,0.0,0.0,11.0,,,,0.0,4.0,4.0,4.0,4.0,4.0,4.0,4.0,4.0,4.0,4.0,4.0,4.0,4.0,4.0,100.0,,,,,,,,,,,,,,,,,,,,,,,,,,,,,,,,,,,,,,,,,,,,,,,,,,,,,,,,,,,,,,,,,,,,,,,,,,,,,,,,,,,,,,,,,,,,,,,,,,,,,,,,,,,,,,,,,,,,,,,,,,,,,,,,,,,
1725717256.119536,1725717256.121903,52.0,0.0,4250.897461,4279.230957,4263.589844,4298.846191,4231.922852,4345.128418,4183.461426,4239.102539,4217.307617,4216.282227,4470.384766,4523.461426,4348.077148,4417.94873,0.0,0.0,11.0,,,,0.0,4.0,4.0,4.0,4.0,4.0,4.0,4.0,4.0,4.0,4.0,4.0,4.0,4.0,4.0,100.0,1.0,75.0,4.0,4.0,4.0,4.0,4.0,4.0,1.0,4.0,4.0,4.0,4.0,4.0,4.0,4.0,1.0,0.0,0.0,1.0,0.499966,-7.966474,-12.266636,-4.374736,1.0,0.75248,-0.29285,-1.044092,0.044323,1.0,0.713056,5.052778,2.164785,6.214947,0.748809,1.0,0.485535,136.563564,-775.147516,1091.539716,1.0,0.448605,0.140384,0.080914,0.236622,1.0,0.590027,5.59163,-12.055947,19.349279,1.0,0.632797,0.632797,0.0,1.0,0.0,0.0,1.0,0.0,1.0,0.0,2.033235,2.237668,0.450556,0.282486,0.121965,2.060636,1.5136,0.664796,0.285591,0.0641,1.504179,1.601774,0.353354,0.3114,0.111573,1.359423,1.242868,0.428848,0.16828,0.089204,0.679301,0.389797,0.224241,0.171643,0.097449,0.302756,0.329275,0.220422,0.088815,0.043967,2.055596,0.439012,0.141237,0.128024,0.07437,1.104641,2.833376,1.267417,0.708366,0.209777,1.450013,2.964751,0.700847,0.589813,0.124834,2.050732,2.311704,1.310301,0.798468,0.211295,3.695598,4.974485,1.438192,1.023845,0.334777,3.646574,5.261771,1.128705,0.995179,0.375894,3.398815,3.743281,1.614539,0.816108,0.21202,3.138829,2.96888,0.905124,0.652843,0.179586
1725717256.12344,1725717256.125808,53.0,0.0,4246.025879,4275.512695,4260.128418,4294.230957,4230.769043,4342.94873,4181.410156,4239.487305,4220.384766,4216.410156,4470.128418,4521.666504,4345.0,4415.0,0.0,0.0,11.0,,,,0.0,4.0,4.0,4.0,4.0,4.0,4.0,4.0,4.0,4.0,4.0,4.0,4.0,4.0,4.0,100.0,,,,,,,,,,,,,,,,,,,,,,,,,,,,,,,,,,,,,,,,,,,,,,,,,,,,,,,,,,,,,,,,,,,,,,,,,,,,,,,,,,,,,,,,,,,,,,,,,,,,,,,,,,,,,,,,,,,,,,,,,,,,,,,,,,,
1725717256.127344,1725717256.129712,54.0,0.0,4246.282227,4275.384766,4259.871582,4292.307617,4232.179688,4342.563965,4182.05127,4241.282227,4226.153809,4223.077148,4472.563965,4520.256348,4346.666504,4415.0,0.0,0.0,11.0,,,,0.0,4.0,4.0,4.0,4.0,4.0,4.0,4.0,4.0,4.0,4.0,4.0,4.0,4.0,4.0,100.0,,,,,,,,,,,,,,,,,,,,,,,,,,,,,,,,,,,,,,,,,,,,,,,,,,,,,,,,,,,,,,,,,,,,,,,,,,,,,,,,,,,,,,,,,,,,,,,,,,,,,,,,,,,,,,,,,,,,,,,,,,,,,,,,,,,
1725717256.131248,1725717256.133716,55.0,0.0,4250.897461,4278.077148,4261.153809,4293.077148,4233.974121,4342.820313,4183.846191,4244.358887,4231.794922,4232.307617,4475.512695,4518.717773,4350.641113,4416.538574,0.0,0.0,11.0,,,,0.0,4.0,4.0,4.0,4.0,4.0,4.0,4.0,4.0,4.0,4.0,4.0,4.0,4.0,4.0,100.0,,,,,,,,,,,,,,,,,,,,,,,,,,,,,,,,,,,,,,,,,,,,,,,,,,,,,,,,,,,,,,,,,,,,,,,,,,,,,,,,,,,,,,,,,,,,,,,,,,,,,,,,,,,,,,,,,,,,,,,,,,,,,,,,,,,
1725717256.135152,1725717256.13762,56.0,0.0,4256.666504,4281.410156,4261.794922,4294.871582,4234.102539,4342.307617,4185.256348,4245.897461,4233.717773,4238.846191,4476.794922,4515.769043,4353.077148,4417.436035,0.0,0.0,11.0,,,,0.0,4.0,4.0,4.0,4.0,4.0,4.0,4.0,4.0,4.0,4.0,4.0,4.0,4.0,4.0,100.0,,,,,,,,,,,,,,,,,,,,,,,,,,,,,,,,,,,,,,,,,,,,,,,,,,,,,,,,,,,,,,,,,,,,,,,,,,,,,,,,,,,,,,,,,,,,,,,,,,,,,,,,,,,,,,,,,,,,,,,,,,,,,,,,,,,
1725717256.139056,1725717256.141524,57.0,0.0,4260.256348,4282.692383,4261.153809,4295.769043,4232.563965,4341.282227,4185.256348,4245.128418,4230.641113,4239.230957,4476.025879,4511.153809,4351.794922,4416.666504,0.0,0.0,11.0,,,,0.0,4.0,4.0,4.0,4.0,4.0,4.0,4.0,4.0,4.0,4.0,4.0,4.0,4.0,4.0,100.0,,,,,,,,,,,,,,,,,,,,,,,,,,,,,,,,,,,,,,,,,,,,,,,,,,,,,,,,,,,,,,,,,,,,,,,,,,,,,,,,,,,,,,,,,,,,,,,,,,,,,,,,,,,,,,,,,,,,,,,,,,,,,,,,,,,
1725717256.14296,1725717256.145428,58.0,0.0,4259.871582,4281.410156,4260.256348,4295.128418,4230.641113,4340.769043,4184.230957,4243.589844,4224.743652,4234.743652,4473.846191,4507.179688,4347.94873,4414.615234,0.0,0.0,11.0,,,,0.0,4.0,4.0,4.0,4.0,4.0,4.0,4.0,4.0,4.0,4.0,4.0,4.0,4.0,4.0,100.0,,,,,,,,,,,,,,,,,,,,,,,,,,,,,,,,,,,,,,,,,,,,,,,,,,,,,,,,,,,,,,,,,,,,,,,,,,,,,,,,,,,,,,,,,,,,,,,,,,,,,,,,,,,,,,,,,,,,,,,,,,,,,,,,,,,
1725717256.146865,1725717256.149332,59.0,0.0,4256.025879,4279.230957,4260.256348,4293.846191,4230.256348,4341.538574,4182.307617,4243.461426,4219.743652,4229.743652,4471.282227,4506.153809,4344.230957,4413.077148,0.0,0.0,11.0,,,,0.0,4.0,4.0,4.0,4.0,4.0,4.0,4.0,4.0,4.0,4.0,4.0,4.0,4.0,4.0,100.0,,,,,,,,,,,,,,,,,,,,,,,,,,,,,,,,,,,,,,,,,,,,,,,,,,,,,,,,,,,,,,,,,,,,,,,,,,,,,,,,,,,,,,,,,,,,,,,,,,,,,,,,,,,,,,,,,,,,,,,,,,,,,,,,,,,
1725717256.150769,1725717256.153136,60.0,0.0,4251.666504,4278.205078,4260.897461,4293.717773,4231.410156,4343.333496,4179.230957,4244.615234,4217.94873,4228.333496,4469.230957,4508.333496,4342.307617,4412.436035,0.0,0.0,11.0,,,,0.0,4.0,4.0,4.0,4.0,4.0,4.0,4.0,4.0,4.0,4.0,4.0,4.0,4.0,4.0,100.0,,,,,,,,,,,,,,,,,,,,,,,,,,,,,,,,,,,,,,,,,,,,,,,,,,,,,,,,0.0,0.0,1.0,0.0,1.0,0.0,,,,,,,,,,,,,,,,,,,,,,,,,,,,,,,,,,,,,,,,,,,,,,,,,,,,,,,,,,,,,,,,,,,,,,
1725717256.154673,1725717256.15704,61.0,0.0,4249.230957,4278.333496,4260.769043,4294.871582,4232.94873,4345.384766,4175.384766,4244.230957,4218.717773,4230.897461,4467.307617,4511.153809,4341.922852,4412.436035,0.0,0.0,11.0,,,,0.0,4.0,4.0,4.0,4.0,4.0,4.0,4.0,4.0,4.0,4.0,4.0,4.0,4.0,4.0,100.0,,,,,,,,,,,,,,,,,,,,,,,,,,,,,,,,,,,,,,,,,,,,,,,,,,,,,,,,,,,,,,,,,,,,,,,,,,,,,,,,,,,,,,,,,,,,,,,,,,,,,,,,,,,,,,,,,,,,,,,,,,,,,,,,,,,
1725717256.158577,1725717256.160945,62.0,0.0,4249.102539,4278.077148,4258.846191,4296.025879,4233.461426,4346.410156,4171.153809,4240.512695,4219.743652,4233.717773,4465.128418,4511.410156,4341.794922,4412.179688,0.0,0.0,11.0,,,,0.0,4.0,4.0,4.0,4.0,4.0,4.0,4.0,4.0,4.0,4.0,4.0,4.0,4.0,4.0,100.0,,,,,,,,,,,,,,,,,,,,,,,,,,,,,,,,,,,,,,,,,,,,,,,,,,,,,,,,,,,,,,,,,,,,,,,,,,,,,,,,,,,,,,,,,,,,,,,,,,,,,,,,,,,,,,,,,,,,,,,,,,,,,,,,,,,
1725717256.162481,1725717256.164849,63.0,0.0,4249.358887,4276.025879,4255.384766,4295.128418,4232.179688,4346.153809,4168.333496,4235.256348,4219.102539,4232.436035,4462.820313,4509.230957,4340.256348,4411.410156,0.0,0.0,11.0,,,,0.0,4.0,4.0,4.0,4.0,4.0,4.0,4.0,4.0,4.0,4.0,4.0,4.0,4.0,4.0,100.0,,,,,,,,,,,,,,,,,,,,,,,,,,,,,,,,,,,,,,,,,,,,,,,,,,,,,,,,,,,,,,,,,,,,,,,,,,,,,,,,,,,,,,,,,,,,,,,,,,,,,,,,,,,,,,,,,,,,,,,,,,,,,,,,,,,
1725717256.166385,1725717256.168653,64.0,0.0,4248.461426,4272.179688,4252.436035,4291.410156,4230.0,4344.487305,4167.563965,4233.717773,4217.307617,4226.410156,4461.410156,4506.922852,4337.820313,4410.384766,0.0,0.0,11.0,,,,0.0,4.0,4.0,4.0,4.0,4.0,4.0,4.0,4.0,4.0,4.0,4.0,4.0,4.0,4.0,100.0,,,,,,,,,,,,,,,,,,,,,,,,,,,,,,,,,,,,,,,,,,,,,,,,,,,,,,,,,,,,,,,,,,,,,,,,,,,,,,,,,,,,,,,,,,,,,,,,,,,,,,,,,,,,,,,,,,,,,,,,,,,,,,,,,,,
1725717256.170289,1725717256.172557,65.0,0.0,4246.922852,4268.846191,4251.794922,4286.538574,4228.589844,4342.94873,4167.94873,4238.589844,4216.282227,4219.743652,4462.05127,4506.538574,4336.025879,4409.871582,0.0,0.0,11.0,,,,0.0,4.0,4.0,4.0,4.0,4.0,4.0,4.0,4.0,4.0,4.0,4.0,4.0,4.0,4.0,100.0,,,,,,,,,,,,,,,,,,,,,,,,,,,,,,,,,,,,,,,,,,,,,,,,,,,,,,,,,,,,,,,,,,,,,,,,,,,,,,,,,,,,,,,,,,,,,,,,,,,,,,,,,,,,,,,,,,,,,,,,,,,,,,,,,,,
1725717256.174193,1725717256.176561,66.0,0.0,4246.538574,4267.436035,4253.077148,4282.563965,4228.846191,4342.692383,4167.692383,4247.436035,4218.333496,4216.922852,4464.487305,4507.563965,4335.641113,4410.0,0.0,0.0,11.0,,,,0.0,4.0,4.0,4.0,4.0,4.0,4.0,4.0,4.0,4.0,4.0,4.0,4.0,4.0,4.0,100.0,,,,,,,,,,,,,,,,,,,,,,,,,,,,,,,,,,,,,,,,,,,,,,,,,,,,,,,,,,,,,,,,,,,,,,,,,,,,,,,,,,,,,,,,,,,,,,,,,,,,,,,,,,,,,,,,,,,,,,,,,,,,,,,,,,,
1725717256.178097,1725717256.180465,67.0,0.0,4247.563965,4268.077148,4254.615234,4281.025879,4229.743652,4343.974121,4164.743652,4253.333496,4222.307617,4218.717773,4466.153809,4507.307617,4335.512695,4409.615234,0.0,0.0,11.0,,,,0.0,4.0,4.0,4.0,4.0,4.0,4.0,4.0,4.0,4.0,4.0,4.0,4.0,4.0,4.0,100.0,,,,,,,,,,,,,,,,,,,,,,,,,,,,,,,,,,,,,,,,,,,,,,,,,,,,,,,,,,,,,,,,,,,,,,,,,,,,,,,,,,,,,,,,,,,,,,,,,,,,,,,,,,,,,,,,,,,,,,,,,,,,,,,,,,,
1725717256.182001,1725717256.184369,68.0,0.0,4248.461426,4269.102539,4254.358887,4281.153809,4229.743652,4345.128418,4159.615234,4250.512695,4224.743652,4221.153809,4464.487305,4503.846191,4333.333496,4407.05127,0.0,0.0,11.0,,,,0.0,4.0,4.0,4.0,4.0,4.0,4.0,4.0,4.0,4.0,4.0,4.0,4.0,4.0,4.0,100.0,,,,,,,,,,,,,,,,,,,,,,,,,,,,,,,,,,,,,,,,,,,,,,,,,,,,,,,,0.0,0.0,1.0,0.0,1.0,0.0,,,,,,,,,,,,,,,,,,,,,,,,,,,,,,,,,,,,,,,,,,,,,,,,,,,,,,,,,,,,,,,,,,,,,,
1725717256.185905,1725717256.188273,69.0,0.0,4246.922852,4268.974121,4251.666504,4281.538574,4227.820313,4344.615234,4154.102539,4239.102539,4222.05127,4220.128418,4458.717773,4497.307617,4327.692383,4401.922852,0.0,0.0,11.0,,,,0.0,4.0,4.0,4.0,4.0,4.0,4.0,4.0,4.0,4.0,4.0,4.0,4.0,4.0,4.0,100.0,,,,,,,,,,,,,,,,,,,,,,,,,,,,,,,,,,,,,,,,,,,,,,,,,,,,,,,,,,,,,,,,,,,,,,,,,,,,,,,,,,,,,,,,,,,,,,,,,,,,,,,,,,,,,,,,,,,,,,,,,,,,,,,,,,,
1725717256.189809,1725717256.192177,70.0,0.0,4242.179688,4266.794922,4247.820313,4280.897461,4224.230957,4341.922852,4150.769043,4225.128418,4214.230957,4214.358887,4450.641113,4490.128418,4319.871582,4395.384766,0.0,0.0,11.0,,,,0.0,4.0,4.0,4.0,4.0,4.0,4.0,4.0,4.0,4.0,4.0,4.0,4.0,4.0,4.0,100.0,,,,,,,,,,,,,,,,,,,,,,,,,,,,,,,,,,,,,,,,,,,,,,,,,,,,,,,,,,,,,,,,,,,,,,,,,,,,,,,,,,,,,,,,,,,,,,,,,,,,,,,,,,,,,,,,,,,,,,,,,,,,,,,,,,,
1725717256.193714,1725717256.195982,71.0,0.0,4236.666504,4263.461426,4244.743652,4279.230957,4220.512695,4338.589844,4150.769043,4215.897461,4205.128418,4206.922852,4443.205078,4485.512695,4312.563965,4389.487305,0.0,0.0,11.0,,,,0.0,4.0,4.0,4.0,4.0,4.0,4.0,4.0,4.0,4.0,4.0,4.0,4.0,4.0,4.0,100.0,,,,,,,,,,,,,,,,,,,,,,,,,,,,,,,,,,,,,,,,,,,,,,,,,,,,,,,,,,,,,,,,,,,,,,,,,,,,,,,,,,,,,,,,,,,,,,,,,,,,,,,,,,,,,,,,,,,,,,,,,,,,,,,,,,,
1725717256.197618,1725717256.199886,72.0,0.0,4234.230957,4260.384766,4243.589844,4277.692383,4218.333496,4336.922852,4152.692383,4215.641113,4200.384766,4201.922852,4439.358887,4485.128418,4308.589844,4386.666504,0.0,0.0,11.0,,,,0.0,4.0,4.0,4.0,4.0,4.0,4.0,4.0,4.0,4.0,4.0,4.0,4.0,4.0,4.0,100.0,,,,,,,,,,,,,,,,,,,,,,,,,,,,,,,,,,,,,,,,,,,,,,,,,,,,,,,,,,,,,,,,,,,,,,,,,,,,,,,,,,,,,,,,,,,,,,,,,,,,,,,,,,,,,,,,,,,,,,,,,,,,,,,,,,,
1725717256.201522,1725717256.20379,73.0,0.0,4236.666504,4259.487305,4244.487305,4277.563965,4218.077148,4337.436035,4154.102539,4222.692383,4202.820313,4202.820313,4439.743652,4488.333496,4309.230957,4388.077148,0.0,0.0,11.0,,,,0.0,4.0,4.0,4.0,4.0,4.0,4.0,4.0,4.0,4.0,4.0,4.0,4.0,4.0,4.0,100.0,,,,,,,,,,,,,,,,,,,,,,,,,,,,,,,,,,,,,,,,,,,,,,,,,,,,,,,,,,,,,,,,,,,,,,,,,,,,,,,,,,,,,,,,,,,,,,,,,,,,,,,,,,,,,,,,,,,,,,,,,,,,,,,,,,,
1725717256.205426,1725717256.207694,74.0,0.0,4242.307617,4261.025879,4245.769043,4278.717773,4218.974121,4338.974121,4152.692383,4231.025879,4210.256348,4209.743652,4443.205078,4492.563965,4313.461426,4392.820313,0.0,0.0,11.0,,,,0.0,4.0,4.0,4.0,4.0,4.0,4.0,4.0,4.0,4.0,4.0,4.0,4.0,4.0,4.0,100.0,,,,,,,,,,,,,,,,,,,,,,,,,,,,,,,,,,,,,,,,,,,,,,,,,,,,,,,,,,,,,,,,,,,,,,,,,,,,,,,,,,,,,,,,,,,,,,,,,,,,,,,,,,,,,,,,,,,,,,,,,,,,,,,,,,,
1725717256.20933,1725717256.211598,75.0,0.0,4246.410156,4263.717773,4245.384766,4279.871582,4219.487305,4339.102539,4148.333496,4235.0,4216.666504,4218.461426,4447.05127,4494.743652,4318.461426,4397.94873,0.0,0.0,11.0,,,,0.0,4.0,4.0,4.0,4.0,4.0,4.0,4.0,4.0,4.0,4.0,4.0,4.0,4.0,4.0,100.0,,,,,,,,,,,,,,,,,,,,,,,,,,,,,,,,,,,,,,,,,,,,,,,,,,,,,,,,,,,,,,,,,,,,,,,,,,,,,,,,,,,,,,,,,,,,,,,,,,,,,,,,,,,,,,,,,,,,,,,,,,,,,,,,,,,
1725717256.213234,1725717256.215402,76.0,0.0,4245.256348,4265.384766,4242.307617,4279.615234,4218.974121,4336.794922,4142.563965,4233.205078,4216.666504,4223.077148,4448.205078,4493.461426,4321.282227,4400.384766,0.0,0.0,11.0,,,,0.0,4.0,4.0,4.0,4.0,4.0,4.0,4.0,4.0,4.0,4.0,4.0,4.0,4.0,4.0,100.0,,,,,,,,,,,,,,,,,,,,,,,,,,,,,,,,,,,,,,,,,,,,,,,,,,,,,,,,0.0,0.0,1.0,0.0,1.0,0.0,,,,,,,,,,,,,,,,,,,,,,,,,,,,,,,,,,,,,,,,,,,,,,,,,,,,,,,,,,,,,,,,,,,,,,
1725717256.217138,1725717256.219306,77.0,0.0,4239.615234,4264.615234,4237.436035,4278.205078,4217.436035,4332.94873,4137.563965,4228.589844,4210.384766,4219.871582,4445.512695,4490.256348,4320.769043,4398.717773,0.0,0.0,11.0,,,,0.0,4.0,4.0,4.0,4.0,4.0,4.0,4.0,4.0,4.0,4.0,4.0,4.0,4.0,4.0,100.0,,,,,,,,,,,,,,,,,,,,,,,,,,,,,,,,,,,,,,,,,,,,,,,,,,,,,,,,,,,,,,,,,,,,,,,,,,,,,,,,,,,,,,,,,,,,,,,,,,,,,,,,,,,,,,,,,,,,,,,,,,,,,,,,,,,
1725717256.221042,1725717256.22321,78.0,0.0,4233.077148,4261.410156,4233.205078,4276.794922,4215.641113,4329.871582,4135.0,4225.641113,4202.563965,4210.769043,4440.512695,4487.563965,4318.589844,4394.871582,0.0,0.0,11.0,,,,0.0,4.0,4.0,4.0,4.0,4.0,4.0,4.0,4.0,4.0,4.0,4.0,4.0,4.0,4.0,100.0,,,,,,,,,,,,,,,,,,,,,,,,,,,,,,,,,,,,,,,,,,,,,,,,,,,,,,,,,,,,,,,,,,,,,,,,,,,,,,,,,,,,,,,,,,,,,,,,,,,,,,,,,,,,,,,,,,,,,,,,,,,,,,,,,,,
1725717256.224946,1725717256.227015,79.0,0.0,4229.871582,4257.563965,4231.410156,4276.538574,4213.974121,4328.974121,4134.615234,4226.538574,4198.974121,4201.794922,4436.282227,4486.922852,4317.307617,4391.794922,0.0,0.0,11.0,,,,0.0,4.0,4.0,4.0,4.0,4.0,4.0,4.0,4.0,4.0,4.0,4.0,4.0,4.0,4.0,100.0,,,,,,,,,,,,,,,,,,,,,,,,,,,,,,,,,,,,,,,,,,,,,,,,,,,,,,,,,,,,,,,,,,,,,,,,,,,,,,,,,,,,,,,,,,,,,,,,,,,,,,,,,,,,,,,,,,,,,,,,,,,,,,,,,,,
1725717256.22885,1725717256.230919,80.0,0.0,4230.769043,4254.102539,4232.820313,4276.922852,4212.820313,4330.641113,4135.256348,4230.512695,4202.307617,4198.461426,4435.0,4488.205078,4317.94873,4391.410156,0.0,0.0,11.0,,,,0.0,4.0,4.0,4.0,4.0,4.0,4.0,4.0,4.0,4.0,4.0,4.0,4.0,4.0,4.0,100.0,,,,,,,,,,,,,,,,,,,,,,,,,,,,,,,,,,,,,,,,,,,,,,,,,,,,,,,,,,,,,,,,,,,,,,,,,,,,,,,,,,,,,,,,,,,,,,,,,,,,,,,,,,,,,,,,,,,,,,,,,,,,,,,,,,,
1725717256.232755,1725717256.234823,81.0,0.0,4233.974121,4251.282227,4236.538574,4276.922852,4212.692383,4333.461426,4136.025879,4234.230957,4210.0,4202.05127,4437.05127,4490.384766,4319.871582,4393.333496,0.0,0.0,11.0,,,,0.0,4.0,4.0,4.0,4.0,4.0,4.0,4.0,4.0,4.0,4.0,4.0,4.0,4.0,4.0,100.0,,,,,,,,,,,,,,,,,,,,,,,,,,,,,,,,,,,,,,,,,,,,,,,,,,,,,,,,,,,,,,,,,,,,,,,,,,,,,,,,,,,,,,,,,,,,,,,,,,,,,,,,,,,,,,,,,,,,,,,,,,,,,,,,,,,
1725717256.236659,1725717256.238827,82.0,0.0,4236.025879,4248.974121,4240.897461,4276.794922,4213.717773,4335.641113,4136.922852,4235.0,4217.05127,4209.615234,4440.384766,4492.820313,4321.153809,4395.769043,0.0,0.0,11.0,,,,0.0,4.0,4.0,4.0,4.0,4.0,4.0,4.0,4.0,4.0,4.0,4.0,4.0,4.0,4.0,100.0,,,,,,,,,,,,,,,,,,,,,,,,,,,,,,,,,,,,,,,,,,,,,,,,,,,,,,,,,,,,,,,,,,,,,,,,,,,,,,,,,,,,,,,,,,,,,,,,,,,,,,,,,,,,,,,,,,,,,,,,,,,,,,,,,,,
1725717256.240563,1725717256.242731,83.0,0.0,4236.025879,4247.820313,4244.230957,4277.436035,4215.769043,4335.897461,4137.692383,4233.205078,4219.871582,4216.410156,4442.563965,4495.769043,4321.153809,4397.307617,0.0,0.0,11.0,,,,0.0,4.0,4.0,4.0,4.0,4.0,4.0,4.0,4.0,4.0,4.0,4.0,4.0,4.0,4.0,100.0,,,,,,,,,,,,,,,,,,,,,,,,,,,,,,,,,,,,,,,,,,,,,,,,,,,,,,,,,,,,,,,,,,,,,,,,,,,,,,,,,,,,,,,,,,,,,,,,,,,,,,,,,,,,,,,,,,,,,,,,,,,,,,,,,,,
1725717256.244467,1725717256.246635,84.0,0.0,4235.641113,4248.077148,4246.282227,4280.256348,4217.692383,4334.615234,4138.077148,4231.153809,4218.974121,4219.487305,4442.94873,4499.358887,4321.153809,4398.717773,0.0,0.0,11.0,,,,0.0,4.0,4.0,4.0,4.0,4.0,4.0,4.0,4.0,4.0,4.0,4.0,4.0,4.0,4.0,100.0,,,,,,,,,,,,,,,,,1.0,0.0,0.0,,,,,,,,,,,,,,,,,,,,,,,,,,,,,,,,,,,,,0.0,0.0,1.0,0.0,1.0,0.0,2.045119,2.859086,0.532005,0.312996,0.115849,2.211336,1.675585,0.796416,0.326886,0.064092,1.633914,2.007882,0.357232,0.320611,0.107642,1.562526,1.558396,0.475919,0.167103,0.090263,0.90179,0.443219,0.285428,0.154484,0.090211,0.287668,0.371658,0.187153,0.07956,0.039494,2.341654,0.518787,0.191226,0.141163,0.073822,1.277905,2.594634,1.04667,0.685545,0.169139,1.689873,2.864259,0.688152,0.578626,0.115454,2.259881,2.54021,1.505504,0.830615,0.208013,4.132491,5.163784,1.53882,1.028281,0.331971,3.832634,5.901986,1.062231,0.887994,0.378975,3.747365,3.89585,1.613493,0.904762,0.201942,3.34421,3.639599,0.835986,0.630617,0.170715
1725717256.248371,1725717256.250539,85.0,0.0,4237.94873,4248.846191,4247.820313,4284.487305,4218.846191,4333.333496,4138.077148,4231.538574,4217.179688,4219.358887,4442.307617,4503.205078,4322.820313,4401.794922,0.0,0.0,11.0,,,,0.0,4.0,4.0,4.0,4.0,4.0,4.0,4.0,4.0,4.0,4.0,4.0,4.0,4.0,4.0,100.0,,,,,,,,,,,,,,,,,,,,,,,,,,,,,,,,,,,,,,,,,,,,,,,,,,,,,,,,,,,,,,,,,,,,,,,,,,,,,,,,,,,,,,,,,,,,,,,,,,,,,,,,,,,,,,,,,,,,,,,,,,,,,,,,,,,
1725717256.252275,1725717256.254543,86.0,0.0,4243.333496,4248.461426,4249.615234,4287.820313,4218.717773,4333.077148,4138.717773,4233.589844,4217.436035,4218.589844,4441.922852,4507.05127,4326.794922,4406.922852,0.0,0.0,11.0,,,,0.0,4.0,4.0,4.0,4.0,4.0,4.0,4.0,4.0,4.0,4.0,4.0,4.0,4.0,4.0,100.0,,,,,,,,,,,,,,,,,,,,,,,,,,,,,,,,,,,,,,,,,,,,,,,,,,,,,,,,,,,,,,,,,,,,,,,,,,,,,,,,,,,,,,,,,,,,,,,,,,,,,,,,,,,,,,,,,,,,,,,,,,,,,,,,,,,
1725717256.256179,1725717256.258447,87.0,0.0,4248.974121,4245.897461,4251.282227,4288.333496,4217.563965,4333.974121,4140.384766,4235.0,4219.358887,4218.333496,4442.436035,4510.641113,4330.897461,4412.307617,0.0,0.0,11.0,,,,0.0,4.0,4.0,4.0,4.0,4.0,4.0,4.0,4.0,4.0,4.0,4.0,4.0,4.0,4.0,100.0,,,,,,,,,,,,,,,,,,,,,,,,,,,,,,,,,,,,,,,,,,,,,,,,,,,,,,,,,,,,,,,,,,,,,,,,,,,,,,,,,,,,,,,,,,,,,,,,,,,,,,,,,,,,,,,,,,,,,,,,,,,,,,,,,,,
1725717256.260083,1725717256.262351,88.0,0.0,4251.410156,4241.666504,4251.538574,4285.897461,4216.538574,4335.512695,4143.077148,4233.717773,4220.769043,4218.589844,4442.563965,4512.692383,4332.179688,4414.615234,0.0,0.0,11.0,,,,0.0,4.0,4.0,4.0,4.0,4.0,4.0,4.0,4.0,4.0,4.0,4.0,4.0,4.0,4.0,100.0,,,,,,,,,,,,,,,,,,,,,,,,,,,,,,,,,,,,,,,,,,,,,,,,,,,,,,,,,,,,,,,,,,,,,,,,,,,,,,,,,,,,,,,,,,,,,,,,,,,,,,,,,,,,,,,,,,,,,,,,,,,,,,,,,,,
1725717256.263987,1725717256.266255,89.0,0.0,4248.846191,4237.820313,4249.615234,4282.692383,4216.666504,4337.05127,4145.512695,4230.0,4220.256348,4218.717773,4440.512695,4511.282227,4329.615234,4411.666504,0.0,0.0,11.0,,,,0.0,4.0,4.0,4.0,4.0,4.0,4.0,4.0,4.0,4.0,4.0,4.0,4.0,4.0,4.0,100.0,,,,,,,,,,,,,,,,,,,,,,,,,,,,,,,,,,,,,,,,,,,,,,,,,,,,,,,,,,,,,,,,,,,,,,,,,,,,,,,,,,,,,,,,,,,,,,,,,,,,,,,,,,,,,,,,,,,,,,,,,,,,,,,,,,,
1725717256.267892,1725717256.27016,90.0,0.0,4243.077148,4235.384766,4246.282227,4281.025879,4217.820313,4338.205078,4146.794922,4226.025879,4218.333496,4218.974121,4435.256348,4505.769043,4324.615234,4404.230957,0.0,0.0,11.0,,,,0.0,4.0,4.0,4.0,4.0,4.0,4.0,4.0,4.0,4.0,4.0,4.0,4.0,4.0,4.0,100.0,,,,,,,,,,,,,,,,,,,,,,,,,,,,,,,,,,,,,,,,,,,,,,,,,,,,,,,,,,,,,,,,,,,,,,,,,,,,,,,,,,,,,,,,,,,,,,,,,,,,,,,,,,,,,,,,,,,,,,,,,,,,,,,,,,,
1725717256.271796,1725717256.273964,91.0,0.0,4237.179688,4234.230957,4243.205078,4281.794922,4219.230957,4338.589844,4146.282227,4224.358887,4216.794922,4220.0,4428.846191,4499.102539,4320.128418,4396.025879,0.0,0.0,11.0,,,,0.0,4.0,4.0,4.0,4.0,4.0,4.0,4.0,4.0,4.0,4.0,4.0,4.0,4.0,4.0,100.0,,,,,,,,,,,,,,,,,,,,,,,,,,,,,,,,,,,,,,,,,,,,,,,,,,,,,,,,,,,,,,,,,,,,,,,,,,,,,,,,,,,,,,,,,,,,,,,,,,,,,,,,,,,,,,,,,,,,,,,,,,,,,,,,,,,
1725717256.2757,1725717256.277868,92.0,0.0,4233.974121,4232.05127,4241.794922,4283.461426,4219.487305,4338.461426,4144.230957,4226.538574,4217.179688,4222.179688,4425.0,4495.384766,4318.205078,4392.05127,0.0,0.0,11.0,,,,0.0,4.0,4.0,4.0,4.0,4.0,4.0,4.0,4.0,4.0,4.0,4.0,4.0,4.0,4.0,100.0,,,,,,,,,,,,,,,,,,,,,,,,,,,,,,,,,,,,,,,,,,,,,,,,,,,,,,,,0.0,0.0,1.0,0.0,1.0,0.0,,,,,,,,,,,,,,,,,,,,,,,,,,,,,,,,,,,,,,,,,,,,,,,,,,,,,,,,,,,,,,,,,,,,,,
1725717256.279604,1725717256.281872,93.0,0.0,4233.589844,4227.179688,4242.307617,4283.846191,4218.077148,4338.333496,4141.538574,4231.282227,4219.102539,4225.256348,4426.282227,4496.794922,4319.230957,4394.358887,0.0,0.0,11.0,,,,0.0,4.0,4.0,4.0,4.0,4.0,4.0,4.0,4.0,4.0,4.0,4.0,4.0,4.0,4.0,100.0,,,,,,,,,,,,,,,,,,,,,,,,,,,,,,,,,,,,,,,,,,,,,,,,,,,,,,,,,,,,,,,,,,,,,,,,,,,,,,,,,,,,,,,,,,,,,,,,,,,,,,,,,,,,,,,,,,,,,,,,,,,,,,,,,,,
1725717256.283508,1725717256.285776,94.0,0.0,4234.487305,4220.128418,4243.974121,4282.307617,4216.025879,4338.846191,4139.487305,4235.897461,4220.897461,4227.563965,4431.153809,4501.922852,4321.025879,4400.0,0.0,0.0,11.0,,,,0.0,4.0,4.0,4.0,4.0,4.0,4.0,4.0,4.0,4.0,4.0,4.0,4.0,4.0,4.0,100.0,,,,,,,,,,,,,,,,,,,,,,,,,,,,,,,,,,,,,,,,,,,,,,,,,,,,,,,,,,,,,,,,,,,,,,,,,,,,,,,,,,,,,,,,,,,,,,,,,,,,,,,,,,,,,,,,,,,,,,,,,,,,,,,,,,,
1725717256.287412,1725717256.28968,95.0,0.0,4235.0,4214.230957,4245.641113,4280.384766,4215.128418,4340.641113,4138.974121,4237.436035,4220.384766,4226.410156,4434.230957,4506.153809,4320.512695,4403.461426,0.0,0.0,11.0,,,,0.0,4.0,4.0,4.0,4.0,4.0,4.0,4.0,4.0,4.0,4.0,4.0,4.0,4.0,4.0,100.0,,,,,,,,,,,,,,,,,,,,,,,,,,,,,,,,,,,,,,,,,,,,,,,,,,,,,,,,,,,,,,,,,,,,,,,,,,,,,,,,,,,,,,,,,,,,,,,,,,,,,,,,,,,,,,,,,,,,,,,,,,,,,,,,,,,
1725717256.291316,1725717256.293584,96.0,0.0,4234.358887,4213.205078,4246.538574,4280.384766,4216.282227,4342.820313,4139.871582,4235.256348,4217.436035,4221.153809,4430.897461,4505.384766,4316.922852,4401.666504,0.0,0.0,11.0,,,,0.0,4.0,4.0,4.0,4.0,4.0,4.0,4.0,4.0,4.0,4.0,4.0,4.0,4.0,4.0,100.0,,,,,,,,,,,,,,,,,,,,,,,,,,,,,,,,,,,,,,,,,,,,,,,,,,,,,,,,,,,,,,,,,,,,,,,,,,,,,,,,,,,,,,,,,,,,,,,,,,,,,,,,,,,,,,,,,,,,,,,,,,,,,,,,,,,
1725717256.29522,1725717256.297488,97.0,0.0,4233.333496,4217.820313,4246.538574,4283.717773,4218.589844,4344.230957,4141.025879,4231.282227,4214.102539,4215.256348,4420.897461,4499.358887,4312.307617,4396.025879,0.0,0.0,11.0,,,,0.0,4.0,4.0,4.0,4.0,4.0,4.0,4.0,4.0,4.0,4.0,4.0,4.0,4.0,4.0,100.0,,,,,,,,,,,,,,,,,,,,,,,,,,,,,,,,,,,,,,,,,,,,,,,,,,,,,,,,,,,,,,,,,,,,,,,,,,,,,,,,,,,,,,,,,,,,,,,,,,,,,,,,,,,,,,,,,,,,,,,,,,,,,,,,,,,
1725717256.299124,1725717256.301292,98.0,0.0,4233.333496,4225.512695,4245.897461,4288.974121,4220.256348,4343.589844,4141.794922,4228.717773,4212.94873,4212.94873,4408.846191,4491.282227,4310.128418,4391.153809,0.0,0.0,11.0,,,,0.0,4.0,4.0,4.0,4.0,4.0,4.0,4.0,4.0,4.0,4.0,4.0,4.0,4.0,4.0,100.0,,,,,,,,,,,,,,,,,,,,,,,,,,,,,,,,,,,,,,,,,,,,,,,,,,,,,,,,,,,,,,,,,,,,,,,,,,,,,,,,,,,,,,,,,,,,,,,,,,,,,,,,,,,,,,,,,,,,,,,,,,,,,,,,,,,
1725717256.303028,1725717256.305197,99.0,0.0,4234.615234,4231.025879,4245.256348,4293.846191,4219.743652,4341.153809,4141.538574,4229.358887,4214.102539,4215.256348,4400.512695,4486.025879,4311.410156,4390.512695,0.0,0.0,11.0,,,,0.0,4.0,4.0,4.0,4.0,4.0,4.0,4.0,4.0,4.0,4.0,4.0,4.0,4.0,4.0,100.0,,,,,,,,,,,,,,,,,,,,,,,,,,,,,,,,,,,,,,,,,,,,,,,,,,,,,,,,,,,,,,,,,,,,,,,,,,,,,,,,,,,,,,,,,,,,,,,,,,,,,,,,,,,,,,,,,,,,,,,,,,,,,,,,,,,
1725717256.306933,1725717256.309101,100.0,0.0,4236.282227,4230.512695,4245.256348,4296.410156,4217.94873,4338.077148,4140.641113,4232.05127,4215.769043,4219.358887,4398.461426,4485.897461,4313.717773,4393.974121,0.0,0.0,11.0,,,,0.0,4.0,4.0,4.0,4.0,4.0,4.0,4.0,4.0,4.0,4.0,4.0,4.0,4.0,4.0,100.0,,,,,,,,,,,,,,,,,,,,,,,,,,,,,,,,,,,,,,,,,,,,,,,,,,,,,,,,0.0,0.0,1.0,0.0,1.0,0.0,,,,,,,,,,,,,,,,,,,,,,,,,,,,,,,,,,,,,,,,,,,,,,,,,,,,,,,,,,,,,,,,,,,,,,
1725717256.310837,1725717256.313005,101.0,0.0,4236.794922,4224.871582,4245.897461,4296.025879,4217.05127,4335.769043,4140.0,4234.358887,4215.641113,4220.512695,4400.384766,4489.102539,4313.717773,4397.692383,0.0,0.0,11.0,,,,0.0,4.0,4.0,4.0,4.0,4.0,4.0,4.0,4.0,4.0,4.0,4.0,4.0,4.0,4.0,100.0,,,,,,,,,,,,,,,,,,,,,,,,,,,,,,,,,,,,,,,,,,,,,,,,,,,,,,,,,,,,,,,,,,,,,,,,,,,,,,,,,,,,,,,,,,,,,,,,,,,,,,,,,,,,,,,,,,,,,,,,,,,,,,,,,,,
1725717256.314741,1725717256.316809,102.0,0.0,4235.897461,4218.205078,4246.922852,4293.717773,4217.563965,4334.487305,4140.0,4233.846191,4212.820313,4216.794922,4401.282227,4491.538574,4309.487305,4397.820313,0.0,0.0,11.0,,,,0.0,4.0,4.0,4.0,4.0,4.0,4.0,4.0,4.0,4.0,4.0,4.0,4.0,4.0,4.0,100.0,,,,,,,,,,,,,,,,,,,,,,,,,,,,,,,,,,,,,,,,,,,,,,,,,,,,,,,,,,,,,,,,,,,,,,,,,,,,,,,,,,,,,,,,,,,,,,,,,,,,,,,,,,,,,,,,,,,,,,,,,,,,,,,,,,,
1725717256.318645,1725717256.320713,103.0,0.0,4234.358887,4215.128418,4247.179688,4290.769043,4218.461426,4333.205078,4140.128418,4230.0,4208.077148,4209.358887,4397.563965,4489.743652,4302.692383,4393.461426,0.0,0.0,11.0,,,,0.0,4.0,4.0,4.0,4.0,4.0,4.0,4.0,4.0,4.0,4.0,4.0,4.0,4.0,4.0,100.0,,,,,,,,,,,,,,,,,,,,,,,,,,,,,,,,,,,,,,,,,,,,,,,,,,,,,,,,,,,,,,,,,,,,,,,,,,,,,,,,,,,,,,,,,,,,,,,,,,,,,,,,,,,,,,,,,,,,,,,,,,,,,,,,,,,
1725717256.322549,1725717256.324617,104.0,0.0,4233.205078,4216.538574,4245.384766,4288.205078,4217.563965,4331.025879,4139.743652,4224.358887,4202.94873,4201.538574,4389.871582,4483.461426,4296.538574,4386.794922,0.0,0.0,11.0,,,,0.0,4.0,4.0,4.0,4.0,4.0,4.0,4.0,4.0,4.0,4.0,4.0,4.0,4.0,4.0,100.0,,,,,,,,,,,,,,,,,,,,,,,,,,,,,,,,,,,,,,,,,,,,,,,,,,,,,,,,,,,,,,,,,,,,,,,,,,,,,,,,,,,,,,,,,,,,,,,,,,,,,,,,,,,,,,,,,,,,,,,,,,,,,,,,,,,
1725717256.326453,1725717256.328521,105.0,0.0,4232.94873,4219.102539,4241.282227,4286.025879,4213.589844,4327.94873,4138.461426,4218.589844,4198.846191,4196.025879,4381.410156,4475.769043,4292.820313,4380.128418,0.0,0.0,11.0,,,,0.0,4.0,4.0,4.0,4.0,4.0,4.0,4.0,4.0,4.0,4.0,4.0,4.0,4.0,4.0,100.0,,,,,,,,,,,,,,,,,,,,,,,,,,,,,,,,,,,,,,,,,,,,,,,,,,,,,,,,,,,,,,,,,,,,,,,,,,,,,,,,,,,,,,,,,,,,,,,,,,,,,,,,,,,,,,,,,,,,,,,,,,,,,,,,,,,
1725717256.330357,1725717256.332326,106.0,0.0,4232.563965,4219.102539,4235.641113,4283.589844,4207.692383,4325.128418,4135.897461,4214.487305,4195.256348,4192.820313,4375.256348,4469.615234,4290.384766,4375.256348,0.0,0.0,11.0,,,,0.0,4.0,4.0,4.0,4.0,4.0,4.0,4.0,4.0,4.0,4.0,4.0,4.0,4.0,4.0,100.0,,,,,,,,,,,,,,,,,,,,,,,,,,,,,,,,,,,,,,,,,,,,,,,,,,,,,,,,,,,,,,,,,,,,,,,,,,,,,,,,,,,,,,,,,,,,,,,,,,,,,,,,,,,,,,,,,,,,,,,,,,,,,,,,,,,
1725717256.334261,1725717256.33623,107.0,0.0,4230.256348,4215.0,4230.641113,4280.384766,4202.05127,4323.589844,4131.922852,4213.077148,4191.282227,4189.615234,4371.538574,4466.153809,4285.897461,4371.410156,0.0,0.0,11.0,,,,0.0,4.0,4.0,4.0,4.0,4.0,4.0,4.0,4.0,4.0,4.0,4.0,4.0,4.0,4.0,100.0,,,,,,,,,,,,,,,,,,,,,,,,,,,,,,,,,,,,,,,,,,,,,,,,,,,,,,,,,,,,,,,,,,,,,,,,,,,,,,,,,,,,,,,,,,,,,,,,,,,,,,,,,,,,,,,,,,,,,,,,,,,,,,,,,,,
1725717256.338165,1725717256.340134,108.0,0.0,4225.128418,4208.461426,4227.692383,4276.666504,4198.974121,4323.974121,4127.05127,4213.333496,4186.538574,4184.871582,4367.820313,4463.461426,4277.436035,4367.179688,0.0,0.0,11.0,,,,0.0,4.0,4.0,4.0,4.0,4.0,4.0,4.0,4.0,4.0,4.0,4.0,4.0,4.0,4.0,100.0,,,,,,,,,,,,,,,,,,,,,,,,,,,,,,,,,,,,,,,,,,,,,,,,,,,,,,,,0.0,0.0,1.0,0.0,1.0,0.0,,,,,,,,,,,,,,,,,,,,,,,,,,,,,,,,,,,,,,,,,,,,,,,,,,,,,,,,,,,,,,,,,,,,,,
1725717256.342069,1725717256.344138,109.0,0.0,4218.589844,4202.179688,4227.307617,4273.333496,4198.589844,4325.641113,4122.563965,4213.333496,4182.436035,4179.358887,4362.563965,4459.743652,4266.794922,4362.05127,0.0,0.0,11.0,,,,0.0,4.0,4.0,4.0,4.0,4.0,4.0,4.0,4.0,4.0,4.0,4.0,4.0,4.0,4.0,100.0,,,,,,,,,,,,,,,,,,,,,,,,,,,,,,,,,,,,,,,,,,,,,,,,,,,,,,,,,,,,,,,,,,,,,,,,,,,,,,,,,,,,,,,,,,,,,,,,,,,,,,,,,,,,,,,,,,,,,,,,,,,,,,,,,,,
1725717256.345973,1725717256.348042,110.0,0.0,4213.846191,4197.94873,4228.077148,4270.897461,4199.871582,4327.820313,4119.871582,4212.436035,4181.410156,4176.153809,4357.563965,4456.153809,4259.102539,4357.436035,0.0,0.0,11.0,,,,0.0,4.0,4.0,4.0,4.0,4.0,4.0,4.0,4.0,4.0,4.0,4.0,4.0,4.0,4.0,100.0,,,,,,,,,,,,,,,,,,,,,,,,,,,,,,,,,,,,,,,,,,,,,,,,,,,,,,,,,,,,,,,,,,,,,,,,,,,,,,,,,,,,,,,,,,,,,,,,,,,,,,,,,,,,,,,,,,,,,,,,,,,,,,,,,,,
1725717256.349877,1725717256.351946,111.0,0.0,4213.333496,4197.05127,4228.461426,4270.0,4200.897461,4330.0,4119.230957,4211.922852,4185.641113,4177.94873,4356.153809,4456.025879,4259.230957,4356.410156,0.0,0.0,11.0,,,,0.0,4.0,4.0,4.0,4.0,4.0,4.0,4.0,4.0,4.0,4.0,4.0,4.0,4.0,4.0,100.0,,,,,,,,,,,,,,,,,,,,,,,,,,,,,,,,,,,,,,,,,,,,,,,,,,,,,,,,,,,,,,,,,,,,,,,,,,,,,,,,,,,,,,,,,,,,,,,,,,,,,,,,,,,,,,,,,,,,,,,,,,,,,,,,,,,
1725717256.353782,1725717256.35595,112.0,0.0,4217.179688,4199.358887,4228.077148,4271.153809,4200.512695,4331.922852,4120.128418,4214.102539,4195.0,4185.641113,4361.025879,4461.538574,4268.974121,4361.153809,0.0,0.0,11.0,,,,0.0,4.0,4.0,4.0,4.0,4.0,4.0,4.0,4.0,4.0,4.0,4.0,4.0,4.0,4.0,100.0,,,,,,,,,,,,,,,,,,,,,,,,,,,,,,,,,,,,,,,,,,,,,,,,,,,,,,,,,,,,,,,,,,,,,,,,,,,,,,,,,,,,,,,,,,,,,,,,,,,,,,,,,,,,,,,,,,,,,,,,,,,,,,,,,,,
1725717256.357686,1725717256.359854,113.0,0.0,4223.333496,4203.717773,4227.692383,4275.128418,4200.0,4333.461426,4121.025879,4220.128418,4206.282227,4196.922852,4371.153809,4470.897461,4285.0,4370.769043,0.0,0.0,11.0,,,,0.0,4.0,4.0,4.0,4.0,4.0,4.0,4.0,4.0,4.0,4.0,4.0,4.0,4.0,4.0,100.0,,,,,,,,,,,,,,,,,,,,,,,,,,,,,,,,,,,,,,,,,,,,,,,,,,,,,,,,,,,,,,,,,,,,,,,,,,,,,,,,,,,,,,,,,,,,,,,,,,,,,,,,,,,,,,,,,,,,,,,,,,,,,,,,,,,
1725717256.36159,1725717256.363758,114.0,0.0,4228.846191,4208.846191,4229.230957,4281.153809,4201.282227,4334.487305,4121.538574,4227.820313,4215.512695,4208.077148,4383.717773,4480.512695,4300.769043,4381.666504,0.0,0.0,11.0,,,,0.0,4.0,4.0,4.0,4.0,4.0,4.0,4.0,4.0,4.0,4.0,4.0,4.0,4.0,4.0,100.0,,,,,,,,,,,,,,,,,,,,,,,,,,,,,,,,,,,,,,,,,,,,,,,,,,,,,,,,,,,,,,,,,,,,,,,,,,,,,,,,,,,,,,,,,,,,,,,,,,,,,,,,,,,,,,,,,,,,,,,,,,,,,,,,,,,
1725717256.365494,1725717256.367662,115.0,0.0,4232.436035,4213.461426,4233.461426,4288.205078,4205.897461,4335.0,4122.307617,4233.717773,4220.512695,4216.025879,4394.743652,4487.563965,4310.897461,4390.384766,0.0,0.0,11.0,,,,0.0,4.0,4.0,4.0,4.0,4.0,4.0,4.0,4.0,4.0,4.0,4.0,4.0,4.0,4.0,100.0,,,,,,,,,,,,,,,,,,,,,,,,,,,,,,,,,,,,,,,,,,,,,,,,,,,,,,,,,,,,,,,,,,,,,,,,,,,,,,,,,,,,,,,,,,,,,,,,,,,,,,,,,,,,,,,,,,,,,,,,,,,,,,,,,,,
1725717256.369398,1725717256.371566,116.0,0.0,4235.0,4216.922852,4239.358887,4293.846191,4212.436035,4335.128418,4123.846191,4235.128418,4221.282227,4219.487305,4402.436035,4491.794922,4314.102539,4395.384766,0.0,0.0,11.0,,,,0.0,4.0,4.0,4.0,4.0,4.0,4.0,4.0,4.0,4.0,4.0,4.0,4.0,4.0,4.0,100.0,,,,,,,,,,,,,,,,,1.0,0.0,0.0,,,,,,,,,,,,,,,,,,,,,,,,,,,,,,,,,,,,,0.0,0.0,1.0,0.0,1.0,0.0,1.977191,3.386278,0.619598,0.338317,0.107899,2.368444,1.813678,0.90566,0.375161,0.067987,1.730194,2.382368,0.37644,0.330095,0.102216,1.752249,1.796323,0.528117,0.175401,0.096788,1.225887,0.516239,0.364544,0.140501,0.080633,0.285179,0.427041,0.165957,0.073704,0.038967,2.588983,0.643933,0.253361,0.153367,0.071126,1.413047,2.465402,0.809882,0.653024,0.139265,1.879346,2.857921,0.680052,0.562846,0.105208,2.377575,2.888002,1.693836,0.85185,0.194003,4.470581,5.356726,1.634193,1.018141,0.340752,3.989392,6.417233,1.000327,0.794036,0.370831,4.090554,4.09651,1.616873,0.968167,0.185188,3.590237,4.205364,0.777615,0.601785,0.159987
1725717256.373302,1725717256.375371,117.0,0.0,4237.820313,4218.717773,4245.128418,4296.538574,4217.94873,4335.512695,4126.025879,4232.94873,4219.871582,4220.0,4407.307617,4495.512695,4313.077148,4396.922852,0.0,0.0,11.0,,,,0.0,4.0,4.0,4.0,4.0,4.0,4.0,4.0,4.0,4.0,4.0,4.0,4.0,4.0,4.0,100.0,,,,,,,,,,,,,,,,,,,,,,,,,,,,,,,,,,,,,,,,,,,,,,,,,,,,,,,,,,,,,,,,,,,,,,,,,,,,,,,,,,,,,,,,,,,,,,,,,,,,,,,,,,,,,,,,,,,,,,,,,,,,,,,,,,,
1725717256.377206,1725717256.379275,118.0,0.0,4241.538574,4219.102539,4249.230957,4296.410156,4220.384766,4336.153809,4128.077148,4230.256348,4218.205078,4219.615234,4410.769043,4500.0,4311.666504,4396.666504,0.0,0.0,11.0,,,,0.0,4.0,4.0,4.0,4.0,4.0,4.0,4.0,4.0,4.0,4.0,4.0,4.0,4.0,4.0,100.0,,,,,,,,,,,,,,,,,,,,,,,,,,,,,,,,,,,,,,,,,,,,,,,,,,,,,,,,,,,,,,,,,,,,,,,,,,,,,,,,,,,,,,,,,,,,,,,,,,,,,,,,,,,,,,,,,,,,,,,,,,,,,,,,,,,
1725717256.38111,1725717256.383179,119.0,0.0,4245.256348,4218.589844,4251.153809,4295.128418,4219.358887,4336.666504,4129.102539,4229.615234,4217.179688,4219.615234,4413.589844,4505.0,4311.794922,4396.025879,0.0,0.0,11.0,,,,0.0,4.0,4.0,4.0,4.0,4.0,4.0,4.0,4.0,4.0,4.0,4.0,4.0,4.0,4.0,100.0,,,,,,,,,,,,,,,,,,,,,,,,,,,,,,,,,,,,,,,,,,,,,,,,,,,,,,,,,,,,,,,,,,,,,,,,,,,,,,,,,,,,,,,,,,,,,,,,,,,,,,,,,,,,,,,,,,,,,,,,,,,,,,,,,,,
1725717256.385014,1725717256.387183,120.0,0.0,4247.563965,4217.94873,4250.897461,4294.871582,4217.05127,4336.153809,4128.717773,4231.282227,4217.179688,4220.256348,4415.512695,4508.077148,4313.333496,4396.410156,0.0,0.0,11.0,,,,0.0,4.0,4.0,4.0,4.0,4.0,4.0,4.0,4.0,4.0,4.0,4.0,4.0,4.0,4.0,100.0,,,,,,,,,,,,,,,,,,,,,,,,,,,,,,,,,,,,,,,,,,,,,,,,,,,,,,,,,,,,,,,,,,,,,,,,,,,,,,,,,,,,,,,,,,,,,,,,,,,,,,,,,,,,,,,,,,,,,,,,,,,,,,,,,,,
1725717256.388919,1725717256.391087,121.0,0.0,4247.820313,4218.205078,4249.615234,4296.666504,4215.512695,4333.974121,4127.179688,4233.077148,4218.077148,4221.025879,4415.897461,4507.692383,4314.743652,4397.94873,0.0,0.0,11.0,,,,0.0,4.0,4.0,4.0,4.0,4.0,4.0,4.0,4.0,4.0,4.0,4.0,4.0,4.0,4.0,100.0,,,,,,,,,,,,,,,,,,,,,,,,,,,,,,,,,,,,,,,,,,,,,,,,,,,,,,,,,,,,,,,,,,,,,,,,,,,,,,,,,,,,,,,,,,,,,,,,,,,,,,,,,,,,,,,,,,,,,,,,,,,,,,,,,,,
1725717256.392823,1725717256.394991,122.0,0.0,4246.794922,4219.871582,4248.461426,4299.487305,4215.641113,4330.256348,4125.384766,4232.179688,4219.230957,4221.025879,4414.871582,4503.717773,4315.256348,4399.487305,0.0,0.0,11.0,,,,0.0,4.0,4.0,4.0,4.0,4.0,4.0,4.0,4.0,4.0,4.0,4.0,4.0,4.0,4.0,100.0,,,,,,,,,,,,,,,,,,,,,,,,,,,,,,,,,,,,,,,,,,,,,,,,,,,,,,,,,,,,,,,,,,,,,,,,,,,,,,,,,,,,,,,,,,,,,,,,,,,,,,,,,,,,,,,,,,,,,,,,,,,,,,,,,,,
1725717256.396727,1725717256.398895,123.0,0.0,4245.384766,4223.077148,4247.692383,4302.05127,4216.922852,4326.794922,4123.846191,4227.563965,4219.230957,4220.0,4413.333496,4497.563965,4314.871582,4400.0,0.0,0.0,11.0,,,,0.0,4.0,4.0,4.0,4.0,4.0,4.0,4.0,4.0,4.0,4.0,4.0,4.0,4.0,4.0,100.0,,,,,,,,,,,,,,,,,,,,,,,,,,,,,,,,,,,,,,,,,,,,,,,,,,,,,,,,,,,,,,,,,,,,,,,,,,,,,,,,,,,,,,,,,,,,,,,,,,,,,,,,,,,,,,,,,,,,,,,,,,,,,,,,,,,
1725717256.400631,1725717256.402799,124.0,0.0,4243.589844,4226.922852,4247.05127,4302.692383,4218.333496,4325.0,4122.94873,4220.897461,4217.307617,4218.077148,4412.563965,4491.666504,4314.358887,4398.717773,0.0,0.0,11.0,,,,0.0,4.0,4.0,4.0,4.0,4.0,4.0,4.0,4.0,4.0,4.0,4.0,4.0,4.0,4.0,100.0,,,,,,,,,,,,,,,,,,,,,,,,,,,,,,,,,,,,,,,,,,,,,,,,,,,,,,,,0.0,0.0,1.0,0.0,1.0,0.0,,,,,,,,,,,,,,,,,,,,,,,,,,,,,,,,,,,,,,,,,,,,,,,,,,,,,,,,,,,,,,,,,,,,,,
1725717256.404535,1725717256.406603,125.0,0.0,4241.410156,4230.256348,4245.256348,4301.025879,4218.846191,4325.256348,4122.692383,4215.128418,4213.846191,4216.282227,4412.563965,4487.436035,4313.974121,4395.641113,0.0,0.0,11.0,,,,0.0,4.0,4.0,4.0,4.0,4.0,4.0,4.0,4.0,4.0,4.0,4.0,4.0,4.0,4.0,100.0,,,,,,,,,,,,,,,,,,,,,,,,,,,,,,,,,,,,,,,,,,,,,,,,,,,,,,,,,,,,,,,,,,,,,,,,,,,,,,,,,,,,,,,,,,,,,,,,,,,,,,,,,,,,,,,,,,,,,,,,,,,,,,,,,,,
1725717256.408439,1725717256.410507,126.0,0.0,4238.846191,4232.179688,4241.794922,4298.077148,4218.205078,4326.410156,4122.436035,4213.205078,4210.0,4215.256348,4411.794922,4484.871582,4313.717773,4391.922852,0.0,0.0,11.0,,,,0.0,4.0,4.0,4.0,4.0,4.0,4.0,4.0,4.0,4.0,4.0,4.0,4.0,4.0,4.0,100.0,,,,,,,,,,,,,,,,,,,,,,,,,,,,,,,,,,,,,,,,,,,,,,,,,,,,,,,,,,,,,,,,,,,,,,,,,,,,,,,,,,,,,,,,,,,,,,,,,,,,,,,,,,,,,,,,,,,,,,,,,,,,,,,,,,,
1725717256.412343,1725717256.414412,127.0,0.0,4236.282227,4232.307617,4237.436035,4295.769043,4217.179688,4327.05127,4121.794922,4214.743652,4207.563965,4215.128418,4408.846191,4483.077148,4313.589844,4388.333496,0.0,0.0,11.0,,,,0.0,4.0,4.0,4.0,4.0,4.0,4.0,4.0,4.0,4.0,4.0,4.0,4.0,4.0,4.0,100.0,,,,,,,,,,,,,,,,,,,,,,,,,,,,,,,,,,,,,,,,,,,,,,,,,,,,,,,,,,,,,,,,,,,,,,,,,,,,,,,,,,,,,,,,,,,,,,,,,,,,,,,,,,,,,,,,,,,,,,,,,,,,,,,,,,,
1725717256.416247,1725717256.418316,128.0,0.0,4234.358887,4230.769043,4234.102539,4295.384766,4216.794922,4326.410156,4120.769043,4217.436035,4207.307617,4215.641113,4403.846191,4481.025879,4313.461426,4385.384766,2688.0,0.0,11.0,,,,0.0,4.0,4.0,4.0,4.0,4.0,4.0,4.0,4.0,4.0,4.0,4.0,4.0,4.0,4.0,100.0,,,,,,,,,,,,,,,,,,,,,,,,,,,,,,,,,,,,,,,,,,,,,,,,,,,,,,,,,,,,,,,,,,,,,,,,,,,,,,,,,,,,,,,,,,,,,,,,,,,,,,,,,,,,,,,,,,,,,,,,,,,,,,,,,,,
1725717256.420151,1725717256.42212,129.0,0.0,4233.205078,4228.974121,4233.589844,4296.538574,4217.436035,4325.256348,4119.358887,4218.974121,4208.717773,4216.666504,4399.102539,4478.974121,4313.077148,4383.461426,2570.0,0.0,11.0,,,,0.0,4.0,4.0,4.0,4.0,4.0,4.0,4.0,4.0,4.0,4.0,4.0,4.0,4.0,4.0,100.0,,,,,,,,,,,,,,,,,,,,,,,,,,,,,,,,,,,,,,,,,,,,,,,,,,,,,,,,,,,,,,,,,,,,,,,,,,,,,,,,,,,,,,,,,,,,,,,,,,,,,,,,,,,,,,,,,,,,,,,,,,,,,,,,,,,
1725717256.424055,1725717256.426024,130.0,0.0,4233.077148,4228.205078,4236.794922,4297.307617,4218.205078,4324.615234,4117.436035,4218.461426,4210.512695,4217.692383,4396.922852,4477.563965,4312.307617,4382.692383,2503.0,0.0,11.0,,,,0.0,4.0,4.0,4.0,4.0,4.0,4.0,4.0,4.0,4.0,4.0,4.0,4.0,4.0,4.0,100.0,,,,,,,,,,,,,,,,,,,,,,,,,,,,,,,,,,,,,,,,,,,,,,,,,,,,,,,,,,,,,,,,,,,,,,,,,,,,,,,,,,,,,,,,,,,,,,,,,,,,,,,,,,,,,,,,,,,,,,,,,,,,,,,,,,,
1725717256.42796,1725717256.429928,131.0,0.0,4233.205078,4229.487305,4241.666504,4296.922852,4218.461426,4325.0,4114.871582,4216.794922,4210.769043,4218.205078,4397.05127,4477.436035,4311.538574,4382.94873,2469.0,0.0,11.0,,,,0.0,4.0,4.0,4.0,4.0,4.0,4.0,4.0,4.0,4.0,4.0,4.0,4.0,4.0,4.0,100.0,,,,,,,,,,,,,,,,,,,,,,,,,,,,,,,,,,,,,,,,,,,,,,,,,,,,,,,,,,,,,,,,,,,,,,,,,,,,,,,,,,,,,,,,,,,,,,,,,,,,,,,,,,,,,,,,,,,,,,,,,,,,,,,,,,,
1725717256.431864,1725717256.433832,132.0,0.0,4233.077148,4231.922852,4245.256348,4295.512695,4217.94873,4325.641113,4111.538574,4215.512695,4208.846191,4217.563965,4397.05127,4478.717773,4311.025879,4383.461426,2439.0,0.0,11.0,,,,0.0,4.0,4.0,4.0,4.0,4.0,4.0,4.0,4.0,4.0,4.0,4.0,4.0,4.0,4.0,100.0,,,,,,,,,,,,,,,,,,,,,,,,,,,,,,,,,,,,,,,,,,,,,,,,,,,,,,,,0.0,0.0,1.0,0.0,1.0,0.0,,,,,,,,,,,,,,,,,,,,,,,,,,,,,,,,,,,,,,,,,,,,,,,,,,,,,,,,,,,,,,,,,,,,,,
1725717256.435768,1725717256.437636,133.0,0.0,4232.692383,4233.974121,4245.256348,4294.743652,4216.794922,4325.512695,4108.333496,4215.384766,4205.512695,4216.538574,4395.128418,4481.025879,4310.769043,4383.461426,2399.0,0.0,11.0,,,,0.0,4.0,4.0,4.0,4.0,4.0,4.0,4.0,4.0,4.0,4.0,4.0,4.0,4.0,4.0,100.0,,,,,,,,,,,,,,,,,,,,,,,,,,,,,,,,,,,,,,,,,,,,,,,,,,,,,,,,,,,,,,,,,,,,,,,,,,,,,,,,,,,,,,,,,,,,,,,,,,,,,,,,,,,,,,,,,,,,,,,,,,,,,,,,,,,
1725717256.439672,1725717256.441541,134.0,0.0,4232.692383,4234.487305,4241.666504,4295.384766,4216.153809,4323.589844,4106.538574,4216.282227,4202.563965,4216.025879,4392.179688,4484.358887,4310.769043,4382.94873,2428.0,0.0,11.0,,,,0.0,4.0,4.0,4.0,4.0,4.0,4.0,4.0,4.0,4.0,4.0,4.0,4.0,4.0,4.0,100.0,,,,,,,,,,,,,,,,,,,,,,,,,,,,,,,,,,,,,,,,,,,,,,,,,,,,,,,,,,,,,,,,,,,,,,,,,,,,,,,,,,,,,,,,,,,,,,,,,,,,,,,,,,,,,,,,,,,,,,,,,,,,,,,,,,,
1725717256.443576,1725717256.445445,135.0,0.0,4233.589844,4233.846191,4236.922852,4296.794922,4216.538574,4320.384766,4106.282227,4217.563965,4201.538574,4216.410156,4390.256348,4487.692383,4310.897461,4382.436035,2489.0,0.0,11.0,,,,0.0,4.0,4.0,4.0,4.0,4.0,4.0,4.0,4.0,4.0,4.0,4.0,4.0,4.0,4.0,100.0,,,,,,,,,,,,,,,,,,,,,,,,,,,,,,,,,,,,,,,,,,,,,,,,,,,,,,,,,,,,,,,,,,,,,,,,,,,,,,,,,,,,,,,,,,,,,,,,,,,,,,,,,,,,,,,,,,,,,,,,,,,,,,,,,,,
1725717256.44748,1725717256.449449,136.0,0.0,4234.743652,4232.692383,4233.717773,4297.307617,4217.307617,4316.666504,4106.538574,4217.94873,4202.436035,4216.922852,4390.769043,4490.0,4311.410156,4382.436035,2466.0,0.0,11.0,,,,0.0,4.0,4.0,4.0,4.0,4.0,4.0,4.0,4.0,4.0,4.0,4.0,4.0,4.0,4.0,100.0,,,,,,,,,,,,,,,,,,,,,,,,,,,,,,,,,,,,,,,,,,,,,,,,,,,,,,,,,,,,,,,,,,,,,,,,,,,,,,,,,,,,,,,,,,,,,,,,,,,,,,,,,,,,,,,,,,,,,,,,,,,,,,,,,,,
1725717256.451384,1725717256.453353,137.0,0.0,4235.0,4230.897461,4233.205078,4296.410156,4217.563965,4313.589844,4105.897461,4217.820313,4204.102539,4215.897461,4392.692383,4489.871582,4311.794922,4382.563965,2570.0,0.0,11.0,,,,0.0,4.0,4.0,4.0,4.0,4.0,4.0,4.0,4.0,4.0,4.0,4.0,4.0,4.0,4.0,100.0,,,,,,,,,,,,,,,,,,,,,,,,,,,,,,,,,,,,,,,,,,,,,,,,,,,,,,,,,,,,,,,,,,,,,,,,,,,,,,,,,,,,,,,,,,,,,,,,,,,,,,,,,,,,,,,,,,,,,,,,,,,,,,,,,,,
1725717256.455288,1725717256.457257,138.0,0.0,4233.974121,4228.974121,4234.358887,4294.743652,4216.794922,4311.794922,4104.358887,4217.820313,4205.128418,4212.692383,4393.846191,4486.666504,4311.666504,4381.922852,2882.0,0.0,11.0,,,,0.0,4.0,4.0,4.0,4.0,4.0,4.0,4.0,4.0,4.0,4.0,4.0,4.0,4.0,4.0,100.0,,,,,,,,,,,,,,,,,,,,,,,,,,,,,,,,,,,,,,,,,,,,,,,,,,,,,,,,,,,,,,,,,,,,,,,,,,,,,,,,,,,,,,,,,,,,,,,,,,,,,,,,,,,,,,,,,,,,,,,,,,,,,,,,,,,
1725717256.459192,1725717256.461261,139.0,0.0,4232.692383,4227.692383,4235.128418,4293.589844,4215.641113,4311.666504,4102.692383,4218.333496,4205.0,4207.94873,4392.563965,4481.538574,4310.384766,4380.0,3119.0,0.0,11.0,,,,0.0,4.0,4.0,4.0,4.0,4.0,4.0,4.0,4.0,4.0,4.0,4.0,4.0,4.0,4.0,100.0,,,,,,,,,,,,,,,,,,,,,,,,,,,,,,,,,,,,,,,,,,,,,,,,,,,,,,,,,,,,,,,,,,,,,,,,,,,,,,,,,,,,,,,,,,,,,,,,,,,,,,,,,,,,,,,,,,,,,,,,,,,,,,,,,,,
1725717256.463097,1725717256.465165,140.0,0.0,4232.436035,4228.077148,4234.358887,4293.077148,4214.487305,4312.820313,4102.179688,4218.589844,4203.717773,4203.589844,4388.077148,4475.641113,4307.436035,4377.307617,3416.0,0.0,11.0,,,,0.0,4.0,4.0,4.0,4.0,4.0,4.0,4.0,4.0,4.0,4.0,4.0,4.0,4.0,4.0,100.0,,,,,,,,,,,,,,,,,,,,,,,,,,,,,,,,,,,,,,,,,,,,,,,,,,,,,,,,0.0,0.0,1.0,0.0,1.0,0.0,,,,,,,,,,,,,,,,,,,,,,,,,,,,,,,,,,,,,,,,,,,,,,,,,,,,,,,,,,,,,,,,,,,,,,
1725717256.467001,1725717256.469069,141.0,0.0,4232.94873,4229.743652,4232.692383,4292.436035,4213.974121,4313.974121,4102.563965,4217.692383,4202.179688,4201.025879,4382.307617,4470.128418,4303.461426,4374.487305,3844.0,0.0,11.0,,,,0.0,4.0,4.0,4.0,4.0,4.0,4.0,4.0,4.0,4.0,4.0,4.0,4.0,4.0,4.0,100.0,,,,,,,,,,,,,,,,,,,,,,,,,,,,,,,,,,,,,,,,,,,,,,,,,,,,,,,,,,,,,,,,,,,,,,,,,,,,,,,,,,,,,,,,,,,,,,,,,,,,,,,,,,,,,,,,,,,,,,,,,,,,,,,,,,,
1725717256.470905,1725717256.472973,142.0,0.0,4232.820313,4231.282227,4231.538574,4290.512695,4214.358887,4313.974121,4103.077148,4215.897461,4200.769043,4200.384766,4377.307617,4465.256348,4299.358887,4371.922852,2882.0,0.0,11.0,,,,0.0,4.0,4.0,4.0,4.0,4.0,4.0,4.0,4.0,4.0,4.0,4.0,4.0,4.0,4.0,100.0,,,,,,,,,,,,,,,,,,,,,,,,,,,,,,,,,,,,,,,,,,,,,,,,,,,,,,,,,,,,,,,,,,,,,,,,,,,,,,,,,,,,,,,,,,,,,,,,,,,,,,,,,,,,,,,,,,,,,,,,,,,,,,,,,,,
1725717256.474809,1725717256.476877,143.0,0.0,4230.769043,4230.769043,4231.153809,4287.436035,4215.384766,4312.820313,4102.820313,4213.846191,4200.128418,4201.025879,4374.615234,4461.538574,4296.153809,4369.615234,3119.0,0.0,11.0,,,,0.0,4.0,4.0,4.0,4.0,4.0,4.0,4.0,4.0,4.0,4.0,4.0,4.0,4.0,4.0,100.0,,,,,,,,,,,,,,,,,,,,,,,,,,,,,,,,,,,,,,,,,,,,,,,,,,,,,,,,,,,,,,,,,,,,,,,,,,,,,,,,,,,,,,,,,,,,,,,,,,,,,,,,,,,,,,,,,,,,,,,,,,,,,,,,,,,
1725717256.478713,1725717256.480681,144.0,0.0,4226.666504,4227.94873,4230.512695,4283.717773,4216.282227,4311.153809,4101.922852,4212.307617,4200.0,4201.410156,4374.230957,4459.358887,4294.487305,4366.922852,3416.0,0.0,11.0,,,,0.0,4.0,4.0,4.0,4.0,4.0,4.0,4.0,4.0,4.0,4.0,4.0,4.0,4.0,4.0,100.0,,,,,,,,,,,,,,,,,,,,,,,,,,,,,,,,,,,,,,,,,,,,,,,,,,,,,,,,,,,,,,,,,,,,,,,,,,,,,,,,,,,,,,,,,,,,,,,,,,,,,,,,,,,,,,,,,,,,,,,,,,,,,,,,,,,
1725717256.482617,1725717256.484586,145.0,0.0,4221.794922,4223.461426,4228.077148,4280.897461,4216.153809,4309.871582,4101.282227,4211.282227,4200.384766,4200.897461,4374.487305,4458.333496,4294.230957,4363.846191,3844.0,0.0,11.0,,,,0.0,4.0,4.0,4.0,4.0,4.0,4.0,4.0,4.0,4.0,4.0,4.0,4.0,4.0,4.0,100.0,,,,,,,,,,,,,,,,,,,,,,,,,,,,,,,,,,,,,,,,,,,,,,,,,,,,,,,,,,,,,,,,,,,,,,,,,,,,,,,,,,,,,,,,,,,,,,,,,,,,,,,,,,,,,,,,,,,,,,,,,,,,,,,,,,,
1725717256.486521,1725717256.48849,146.0,0.0,4217.820313,4218.717773,4223.974121,4279.743652,4214.743652,4309.230957,4101.666504,4209.871582,4200.384766,4199.615234,4373.589844,4457.692383,4293.974121,4360.512695,2882.0,0.0,11.0,,,,0.0,4.0,4.0,4.0,4.0,4.0,4.0,4.0,4.0,4.0,4.0,4.0,4.0,4.0,4.0,100.0,,,,,,,,,,,,,,,,,,,,,,,,,,,,,,,,,,,,,,,,,,,,,,,,,,,,,,,,,,,,,,,,,,,,,,,,,,,,,,,,,,,,,,,,,,,,,,,,,,,,,,,,,,,,,,,,,,,,,,,,,,,,,,,,,,,
1725717256.490425,1725717256.492494,147.0,0.0,4216.538574,4215.128418,4220.128418,4280.128418,4212.436035,4308.717773,4102.820313,4208.077148,4200.0,4198.846191,4371.153809,4457.05127,4292.820313,4358.717773,3119.0,0.0,11.0,,,,0.0,4.0,4.0,4.0,4.0,4.0,4.0,4.0,4.0,4.0,4.0,4.0,4.0,4.0,4.0,100.0,,,,,,,,,,,,,,,,,,,,,,,,,,,,,,,,,,,,,,,,,,,,,,,,,,,,,,,,,,,,,,,,,,,,,,,,,,,,,,,,,,,,,,,,,,,,,,,,,,,,,,,,,,,,,,,,,,,,,,,,,,,,,,,,,,,
1725717256.494329,1725717256.496398,148.0,0.0,4218.205078,4213.333496,4218.974121,4281.153809,4210.384766,4308.077148,4103.846191,4206.922852,4199.358887,4199.102539,4369.743652,4457.307617,4291.153809,4360.256348,3416.0,0.0,11.0,,,,0.0,4.0,4.0,4.0,4.0,4.0,4.0,4.0,4.0,4.0,4.0,4.0,4.0,4.0,4.0,100.0,,,,,,,,,,,,,,,,,1.0,0.0,0.0,,,,,,,,,,,,,,,,,,,,,,,,,,,,,,,,,,,,,0.0,0.0,1.0,0.0,1.0,0.0,1.821949,3.656029,0.679514,0.354577,0.099906,2.540761,1.852868,0.948465,0.42013,0.077102,1.745223,2.592775,0.402193,0.337316,0.095117,1.878589,1.867763,0.563839,0.19115,0.103172,1.580799,0.599524,0.433942,0.131871,0.071145,0.302266,0.486662,0.155174,0.070672,0.042535,2.746615,0.763535,0.309729,0.162387,0.067759,1.470708,2.434282,0.644953,0.62306,0.123494,1.974819,2.929736,0.691882,0.543238,0.099126,2.369382,3.275909,1.825118,0.850766,0.176691,4.652215,5.45588,1.68248,0.984941,0.349824,4.047087,6.629223,0.978633,0.733838,0.351615,4.395568,4.243282,1.607687,0.990503,0.167779,3.815547,4.479295,0.729249,0.576691,0.148685
1725717256.498233,1725717256.500302,149.0,0.0,4222.307617,4213.077148,4221.410156,4282.307617,4209.871582,4307.307617,4103.974121,4208.077148,4199.358887,4200.384766,4372.436035,4459.487305,4291.153809,4366.025879,3844.0,0.0,11.0,,,,0.0,4.0,4.0,4.0,4.0,4.0,4.0,4.0,4.0,4.0,4.0,4.0,4.0,4.0,4.0,100.0,,,,,,,,,,,,,,,,,,,,,,,,,,,,,,,,,,,,,,,,,,,,,,,,,,,,,,,,,,,,,,,,,,,,,,,,,,,,,,,,,,,,,,,,,,,,,,,,,,,,,,,,,,,,,,,,,,,,,,,,,,,,,,,,,,,
1725717256.502137,1725717256.504206,150.0,0.0,4227.179688,4213.974121,4226.794922,4283.333496,4211.153809,4306.922852,4103.461426,4212.05127,4200.384766,4202.179688,4379.743652,4464.230957,4294.487305,4373.974121,2882.0,0.0,11.0,,,,0.0,4.0,4.0,4.0,4.0,4.0,4.0,4.0,4.0,4.0,4.0,4.0,4.0,4.0,4.0,100.0,,,,,,,,,,,,,,,,,,,,,,,,,,,,,,,,,,,,,,,,,,,,,,,,,,,,,,,,,,,,,,,,,,,,,,,,,,,,,,,,,,,,,,,,,,,,,,,,,,,,,,,,,,,,,,,,,,,,,,,,,,,,,,,,,,,
1725717256.506041,1725717256.50811,151.0,0.0,4231.153809,4215.128418,4232.05127,4283.589844,4213.717773,4306.922852,4103.589844,4216.666504,4202.179688,4203.333496,4388.205078,4470.769043,4300.256348,4381.153809,3119.0,0.0,11.0,,,,0.0,4.0,4.0,4.0,4.0,4.0,4.0,4.0,4.0,4.0,4.0,4.0,4.0,4.0,4.0,100.0,,,,,,,,,,,,,,,,,,,,,,,,,,,,,,,,,,,,,,,,,,,,,,,,,,,,,,,,,,,,,,,,,,,,,,,,,,,,,,,,,,,,,,,,,,,,,,,,,,,,,,,,,,,,,,,,,,,,,,,,,,,,,,,,,,,
1725717256.509946,1725717256.511914,152.0,0.0,4233.333496,4216.025879,4234.871582,4282.436035,4216.282227,4307.179688,4105.0,4218.205078,4203.461426,4203.333496,4393.333496,4476.666504,4305.384766,4384.230957,3416.0,0.0,11.0,,,,0.0,4.0,4.0,4.0,4.0,4.0,4.0,4.0,4.0,4.0,4.0,4.0,4.0,4.0,4.0,100.0,,,,,,,,,,,,,,,,,,,,,,,,,,,,,,,,,,,,,,,,,,,,,,,,,,,,,,,,,,,,,,,,,,,,,,,,,,,,,,,,,,,,,,,,,,,,,,,,,,,,,,,,,,,,,,,,,,,,,,,,,,,,,,,,,,,
1725717256.51385,1725717256.515818,153.0,0.0,4233.333496,4216.025879,4234.102539,4280.384766,4217.820313,4307.307617,4106.666504,4214.487305,4203.077148,4202.563965,4392.563965,4479.358887,4305.769043,4382.179688,3844.0,0.0,11.0,,,,0.0,4.0,4.0,4.0,4.0,4.0,4.0,4.0,4.0,4.0,4.0,4.0,4.0,4.0,4.0,100.0,,,,,,,,,,,,,,,,,,,,,,,,,,,,,,,,,,,,,,,,,,,,,,,,,,,,,,,,,,,,,,,,,,,,,,,,,,,,,,,,,,,,,,,,,,,,,,,,,,,,,,,,,,,,,,,,,,,,,,,,,,,,,,,,,,,
1725717256.517754,1725717256.519723,154.0,0.0,4231.922852,4215.256348,4231.153809,4278.974121,4218.333496,4307.05127,4107.307617,4207.436035,4200.897461,4201.538574,4387.692383,4477.307617,4300.897461,4376.794922,2882.0,0.0,11.0,,,,0.0,4.0,4.0,4.0,4.0,4.0,4.0,4.0,4.0,4.0,4.0,4.0,4.0,4.0,4.0,100.0,,,,,,,,,,,,,,,,,,,,,,,,,,,,,,,,,,,,,,,,,,,,,,,,,,,,,,,,,,,,,,,,,,,,,,,,,,,,,,,,,,,,,,,,,,,,,,,,,,,,,,,,,,,,,,,,,,,,,,,,,,,,,,,,,,,
1725717256.521658,1725717256.523627,155.0,0.0,4230.128418,4214.230957,4228.205078,4280.512695,4218.205078,4306.538574,4107.05127,4201.153809,4198.589844,4200.897461,4383.077148,4472.563965,4294.230957,4371.538574,3119.0,0.0,11.0,,,,0.0,4.0,4.0,4.0,4.0,4.0,4.0,4.0,4.0,4.0,4.0,4.0,4.0,4.0,4.0,100.0,,,,,,,,,,,,,,,,,,,,,,,,,,,,,,,,,,,,,,,,,,,,,,,,,,,,,,,,,,,,,,,,,,,,,,,,,,,,,,,,,,,,,,,,,,,,,,,,,,,,,,,,,,,,,,,,,,,,,,,,,,,,,,,,,,,
1725717256.525562,1725717256.527431,156.0,0.0,4229.230957,4213.974121,4227.05127,4285.384766,4217.94873,4306.282227,4107.179688,4200.128418,4197.692383,4201.538574,4383.461426,4469.487305,4291.153809,4370.128418,3416.0,0.0,11.0,,,,0.0,4.0,4.0,4.0,4.0,4.0,4.0,4.0,4.0,4.0,4.0,4.0,4.0,4.0,4.0,100.0,,,,,,,,,,,,,,,,,,,,,,,,,,,,,,,,,,,,,,,,,,,,,,,,,,,,,,,,0.0,0.0,1.0,0.0,1.0,0.0,,,,,,,,,,,,,,,,,,,,,,,,,,,,,,,,,,,,,,,,,,,,,,,,,,,,,,,,,,,,,,,,,,,,,,
1725717256.529466,1725717256.531335,157.0,0.0,4229.743652,4215.128418,4228.461426,4291.666504,4218.077148,4306.922852,4109.487305,4205.641113,4199.358887,4203.589844,4390.384766,4471.410156,4294.615234,4374.102539,3844.0,0.0,11.0,,,,0.0,4.0,4.0,4.0,4.0,4.0,4.0,4.0,4.0,4.0,4.0,4.0,4.0,4.0,4.0,100.0,,,,,,,,,,,,,,,,,,,,,,,,,,,,,,,,,,,,,,,,,,,,,,,,,,,,,,,,,,,,,,,,,,,,,,,,,,,,,,,,,,,,,,,,,,,,,,,,,,,,,,,,,,,,,,,,,,,,,,,,,,,,,,,,,,,
1725717256.53337,1725717256.535239,158.0,0.0,4231.538574,4217.179688,4231.794922,4295.512695,4218.333496,4308.589844,4114.358887,4214.743652,4202.179688,4206.282227,4400.256348,4477.563965,4302.436035,4381.282227,2882.0,0.0,11.0,,,,0.0,4.0,4.0,4.0,4.0,4.0,4.0,4.0,4.0,4.0,4.0,4.0,4.0,4.0,4.0,100.0,,,,,,,,,,,,,,,,,,,,,,,,,,,,,,,,,,,,,,,,,,,,,,,,,,,,,,,,,,,,,,,,,,,,,,,,,,,,,,,,,,,,,,,,,,,,,,,,,,,,,,,,,,,,,,,,,,,,,,,,,,,,,,,,,,,
1725717256.537274,1725717256.539143,159.0,0.0,4233.589844,4218.717773,4234.871582,4293.717773,4218.846191,4310.641113,4120.0,4222.05127,4203.974121,4207.307617,4406.282227,4482.820313,4308.461426,4386.538574,3119.0,0.0,11.0,,,,0.0,4.0,4.0,4.0,4.0,4.0,4.0,4.0,4.0,4.0,4.0,4.0,4.0,4.0,4.0,100.0,,,,,,,,,,,,,,,,,,,,,,,,,,,,,,,,,,,,,,,,,,,,,,,,,,,,,,,,,,,,,,,,,,,,,,,,,,,,,,,,,,,,,,,,,,,,,,,,,,,,,,,,,,,,,,,,,,,,,,,,,,,,,,,,,,,
1725717256.541178,1725717256.542947,160.0,0.0,4234.358887,4218.333496,4235.512695,4286.538574,4218.846191,4311.410156,4123.974121,4223.589844,4203.205078,4205.512695,4404.102539,4482.05127,4307.436035,4385.256348,3416.0,0.0,11.0,,,,0.0,4.0,4.0,4.0,4.0,4.0,4.0,4.0,4.0,4.0,4.0,4.0,4.0,4.0,4.0,100.0,,,,,,,,,,,,,,,,,,,,,,,,,,,,,,,,,,,,,,,,,,,,,,,,,,,,,,,,,,,,,,,,,,,,,,,,,,,,,,,,,,,,,,,,,,,,,,,,,,,,,,,,,,,,,,,,,,,,,,,,,,,,,,,,,,,
1725717256.545082,1725717256.546851,161.0,0.0,4233.589844,4215.641113,4232.692383,4277.820313,4218.717773,4310.0,4125.0,4219.743652,4200.512695,4201.282227,4395.0,4475.0,4299.743652,4377.436035,3844.0,0.0,11.0,,,,0.0,4.0,4.0,4.0,4.0,4.0,4.0,4.0,4.0,4.0,4.0,4.0,4.0,4.0,4.0,100.0,,,,,,,,,,,,,,,,,,,,,,,,,,,,,,,,,,,,,,,,,,,,,,,,,,,,,,,,,,,,,,,,,,,,,,,,,,,,,,,,,,,,,,,,,,,,,,,,,,,,,,,,,,,,,,,,,,,,,,,,,,,,,,,,,,,
1725717256.548987,1725717256.550756,162.0,0.0,4232.05127,4212.820313,4228.077148,4272.563965,4218.717773,4307.436035,4123.846191,4214.358887,4197.94873,4196.922852,4385.897461,4466.666504,4290.384766,4367.307617,2882.0,0.0,11.0,,,,0.0,4.0,4.0,4.0,4.0,4.0,4.0,4.0,4.0,4.0,4.0,4.0,4.0,4.0,4.0,100.0,,,,,,,,,,,,,,,,,,,,,,,,,,,,,,,,,,,,,,,,,,,,,,,,,,,,,,,,,,,,,,,,,,,,,,,,,,,,,,,,,,,,,,,,,,,,,,,,,,,,,,,,,,,,,,,,,,,,,,,,,,,,,,,,,,,
1725717256.552891,1725717256.55476,163.0,0.0,4230.769043,4211.666504,4223.974121,4272.692383,4219.230957,4305.641113,4122.436035,4211.794922,4197.05127,4195.256348,4383.077148,4462.94873,4285.384766,4361.153809,3119.0,0.0,11.0,,,,0.0,4.0,4.0,4.0,4.0,4.0,4.0,4.0,4.0,4.0,4.0,4.0,4.0,4.0,4.0,100.0,,,,,,,,,,,,,,,,,,,,,,,,,,,,,,,,,,,,,,,,,,,,,,,,,,,,,,,,,,,,,,,,,,,,,,,,,,,,,,,,,,,,,,,,,,,,,,,,,,,,,,,,,,,,,,,,,,,,,,,,,,,,,,,,,,,
1725717256.556795,1725717256.558664,164.0,0.0,4230.512695,4212.94873,4222.563965,4276.410156,4219.871582,4305.641113,4122.05127,4212.820313,4198.077148,4197.179688,4387.820313,4465.641113,4287.307617,4361.794922,3416.0,0.0,11.0,,,,0.0,4.0,4.0,4.0,4.0,4.0,4.0,4.0,4.0,4.0,4.0,4.0,4.0,4.0,4.0,100.0,,,,,,,,,,,,,,,,,,,,,,,,,,,,,,,,,,,,,,,,,,,,,,,,,,,,,,,,0.0,0.0,1.0,0.0,1.0,0.0,,,,,,,,,,,,,,,,,,,,,,,,,,,,,,,,,,,,,,,,,,,,,,,,,,,,,,,,,,,,,,,,,,,,,,
1725717256.560699,1725717256.562568,165.0,0.0,4230.897461,4215.0,4224.102539,4280.0,4220.0,4306.666504,4122.94873,4216.025879,4200.128418,4201.025879,4396.153809,4471.282227,4293.717773,4367.692383,3844.0,0.0,11.0,,,,0.0,4.0,4.0,4.0,4.0,4.0,4.0,4.0,4.0,4.0,4.0,4.0,4.0,4.0,4.0,100.0,,,,,,,,,,,,,,,,,,,,,,,,,,,,,,,,,,,,,,,,,,,,,,,,,,,,,,,,,,,,,,,,,,,,,,,,,,,,,,,,,,,,,,,,,,,,,,,,,,,,,,,,,,,,,,,,,,,,,,,,,,,,,,,,,,,
1725717256.564603,1725717256.566572,166.0,0.0,4231.538574,4216.025879,4227.307617,4280.769043,4219.743652,4307.05127,4123.974121,4218.589844,4201.922852,4204.230957,4402.179688,4474.743652,4299.487305,4373.717773,2882.0,0.0,11.0,,,,0.0,4.0,4.0,4.0,4.0,4.0,4.0,4.0,4.0,4.0,4.0,4.0,4.0,4.0,4.0,100.0,,,,,,,,,,,,,,,,,,,,,,,,,,,,,,,,,,,,,,,,,,,,,,,,,,,,,,,,,,,,,,,,,,,,,,,,,,,,,,,,,,,,,,,,,,,,,,,,,,,,,,,,,,,,,,,,,,,,,,,,,,,,,,,,,,,
1725717256.568507,1725717256.570476,167.0,0.0,4231.922852,4215.128418,4230.0,4279.102539,4219.358887,4306.025879,4124.615234,4219.230957,4202.692383,4204.230957,4402.692383,4473.333496,4300.897461,4376.025879,3119.0,0.0,11.0,,,,0.0,4.0,4.0,4.0,4.0,4.0,4.0,4.0,4.0,4.0,4.0,4.0,4.0,4.0,4.0,100.0,,,,,,,,,,,,,,,,,,,,,,,,,,,,,,,,,,,,,,,,,,,,,,,,,,,,,,,,,,,,,,,,,,,,,,,,,,,,,,,,,,,,,,,,,,,,,,,,,,,,,,,,,,,,,,,,,,,,,,,,,,,,,,,,,,,
1725717256.572411,1725717256.57438,168.0,0.0,4231.794922,4213.205078,4230.641113,4277.307617,4219.230957,4303.846191,4124.615234,4217.94873,4202.05127,4200.641113,4398.846191,4468.461426,4297.692383,4374.102539,3416.0,0.0,11.0,,,,0.0,4.0,4.0,4.0,4.0,4.0,4.0,4.0,4.0,4.0,4.0,4.0,4.0,4.0,4.0,100.0,,,,,,,,,,,,,,,,,,,,,,,,,,,,,,,,,,,,,,,,,,,,,,,,,,,,,,,,,,,,,,,,,,,,,,,,,,,,,,,,,,,,,,,,,,,,,,,,,,,,,,,,,,,,,,,,,,,,,,,,,,,,,,,,,,,
1725717256.576315,1725717256.578284,169.0,0.0,4231.153809,4211.666504,4229.615234,4277.820313,4219.230957,4302.05127,4125.128418,4215.641113,4200.384766,4196.025879,4394.743652,4464.230957,4292.820313,4370.512695,3844.0,0.0,11.0,,,,0.0,4.0,4.0,4.0,4.0,4.0,4.0,4.0,4.0,4.0,4.0,4.0,4.0,4.0,4.0,100.0,,,,,,,,,,,,,,,,,,,,,,,,,,,,,,,,,,,,,,,,,,,,,,,,,,,,,,,,,,,,,,,,,,,,,,,,,,,,,,,,,,,,,,,,,,,,,,,,,,,,,,,,,,,,,,,,,,,,,,,,,,,,,,,,,,,
1725717256.580219,1725717256.582188,170.0,0.0,4230.256348,4211.794922,4228.333496,4280.384766,4218.974121,4301.410156,4126.538574,4213.461426,4198.974121,4194.358887,4393.717773,4463.974121,4289.487305,4368.717773,2882.0,0.0,11.0,,,,0.0,4.0,4.0,4.0,4.0,4.0,4.0,4.0,4.0,4.0,4.0,4.0,4.0,4.0,4.0,100.0,,,,,,,,,,,,,,,,,,,,,,,,,,,,,,,,,,,,,,,,,,,,,,,,,,,,,,,,,,,,,,,,,,,,,,,,,,,,,,,,,,,,,,,,,,,,,,,,,,,,,,,,,,,,,,,,,,,,,,,,,,,,,,,,,,,
1725717256.584123,1725717256.585992,171.0,0.0,4229.615234,4213.077148,4228.333496,4283.077148,4218.461426,4301.922852,4128.333496,4212.94873,4199.487305,4198.333496,4396.538574,4468.205078,4289.871582,4370.384766,3119.0,0.0,11.0,,,,0.0,4.0,4.0,4.0,4.0,4.0,4.0,4.0,4.0,4.0,4.0,4.0,4.0,4.0,4.0,100.0,,,,,,,,,,,,,,,,,,,,,,,,,,,,,,,,,,,,,,,,,,,,,,,,,,,,,,,,,,,,,,,,,,,,,,,,,,,,,,,,,,,,,,,,,,,,,,,,,,,,,,,,,,,,,,,,,,,,,,,,,,,,,,,,,,,
1725717256.588028,1725717256.589896,172.0,0.0,4229.615234,4214.743652,4229.743652,4283.846191,4217.820313,4302.94873,4129.102539,4214.871582,4203.077148,4206.666504,4401.922852,4474.102539,4293.717773,4374.230957,3416.0,0.0,11.0,,,,0.0,4.0,4.0,4.0,4.0,4.0,4.0,4.0,4.0,4.0,4.0,4.0,4.0,4.0,4.0,100.0,,,,,,,,,,,,,,,,,,,,,,,,,,,,,,,,,,,,,,,,,,,,,,,,,,,,,,,,0.0,0.0,1.0,0.0,1.0,0.0,,,,,,,,,,,,,,,,,,,,,,,,,,,,,,,,,,,,,,,,,,,,,,,,,,,,,,,,,,,,,,,,,,,,,,
1725717256.591932,1725717256.593801,173.0,0.0,4230.384766,4215.512695,4231.794922,4282.820313,4217.307617,4303.589844,4128.205078,4219.615234,4208.974121,4214.871582,4407.563965,4478.077148,4299.615234,4378.205078,3844.0,0.0,11.0,,,,0.0,4.0,4.0,4.0,4.0,4.0,4.0,4.0,4.0,4.0,4.0,4.0,4.0,4.0,4.0,100.0,,,,,,,,,,,,,,,,,,,,,,,,,,,,,,,,,,,,,,,,,,,,,,,,,,,,,,,,,,,,,,,,,,,,,,,,,,,,,,,,,,,,,,,,,,,,,,,,,,,,,,,,,,,,,,,,,,,,,,,,,,,,,,,,,,,
1725717256.595836,1725717256.597805,174.0,0.0,4231.794922,4215.384766,4233.205078,4282.05127,4216.922852,4302.94873,4126.922852,4225.128418,4215.0,4218.461426,4411.666504,4478.846191,4304.615234,4380.897461,2882.0,0.0,11.0,,,,0.0,4.0,4.0,4.0,4.0,4.0,4.0,4.0,4.0,4.0,4.0,4.0,4.0,4.0,4.0,100.0,,,,,,,,,,,,,,,,,,,,,,,,,,,,,,,,,,,,,,,,,,,,,,,,,,,,,,,,,,,,,,,,,,,,,,,,,,,,,,,,,,,,,,,,,,,,,,,,,,,,,,,,,,,,,,,,,,,,,,,,,,,,,,,,,,,
1725717256.59974,1725717256.601709,175.0,0.0,4233.717773,4214.871582,4233.205078,4282.820313,4216.794922,4301.025879,4126.538574,4228.717773,4217.692383,4216.025879,4413.974121,4477.563965,4306.025879,4381.153809,3119.0,0.0,11.0,,,,0.0,4.0,4.0,4.0,4.0,4.0,4.0,4.0,4.0,4.0,4.0,4.0,4.0,4.0,4.0,100.0,,,,,,,,,,,,,,,,,,,,,,,,,,,,,,,,,,,,,,,,,,,,,,,,,,,,,,,,,,,,,,,,,,,,,,,,,,,,,,,,,,,,,,,,,,,,,,,,,,,,,,,,,,,,,,,,,,,,,,,,,,,,,,,,,,,
1725717256.603644,1725717256.605613,176.0,0.0,4234.743652,4214.743652,4232.05127,4285.512695,4216.538574,4298.589844,4127.94873,4228.461426,4215.512695,4209.358887,4414.358887,4476.538574,4303.333496,4378.974121,3416.0,0.0,11.0,,,,0.0,4.0,4.0,4.0,4.0,4.0,4.0,4.0,4.0,4.0,4.0,4.0,4.0,4.0,4.0,100.0,,,,,,,,,,,,,,,,,,,,,,,,,,,,,,,,,,,,,,,,,,,,,,,,,,,,,,,,,,,,,,,,,,,,,,,,,,,,,,,,,,,,,,,,,,,,,,,,,,,,,,,,,,,,,,,,,,,,,,,,,,,,,,,,,,,
1725717256.607548,1725717256.609517,177.0,0.0,4234.358887,4215.641113,4230.897461,4289.487305,4216.410156,4297.05127,4130.641113,4224.743652,4209.615234,4201.922852,4413.717773,4475.897461,4298.333496,4375.128418,3844.0,0.0,11.0,,,,0.0,4.0,4.0,4.0,4.0,4.0,4.0,4.0,4.0,4.0,4.0,4.0,4.0,4.0,4.0,100.0,,,,,,,,,,,,,,,,,,,,,,,,,,,,,,,,,,,,,,,,,,,,,,,,,,,,,,,,,,,,,,,,,,,,,,,,,,,,,,,,,,,,,,,,,,,,,,,,,,,,,,,,,,,,,,,,,,,,,,,,,,,,,,,,,,,
1725717256.611452,1725717256.613421,178.0,0.0,4233.077148,4217.307617,4230.384766,4293.461426,4216.538574,4296.666504,4133.717773,4219.230957,4203.077148,4197.179688,4412.307617,4475.0,4294.743652,4371.410156,2882.0,0.0,11.0,,,,0.0,4.0,4.0,4.0,4.0,4.0,4.0,4.0,4.0,4.0,4.0,4.0,4.0,4.0,4.0,100.0,,,,,,,,,,,,,,,,,,,,,,,,,,,,,,,,,,,,,,,,,,,,,,,,,,,,,,,,,,,,,,,,,,,,,,,,,,,,,,,,,,,,,,,,,,,,,,,,,,,,,,,,,,,,,,,,,,,,,,,,,,,,,,,,,,,
1725717256.615356,1725717256.617225,179.0,0.0,4232.436035,4218.717773,4230.897461,4296.666504,4217.436035,4297.307617,4136.410156,4214.615234,4198.846191,4196.282227,4410.0,4473.717773,4294.487305,4369.358887,3119.0,0.0,11.0,,,,0.0,4.0,4.0,4.0,4.0,4.0,4.0,4.0,4.0,4.0,4.0,4.0,4.0,4.0,4.0,100.0,,,,,,,,,,,,,,,,,,,,,,,,,,,,,,,,,,,,,,,,,,,,,,,,,,,,,,,,,,,,,,,,,,,,,,,,,,,,,,,,,,,,,,,,,,,,,,,,,,,,,,,,,,,,,,,,,,,,,,,,,,,,,,,,,,,
1725717256.61926,1725717256.621129,180.0,0.0,4234.358887,4219.230957,4231.922852,4298.333496,4218.589844,4298.077148,4137.94873,4212.692383,4198.077148,4198.461426,4407.692383,4473.974121,4296.410156,4369.615234,3416.0,0.0,11.0,,,,0.0,4.0,4.0,4.0,4.0,4.0,4.0,4.0,4.0,4.0,4.0,4.0,4.0,4.0,4.0,100.0,1.0,75.0,4.0,4.0,4.0,4.0,4.0,4.0,1.0,4.0,4.0,4.0,4.0,4.0,4.0,4.0,1.0,0.0,0.0,,,,,,,,,,,,,,,,,,,,,,,,,,,,,,,,,,,,,0.0,0.0,1.0,0.0,1.0,0.0,1.614597,3.579849,0.687015,0.360331,0.094457,2.661513,1.741316,0.902807,0.449588,0.091711,1.651449,2.557555,0.426585,0.337058,0.087203,1.906411,1.744637,0.572734,0.209165,0.10411,1.876882,0.683671,0.471184,0.12601,0.063814,0.330935,0.543211,0.149474,0.06861,0.048878,2.778402,0.840064,0.342235,0.166763,0.065424,1.42024,2.448623,0.609729,0.595353,0.123029,1.95929,2.992983,0.724361,0.513088,0.101958,2.251714,3.573229,1.856653,0.809723,0.166815,4.649079,5.348027,1.643848,0.911956,0.349786,3.940889,6.424877,1.022783,0.697539,0.3236,4.654676,4.213449,1.558369,0.960057,0.15717,3.926843,4.367154,0.690244,0.553589,0.139738
1725717256.623165,1725717256.625033,181.0,0.0,4238.717773,4219.230957,4233.461426,4298.974121,4219.487305,4298.461426,4138.333496,4213.974121,4199.871582,4201.794922,4407.563965,4477.307617,4297.820313,4372.307617,3844.0,0.0,11.0,,,,0.0,4.0,4.0,4.0,4.0,4.0,4.0,4.0,4.0,4.0,4.0,4.0,4.0,4.0,4.0,100.0,,,,,,,,,,,,,,,,,,,,,,,,,,,,,,,,,,,,,,,,,,,,,,,,,,,,,,,,,,,,,,,,,,,,,,,,,,,,,,,,,,,,,,,,,,,,,,,,,,,,,,,,,,,,,,,,,,,,,,,,,,,,,,,,,,,
1725717256.627069,1725717256.628938,182.0,0.0,4244.487305,4219.871582,4235.641113,4299.487305,4219.615234,4298.717773,4138.461426,4217.179688,4202.563965,4205.0,4411.794922,4483.461426,4296.922852,4376.922852,2882.0,0.0,11.0,,,,0.0,4.0,4.0,4.0,4.0,4.0,4.0,4.0,4.0,4.0,4.0,4.0,4.0,4.0,4.0,100.0,,,,,,,,,,,,,,,,,,,,,,,,,,,,,,,,,,,,,,,,,,,,,,,,,,,,,,,,,,,,,,,,,,,,,,,,,,,,,,,,,,,,,,,,,,,,,,,,,,,,,,,,,,,,,,,,,,,,,,,,,,,,,,,,,,,
1725717256.630973,1725717256.632742,183.0,0.0,4249.358887,4221.410156,4238.589844,4301.538574,4219.230957,4298.846191,4139.487305,4220.0,4204.487305,4207.692383,4420.384766,4490.128418,4295.384766,4382.307617,3119.0,0.0,11.0,,,,0.0,4.0,4.0,4.0,4.0,4.0,4.0,4.0,4.0,4.0,4.0,4.0,4.0,4.0,4.0,100.0,,,,,,,,,,,,,,,,,,,,,,,,,,,,,,,,,,,,,,,,,,,,,,,,,,,,,,,,,,,,,,,,,,,,,,,,,,,,,,,,,,,,,,,,,,,,,,,,,,,,,,,,,,,,,,,,,,,,,,,,,,,,,,,,,,,
1725717256.634877,1725717256.636646,184.0,0.0,4251.922852,4223.333496,4242.307617,4304.743652,4218.974121,4298.461426,4142.179688,4221.153809,4205.0,4210.256348,4430.384766,4494.487305,4297.05127,4387.436035,3416.0,0.0,11.0,,,,0.0,4.0,4.0,4.0,4.0,4.0,4.0,4.0,4.0,4.0,4.0,4.0,4.0,4.0,4.0,100.0,,,,,,,,,,,,,,,,,,,,,,,,,,,,,,,,,,,,,,,,,,,,,,,,,,,,,,,,,,,,,,,,,,,,,,,,,,,,,,,,,,,,,,,,,,,,,,,,,,,,,,,,,,,,,,,,,,,,,,,,,,,,,,,,,,,
1725717256.638781,1725717256.64055,185.0,0.0,4252.05127,4224.487305,4246.025879,4308.461426,4219.358887,4297.179688,4146.025879,4220.384766,4204.230957,4212.94873,4437.94873,4495.384766,4303.846191,4391.794922,3844.0,0.0,11.0,,,,0.0,4.0,4.0,4.0,4.0,4.0,4.0,4.0,4.0,4.0,4.0,4.0,4.0,4.0,4.0,100.0,,,,,,,,,,,,,,,,,,,,,,,,,,,,,,,,,,,,,,,,,,,,,,,,,,,,,,,,,,,,,,,,,,,,,,,,,,,,,,,,,,,,,,,,,,,,,,,,,,,,,,,,,,,,,,,,,,,,,,,,,,,,,,,,,,,
1725717256.642685,1725717256.644454,186.0,0.0,4250.769043,4224.487305,4248.589844,4311.410156,4220.128418,4295.897461,4149.615234,4218.461426,4203.077148,4215.384766,4440.897461,4493.461426,4313.589844,4394.615234,2882.0,0.0,11.0,,,,0.0,4.0,4.0,4.0,4.0,4.0,4.0,4.0,4.0,4.0,4.0,4.0,4.0,4.0,4.0,100.0,,,,,,,,,,,,,,,,,,,,,,,,,,,,,,,,,,,,,,,,,,,,,,,,,,,,,,,,,,,,,,,,,,,,,,,,,,,,,,,,,,,,,,,,,,,,,,,,,,,,,,,,,,,,,,,,,,,,,,,,,,,,,,,,,,,
1725717256.646589,1725717256.648258,187.0,0.0,4249.743652,4223.589844,4249.102539,4312.307617,4220.641113,4296.025879,4151.922852,4216.025879,4202.179688,4217.179688,4439.615234,4490.641113,4321.153809,4395.897461,3119.0,0.0,11.0,,,,0.0,4.0,4.0,4.0,4.0,4.0,4.0,4.0,4.0,4.0,4.0,4.0,4.0,4.0,4.0,100.0,,,,,,,,,,,,,,,,,,,,,,,,,,,,,,,,,,,,,,,,,,,,,,,,,,,,,,,,,,,,,,,,,,,,,,,,,,,,,,,,,,,,,,,,,,,,,,,,,,,,,,,,,,,,,,,,,,,,,,,,,,,,,,,,,,,
1725717256.650493,1725717256.652162,188.0,0.0,4249.487305,4223.205078,4247.820313,4311.153809,4220.769043,4297.820313,4152.820313,4214.358887,4202.692383,4218.333496,4437.563965,4488.846191,4322.820313,4395.897461,3416.0,0.0,11.0,,,,0.0,4.0,4.0,4.0,4.0,4.0,4.0,4.0,4.0,4.0,4.0,4.0,4.0,4.0,4.0,100.0,,,,,,,,,,,,,,,,,,,,,,,,,,,,,,,,,,,,,,,,,,,,,,,,,,,,,,,,0.0,0.0,1.0,0.0,1.0,0.0,,,,,,,,,,,,,,,,,,,,,,,,,,,,,,,,,,,,,,,,,,,,,,,,,,,,,,,,,,,,,,,,,,,,,,
1725717256.654397,1725717256.656066,189.0,0.0,4250.384766,4224.871582,4246.025879,4309.102539,4220.897461,4300.384766,4153.077148,4214.102539,4206.153809,4219.615234,4438.077148,4489.615234,4320.256348,4395.769043,3844.0,0.0,11.0,,,,0.0,4.0,4.0,4.0,4.0,4.0,4.0,4.0,4.0,4.0,4.0,4.0,4.0,4.0,4.0,100.0,,,,,,,,,,,,,,,,,,,,,,,,,,,,,,,,,,,,,,,,,,,,,,,,,,,,,,,,,,,,,,,,,,,,,,,,,,,,,,,,,,,,,,,,,,,,,,,,,,,,,,,,,,,,,,,,,,,,,,,,,,,,,,,,,,,
1725717256.658301,1725717256.66007,190.0,0.0,4251.922852,4228.333496,4245.128418,4307.563965,4222.05127,4302.436035,4152.94873,4216.025879,4212.307617,4221.025879,4442.05127,4493.333496,4318.461426,4396.794922,2882.0,0.0,11.0,,,,0.0,4.0,4.0,4.0,4.0,4.0,4.0,4.0,4.0,4.0,4.0,4.0,4.0,4.0,4.0,100.0,,,,,,,,,,,,,,,,,,,,,,,,,,,,,,,,,,,,,,,,,,,,,,,,,,,,,,,,,,,,,,,,,,,,,,,,,,,,,,,,,,,,,,,,,,,,,,,,,,,,,,,,,,,,,,,,,,,,,,,,,,,,,,,,,,,
1725717256.662206,1725717256.663975,191.0,0.0,4252.820313,4232.563965,4245.769043,4307.820313,4224.615234,4303.077148,4152.692383,4219.487305,4218.077148,4222.179688,4447.05127,4499.230957,4321.282227,4399.102539,3119.0,0.0,11.0,,,,0.0,4.0,4.0,4.0,4.0,4.0,4.0,4.0,4.0,4.0,4.0,4.0,4.0,4.0,4.0,100.0,,,,,,,,,,,,,,,,,,,,,,,,,,,,,,,,,,,,,,,,,,,,,,,,,,,,,,,,,,,,,,,,,,,,,,,,,,,,,,,,,,,,,,,,,,,,,,,,,,,,,,,,,,,,,,,,,,,,,,,,,,,,,,,,,,,
1725717256.666109,1725717256.667879,192.0,0.0,4252.307617,4235.0,4247.307617,4309.358887,4227.563965,4301.666504,4152.307617,4222.692383,4219.358887,4221.666504,4449.871582,4505.128418,4327.05127,4401.282227,3416.0,0.0,11.0,,,,0.0,4.0,4.0,4.0,4.0,4.0,4.0,4.0,4.0,4.0,4.0,4.0,4.0,4.0,4.0,100.0,,,,,,,,,,,,,,,,,,,,,,,,,,,,,,,,,,,,,,,,,,,,,,,,,,,,,,,,,,,,,,,,,,,,,,,,,,,,,,,,,,,,,,,,,,,,,,,,,,,,,,,,,,,,,,,,,,,,,,,,,,,,,,,,,,,
1725717256.670014,1725717256.671883,193.0,0.0,4250.128418,4234.615234,4248.333496,4310.769043,4229.230957,4298.846191,4152.436035,4224.615234,4214.871582,4219.487305,4448.846191,4508.717773,4330.641113,4401.666504,3844.0,0.0,11.0,,,,0.0,4.0,4.0,4.0,4.0,4.0,4.0,4.0,4.0,4.0,4.0,4.0,4.0,4.0,4.0,100.0,,,,,,,,,,,,,,,,,,,,,,,,,,,,,,,,,,,,,,,,,,,,,,,,,,,,,,,,,,,,,,,,,,,,,,,,,,,,,,,,,,,,,,,,,,,,,,,,,,,,,,,,,,,,,,,,,,,,,,,,,,,,,,,,,,,
1725717256.673918,1725717256.675787,194.0,0.0,4247.94873,4232.307617,4248.077148,4310.897461,4229.102539,4295.512695,4154.230957,4225.256348,4208.077148,4216.794922,4445.384766,4508.589844,4328.205078,4400.0,2882.0,0.0,11.0,,,,0.0,4.0,4.0,4.0,4.0,4.0,4.0,4.0,4.0,4.0,4.0,4.0,4.0,4.0,4.0,100.0,,,,,,,,,,,,,,,,,,,,,,,,,,,,,,,,,,,,,,,,,,,,,,,,,,,,,,,,,,,,,,,,,,,,,,,,,,,,,,,,,,,,,,,,,,,,,,,,,,,,,,,,,,,,,,,,,,,,,,,,,,,,,,,,,,,
1725717256.677822,1725717256.679691,195.0,0.0,4247.179688,4230.512695,4247.307617,4310.769043,4227.820313,4293.589844,4157.820313,4226.282227,4203.589844,4215.256348,4443.077148,4506.282227,4321.025879,4397.820313,3119.0,0.0,11.0,,,,0.0,4.0,4.0,4.0,4.0,4.0,4.0,4.0,4.0,4.0,4.0,4.0,4.0,4.0,4.0,100.0,,,,,,,,,,,,,,,,,,,,,,,,,,,,,,,,,,,,,,,,,,,,,,,,,,,,,,,,,,,,,,,,,,,,,,,,,,,,,,,,,,,,,,,,,,,,,,,,,,,,,,,,,,,,,,,,,,,,,,,,,,,,,,,,,,,
1725717256.681726,1725717256.683595,196.0,0.0,4249.102539,4230.769043,4247.05127,4311.922852,4227.179688,4293.846191,4162.563965,4228.717773,4203.846191,4215.769043,4444.743652,4504.487305,4314.487305,4397.307617,3416.0,0.0,11.0,,,,0.0,4.0,4.0,4.0,4.0,4.0,4.0,4.0,4.0,4.0,4.0,4.0,4.0,4.0,4.0,100.0,,,,,,,,,,,,,,,,,,,,,,,,,,,,,,,,,,,,,,,,,,,,,,,,,,,,,,,,0.0,0.0,1.0,0.0,1.0,0.0,,,,,,,,,,,,,,,,,,,,,,,,,,,,,,,,,,,,,,,,,,,,,,,,,,,,,,,,,,,,,,,,,,,,,,
1725717256.68563,1725717256.687499,197.0,0.0,4252.820313,4233.077148,4248.077148,4315.0,4228.205078,4295.641113,4167.307617,4231.282227,4206.922852,4217.563965,4449.487305,4505.256348,4312.94873,4399.358887,3844.0,0.0,11.0,,,,0.0,4.0,4.0,4.0,4.0,4.0,4.0,4.0,4.0,4.0,4.0,4.0,4.0,4.0,4.0,100.0,,,,,,,,,,,,,,,,,,,,,,,,,,,,,,,,,,,,,,,,,,,,,,,,,,,,,,,,,,,,,,,,,,,,,,,,,,,,,,,,,,,,,,,,,,,,,,,,,,,,,,,,,,,,,,,,,,,,,,,,,,,,,,,,,,,
1725717256.689534,1725717256.691303,198.0,0.0,4256.025879,4235.0,4249.615234,4318.205078,4230.641113,4297.692383,4170.256348,4231.282227,4209.358887,4218.974121,4453.077148,4507.307617,4315.641113,4401.666504,2882.0,0.0,11.0,,,,0.0,4.0,4.0,4.0,4.0,4.0,4.0,4.0,4.0,4.0,4.0,4.0,4.0,4.0,4.0,100.0,,,,,,,,,,,,,,,,,,,,,,,,,,,,,,,,,,,,,,,,,,,,,,,,,,,,,,,,,,,,,,,,,,,,,,,,,,,,,,,,,,,,,,,,,,,,,,,,,,,,,,,,,,,,,,,,,,,,,,,,,,,,,,,,,,,
1725717256.693438,1725717256.695207,199.0,0.0,4256.538574,4234.615234,4250.384766,4318.846191,4232.820313,4298.461426,4170.769043,4227.563965,4209.102539,4218.974121,4451.666504,4507.563965,4318.717773,4401.025879,3119.0,0.0,11.0,,,,0.0,4.0,4.0,4.0,4.0,4.0,4.0,4.0,4.0,4.0,4.0,4.0,4.0,4.0,4.0,100.0,,,,,,,,,,,,,,,,,,,,,,,,,,,,,,,,,,,,,,,,,,,,,,,,,,,,,,,,,,,,,,,,,,,,,,,,,,,,,,,,,,,,,,,,,,,,,,,,,,,,,,,,,,,,,,,,,,,,,,,,,,,,,,,,,,,
1725717256.697342,1725717256.699112,200.0,0.0,4253.717773,4232.05127,4249.871582,4316.922852,4233.077148,4297.820313,4169.743652,4221.666504,4207.05127,4217.94873,4445.897461,4504.358887,4318.461426,4396.666504,3416.0,0.0,11.0,,,,0.0,4.0,4.0,4.0,4.0,4.0,4.0,4.0,4.0,4.0,4.0,4.0,4.0,4.0,4.0,100.0,,,,,,,,,,,,,,,,,,,,,,,,,,,,,,,,,,,,,,,,,,,,,,,,,,,,,,,,,,,,,,,,,,,,,,,,,,,,,,,,,,,,,,,,,,,,,,,,,,,,,,,,,,,,,,,,,,,,,,,,,,,,,,,,,,,
1725717256.701246,1725717256.703116,201.0,0.0,4249.871582,4229.487305,4248.846191,4314.487305,4231.538574,4296.410156,4168.717773,4217.307617,4206.538574,4217.179688,4440.128418,4499.230957,4315.256348,4391.410156,3844.0,0.0,11.0,,,,0.0,4.0,4.0,4.0,4.0,4.0,4.0,4.0,4.0,4.0,4.0,4.0,4.0,4.0,4.0,100.0,,,,,,,,,,,,,,,,,,,,,,,,,,,,,,,,,,,,,,,,,,,,,,,,,,,,,,,,,,,,,,,,,,,,,,,,,,,,,,,,,,,,,,,,,,,,,,,,,,,,,,,,,,,,,,,,,,,,,,,,,,,,,,,,,,,
1725717256.70515,1725717256.70702,202.0,0.0,4248.205078,4228.589844,4248.589844,4314.358887,4229.487305,4295.384766,4168.974121,4217.179688,4209.230957,4218.077148,4438.974121,4496.025879,4311.666504,4389.102539,2882.0,0.0,11.0,,,,0.0,4.0,4.0,4.0,4.0,4.0,4.0,4.0,4.0,4.0,4.0,4.0,4.0,4.0,4.0,100.0,,,,,,,,,,,,,,,,,,,,,,,,,,,,,,,,,,,,,,,,,,,,,,,,,,,,,,,,,,,,,,,,,,,,,,,,,,,,,,,,,,,,,,,,,,,,,,,,,,,,,,,,,,,,,,,,,,,,,,,,,,,,,,,,,,,
1725717256.709055,1725717256.710924,203.0,0.0,4249.743652,4229.487305,4249.487305,4316.794922,4228.589844,4295.384766,4170.128418,4221.282227,4214.358887,4220.897461,4443.717773,4497.563965,4310.769043,4391.282227,3119.0,0.0,11.0,,,,0.0,4.0,4.0,4.0,4.0,4.0,4.0,4.0,4.0,4.0,4.0,4.0,4.0,4.0,4.0,100.0,,,,,,,,,,,,,,,,,,,,,,,,,,,,,,,,,,,,,,,,,,,,,,,,,,,,,,,,,,,,,,,,,,,,,,,,,,,,,,,,,,,,,,,,,,,,,,,,,,,,,,,,,,,,,,,,,,,,,,,,,,,,,,,,,,,
1725717256.712959,1725717256.714828,204.0,0.0,4252.307617,4231.153809,4250.769043,4319.871582,4229.230957,4296.538574,4171.025879,4227.05127,4219.102539,4225.0,4451.922852,4502.94873,4313.589844,4395.897461,3416.0,0.0,11.0,,,,0.0,4.0,4.0,4.0,4.0,4.0,4.0,4.0,4.0,4.0,4.0,4.0,4.0,4.0,4.0,100.0,,,,,,,,,,,,,,,,,,,,,,,,,,,,,,,,,,,,,,,,,,,,,,,,,,,,,,,,0.0,0.0,1.0,0.0,1.0,0.0,,,,,,,,,,,,,,,,,,,,,,,,,,,,,,,,,,,,,,,,,,,,,,,,,,,,,,,,,,,,,,,,,,,,,,
1725717256.716863,1725717256.718732,205.0,0.0,4252.692383,4232.563965,4251.025879,4320.769043,4230.128418,4298.205078,4170.512695,4231.538574,4220.897461,4228.461426,4459.102539,4507.94873,4318.461426,4399.230957,3844.0,0.0,11.0,,,,0.0,4.0,4.0,4.0,4.0,4.0,4.0,4.0,4.0,4.0,4.0,4.0,4.0,4.0,4.0,100.0,,,,,,,,,,,,,,,,,,,,,,,,,,,,,,,,,,,,,,,,,,,,,,,,,,,,,,,,,,,,,,,,,,,,,,,,,,,,,,,,,,,,,,,,,,,,,,,,,,,,,,,,,,,,,,,,,,,,,,,,,,,,,,,,,,,
1725717256.720767,1725717256.722536,206.0,0.0,4250.256348,4233.077148,4249.615234,4318.717773,4230.256348,4299.487305,4169.102539,4233.077148,4219.871582,4229.871582,4461.538574,4509.230957,4322.692383,4399.487305,2882.0,0.0,11.0,,,,0.0,4.0,4.0,4.0,4.0,4.0,4.0,4.0,4.0,4.0,4.0,4.0,4.0,4.0,4.0,100.0,,,,,,,,,,,,,,,,,,,,,,,,,,,,,,,,,,,,,,,,,,,,,,,,,,,,,,,,,,,,,,,,,,,,,,,,,,,,,,,,,,,,,,,,,,,,,,,,,,,,,,,,,,,,,,,,,,,,,,,,,,,,,,,,,,,
1725717256.724671,1725717256.72644,207.0,0.0,4247.692383,4232.820313,4247.692383,4315.512695,4229.871582,4299.615234,4168.205078,4232.179688,4217.563965,4229.358887,4458.589844,4506.922852,4324.102539,4397.436035,3119.0,0.0,11.0,,,,0.0,4.0,4.0,4.0,4.0,4.0,4.0,4.0,4.0,4.0,4.0,4.0,4.0,4.0,4.0,100.0,,,,,,,,,,,,,,,,,,,,,,,,,,,,,,,,,,,,,,,,,,,,,,,,,,,,,,,,,,,,,,,,,,,,,,,,,,,,,,,,,,,,,,,,,,,,,,,,,,,,,,,,,,,,,,,,,,,,,,,,,,,,,,,,,,,
1725717256.728575,1725717256.730344,208.0,0.0,4248.589844,4232.563965,4246.794922,4313.974121,4230.128418,4298.333496,4168.461426,4230.769043,4216.282227,4227.563965,4453.333496,4504.230957,4323.077148,4395.384766,3416.0,0.0,11.0,,,,0.0,4.0,4.0,4.0,4.0,4.0,4.0,4.0,4.0,4.0,4.0,4.0,4.0,4.0,4.0,100.0,,,,,,,,,,,,,,,,,,,,,,,,,,,,,,,,,,,,,,,,,,,,,,,,,,,,,,,,,,,,,,,,,,,,,,,,,,,,,,,,,,,,,,,,,,,,,,,,,,,,,,,,,,,,,,,,,,,,,,,,,,,,,,,,,,,
1725717256.732479,1725717256.734248,209.0,0.0,4253.846191,4232.692383,4247.94873,4315.769043,4231.538574,4296.538574,4169.871582,4230.769043,4217.05127,4225.256348,4450.128418,4503.974121,4320.897461,4395.512695,3844.0,0.0,11.0,,,,0.0,4.0,4.0,4.0,4.0,4.0,4.0,4.0,4.0,4.0,4.0,4.0,4.0,4.0,4.0,100.0,,,,,,,,,,,,,,,,,,,,,,,,,,,,,,,,,,,,,,,,,,,,,,,,,,,,,,,,,,,,,,,,,,,,,,,,,,,,,,,,,,,,,,,,,,,,,,,,,,,,,,,,,,,,,,,,,,,,,,,,,,,,,,,,,,,
1725717256.736383,1725717256.738053,210.0,0.0,4260.641113,4232.820313,4250.384766,4319.358887,4232.563965,4295.512695,4170.897461,4231.922852,4218.717773,4222.692383,4451.410156,4506.282227,4318.461426,4397.692383,2882.0,0.0,11.0,,,,0.0,4.0,4.0,4.0,4.0,4.0,4.0,4.0,4.0,4.0,4.0,4.0,4.0,4.0,4.0,100.0,,,,,,,,,,,,,,,,,,,,,,,,,,,,,,,,,,,,,,,,,,,,,,,,,,,,,,,,,,,,,,,,,,,,,,,,,,,,,,,,,,,,,,,,,,,,,,,,,,,,,,,,,,,,,,,,,,,,,,,,,,,,,,,,,,,
1725717256.740287,1725717256.741957,211.0,0.0,4264.358887,4232.436035,4252.436035,4321.794922,4231.538574,4295.897461,4170.641113,4232.692383,4219.102539,4219.487305,4455.128418,4508.974121,4315.384766,4399.743652,3119.0,0.0,11.0,,,,0.0,4.0,4.0,4.0,4.0,4.0,4.0,4.0,4.0,4.0,4.0,4.0,4.0,4.0,4.0,100.0,,,,,,,,,,,,,,,,,,,,,,,,,,,,,,,,,,,,,,,,,,,,,,,,,,,,,,,,,,,,,,,,,,,,,,,,,,,,,,,,,,,,,,,,,,,,,,,,,,,,,,,,,,,,,,,,,,,,,,,,,,,,,,,,,,,
1725717256.744192,1725717256.745861,212.0,0.0,4262.05127,4231.282227,4252.94873,4321.153809,4228.077148,4296.922852,4169.743652,4232.05127,4217.05127,4215.897461,4457.05127,4509.487305,4311.282227,4399.871582,3416.0,0.0,11.0,,,,0.0,4.0,4.0,4.0,4.0,4.0,4.0,4.0,4.0,4.0,4.0,4.0,4.0,4.0,4.0,100.0,,,,,,,,,,,,,,,,,1.0,0.0,0.0,,,,,,,,,,,,,,,,,,,,,,,,,,,,,,,,,,,,,0.0,0.0,1.0,0.0,1.0,0.0,1.389633,3.176264,0.651342,0.357827,0.093043,2.741638,1.479608,0.785176,0.455226,0.110137,1.472639,2.287693,0.451922,0.324697,0.080135,1.834579,1.473043,0.569525,0.223614,0.097995,2.031604,0.759192,0.470966,0.119152,0.059148,0.360198,0.590313,0.144238,0.065878,0.055703,2.719439,0.861245,0.34328,0.166484,0.064798,1.254245,2.420703,0.709186,0.560735,0.136471,1.858222,2.939742,0.766286,0.46556,0.115014,2.108269,3.659359,1.781793,0.718733,0.171639,4.57772,4.974899,1.520516,0.789492,0.338394,3.706563,5.808369,1.156232,0.658017,0.290359,4.858388,3.940793,1.463171,0.877184,0.158959,3.877774,3.9093,0.677125,0.523371,0.136493
1725717256.748096,1725717256.749865,213.0,0.0,4255.256348,4230.0,4252.05127,4318.717773,4224.743652,4297.436035,4169.230957,4230.769043,4214.230957,4213.333496,4455.0,4507.436035,4307.692383,4398.205078,3844.0,0.0,11.0,,,,0.0,4.0,4.0,4.0,4.0,4.0,4.0,4.0,4.0,4.0,4.0,4.0,4.0,4.0,4.0,100.0,,,,,,,,,,,,,,,,,,,,,,,,,,,,,,,,,,,,,,,,,,,,,,,,,,,,,,,,,,,,,,,,,,,,,,,,,,,,,,,,,,,,,,,,,,,,,,,,,,,,,,,,,,,,,,,,,,,,,,,,,,,,,,,,,,,
1725717256.752,1725717256.753769,214.0,0.0,4248.717773,4229.230957,4250.256348,4317.307617,4224.358887,4297.307617,4169.871582,4230.256348,4213.077148,4213.077148,4451.282227,4504.743652,4306.794922,4396.025879,2882.0,0.0,11.0,,,,0.0,4.0,4.0,4.0,4.0,4.0,4.0,4.0,4.0,4.0,4.0,4.0,4.0,4.0,4.0,100.0,,,,,,,,,,,,,,,,,,,,,,,,,,,,,,,,,,,,,,,,,,,,,,,,,,,,,,,,,,,,,,,,,,,,,,,,,,,,,,,,,,,,,,,,,,,,,,,,,,,,,,,,,,,,,,,,,,,,,,,,,,,,,,,,,,,
1725717256.755904,1725717256.757673,215.0,0.0,4246.025879,4228.846191,4248.589844,4318.461426,4226.794922,4296.794922,4171.153809,4231.410156,4215.0,4215.897461,4450.897461,4503.974121,4309.358887,4395.512695,3119.0,0.0,11.0,,,,0.0,4.0,4.0,4.0,4.0,4.0,4.0,4.0,4.0,4.0,4.0,4.0,4.0,4.0,4.0,100.0,,,,,,,,,,,,,,,,,,,,,,,,,,,,,,,,,,,,,,,,,,,,,,,,,,,,,,,,,,,,,,,,,,,,,,,,,,,,,,,,,,,,,,,,,,,,,,,,,,,,,,,,,,,,,,,,,,,,,,,,,,,,,,,,,,,
1725717256.759808,1725717256.761577,216.0,0.0,4246.922852,4228.333496,4247.820313,4321.282227,4229.615234,4296.282227,4172.179688,4234.358887,4219.230957,4220.641113,4457.179688,4506.153809,4314.230957,4397.05127,3416.0,0.0,11.0,,,,0.0,4.0,4.0,4.0,4.0,4.0,4.0,4.0,4.0,4.0,4.0,4.0,4.0,4.0,4.0,100.0,,,,,,,,,,,,,,,,,,,,,,,,,,,,,,,,,,,,,,,,,,,,,,,,,,,,,,,,,,,,,,,,,,,,,,,,,,,,,,,,,,,,,,,,,,,,,,,,,,,,,,,,,,,,,,,,,,,,,,,,,,,,,,,,,,,
1725717256.763712,1725717256.765381,217.0,0.0,4248.974121,4227.307617,4248.077148,4323.333496,4229.871582,4295.384766,4172.307617,4238.717773,4224.102539,4225.256348,4467.563965,4509.615234,4318.974121,4399.871582,3844.0,0.0,11.0,,,,0.0,4.0,4.0,4.0,4.0,4.0,4.0,4.0,4.0,4.0,4.0,4.0,4.0,4.0,4.0,100.0,,,,,,,,,,,,,,,,,,,,,,,,,,,,,,,,,,,,,,,,,,,,,,,,,,,,,,,,,,,,,,,,,,,,,,,,,,,,,,,,,,,,,,,,,,,,,,,,,,,,,,,,,,,,,,,,,,,,,,,,,,,,,,,,,,,
1725717256.767616,1725717256.769285,218.0,0.0,4250.0,4226.282227,4249.358887,4323.846191,4226.666504,4294.230957,4171.666504,4243.461426,4227.307617,4228.333496,4475.897461,4511.794922,4321.666504,4402.179688,2882.0,0.0,11.0,,,,0.0,4.0,4.0,4.0,4.0,4.0,4.0,4.0,4.0,4.0,4.0,4.0,4.0,4.0,4.0,100.0,,,,,,,,,,,,,,,,,,,,,,,,,,,,,,,,,,,,,,,,,,,,,,,,,,,,,,,,,,,,,,,,,,,,,,,,,,,,,,,,,,,,,,,,,,,,,,,,,,,,,,,,,,,,,,,,,,,,,,,,,,,,,,,,,,,
1725717256.77152,1725717256.77319,219.0,0.0,4250.0,4226.282227,4250.897461,4323.589844,4222.179688,4293.717773,4171.282227,4247.179688,4227.307617,4229.615234,4477.179688,4511.153809,4321.538574,4403.077148,3119.0,0.0,11.0,,,,0.0,4.0,4.0,4.0,4.0,4.0,4.0,4.0,4.0,4.0,4.0,4.0,4.0,4.0,4.0,100.0,,,,,,,,,,,,,,,,,,,,,,,,,,,,,,,,,,,,,,,,,,,,,,,,,,,,,,,,,,,,,,,,,,,,,,,,,,,,,,,,,,,,,,,,,,,,,,,,,,,,,,,,,,,,,,,,,,,,,,,,,,,,,,,,,,,
1725717256.775424,1725717256.777194,220.0,0.0,4250.641113,4227.94873,4252.307617,4324.102539,4219.230957,4293.974121,4172.05127,4247.94873,4224.230957,4229.743652,4470.897461,4508.589844,4319.743652,4402.820313,3416.0,0.0,11.0,,,,0.0,4.0,4.0,4.0,4.0,4.0,4.0,4.0,4.0,4.0,4.0,4.0,4.0,4.0,4.0,100.0,,,,,,,,,,,,,,,,,,,,,,,,,,,,,,,,,,,,,,,,,,,,,,,,,,,,,,,,0.0,0.0,1.0,0.0,1.0,0.0,,,,,,,,,,,,,,,,,,,,,,,,,,,,,,,,,,,,,,,,,,,,,,,,,,,,,,,,,,,,,,,,,,,,,,
1725717256.779328,1725717256.781098,221.0,0.0,4253.461426,4230.641113,4253.333496,4325.512695,4219.871582,4294.487305,4173.974121,4244.871582,4220.128418,4229.615234,4462.179688,4506.025879,4318.205078,4402.692383,3844.0,0.0,11.0,,,,0.0,4.0,4.0,4.0,4.0,4.0,4.0,4.0,4.0,4.0,4.0,4.0,4.0,4.0,4.0,100.0,,,,,,,,,,,,,,,,,,,,,,,,,,,,,,,,,,,,,,,,,,,,,,,,,,,,,,,,,,,,,,,,,,,,,,,,,,,,,,,,,,,,,,,,,,,,,,,,,,,,,,,,,,,,,,,,,,,,,,,,,,,,,,,,,,,
1725717256.783233,1725717256.785002,222.0,0.0,4257.820313,4233.205078,4254.230957,4326.794922,4223.461426,4294.358887,4176.410156,4239.358887,4217.307617,4229.743652,4457.307617,4505.512695,4318.461426,4403.461426,2882.0,0.0,11.0,,,,0.0,4.0,4.0,4.0,4.0,4.0,4.0,4.0,4.0,4.0,4.0,4.0,4.0,4.0,4.0,100.0,,,,,,,,,,,,,,,,,,,,,,,,,,,,,,,,,,,,,,,,,,,,,,,,,,,,,,,,,,,,,,,,,,,,,,,,,,,,,,,,,,,,,,,,,,,,,,,,,,,,,,,,,,,,,,,,,,,,,,,,,,,,,,,,,,,
1725717256.787137,1725717256.788906,223.0,0.0,4261.666504,4234.487305,4255.384766,4327.307617,4227.436035,4293.333496,4178.589844,4234.358887,4216.666504,4230.512695,4460.256348,4508.333496,4321.153809,4405.384766,3119.0,0.0,11.0,,,,0.0,4.0,4.0,4.0,4.0,4.0,4.0,4.0,4.0,4.0,4.0,4.0,4.0,4.0,4.0,100.0,,,,,,,,,,,,,,,,,,,,,,,,,,,,,,,,,,,,,,,,,,,,,,,,,,,,,,,,,,,,,,,,,,,,,,,,,,,,,,,,,,,,,,,,,,,,,,,,,,,,,,,,,,,,,,,,,,,,,,,,,,,,,,,,,,,
1725717256.791041,1725717256.79281,224.0,0.0,4263.461426,4234.615234,4257.307617,4327.94873,4229.615234,4291.794922,4180.384766,4232.820313,4217.563965,4231.666504,4469.871582,4514.358887,4325.641113,4408.333496,3416.0,0.0,11.0,,,,0.0,4.0,4.0,4.0,4.0,4.0,4.0,4.0,4.0,4.0,4.0,4.0,4.0,4.0,4.0,100.0,,,,,,,,,,,,,,,,,,,,,,,,,,,,,,,,,,,,,,,,,,,,,,,,,,,,,,,,,,,,,,,,,,,,,,,,,,,,,,,,,,,,,,,,,,,,,,,,,,,,,,,,,,,,,,,,,,,,,,,,,,,,,,,,,,,
1725717256.794945,1725717256.796614,225.0,0.0,4263.461426,4234.102539,4260.0,4330.0,4229.615234,4290.641113,4182.307617,4235.256348,4218.589844,4232.179688,4479.615234,4521.666504,4329.487305,4411.025879,3844.0,0.0,11.0,,,,0.0,4.0,4.0,4.0,4.0,4.0,4.0,4.0,4.0,4.0,4.0,4.0,4.0,4.0,4.0,100.0,,,,,,,,,,,,,,,,,,,,,,,,,,,,,,,,,,,,,,,,,,,,,,,,,,,,,,,,,,,,,,,,,,,,,,,,,,,,,,,,,,,,,,,,,,,,,,,,,,,,,,,,,,,,,,,,,,,,,,,,,,,,,,,,,,,
1725717256.798849,1725717256.800518,226.0,0.0,4263.333496,4233.717773,4262.692383,4333.205078,4229.102539,4290.897461,4184.615234,4239.358887,4218.846191,4230.641113,4482.692383,4526.666504,4330.769043,4413.077148,2882.0,0.0,11.0,,,,0.0,4.0,4.0,4.0,4.0,4.0,4.0,4.0,4.0,4.0,4.0,4.0,4.0,4.0,4.0,100.0,,,,,,,,,,,,,,,,,,,,,,,,,,,,,,,,,,,,,,,,,,,,,,,,,,,,,,,,,,,,,,,,,,,,,,,,,,,,,,,,,,,,,,,,,,,,,,,,,,,,,,,,,,,,,,,,,,,,,,,,,,,,,,,,,,,
1725717256.802753,1725717256.804422,227.0,0.0,4264.230957,4233.846191,4264.358887,4335.897461,4230.0,4292.692383,4187.436035,4241.538574,4218.333496,4226.922852,4476.794922,4526.282227,4329.358887,4413.717773,3119.0,0.0,11.0,,,,0.0,4.0,4.0,4.0,4.0,4.0,4.0,4.0,4.0,4.0,4.0,4.0,4.0,4.0,4.0,100.0,,,,,,,,,,,,,,,,,,,,,,,,,,,,,,,,,,,,,,,,,,,,,,,,,,,,,,,,,,,,,,,,,,,,,,,,,,,,,,,,,,,,,,,,,,,,,,,,,,,,,,,,,,,,,,,,,,,,,,,,,,,,,,,,,,,
