Timestamp,OriginalTimestamp,EEG.Counter,EEG.Interpolated,EEG.AF3,EEG.F7,EEG.F3,EEG.FC5,EEG.T7,EEG.P7,EEG.O1,EEG.O2,EEG.P8,EEG.T8,EEG.FC6,EEG.F4,EEG.F8,EEG.AF4,EEG.RawCq,EEG.Battery,EEG.BatteryPercent,MarkerIndex,MarkerType,MarkerValueInt,EEG.MarkerHardware,CQ.AF3,CQ.F7,CQ.F3,CQ.FC5,CQ.T7,CQ.P7,CQ.O1,CQ.O2,CQ.P8,CQ.T8,CQ.FC6,CQ.F4,CQ.F8,CQ.AF4,CQ.Overall,EQ.SampleRateQuality,EQ.OVERALL,EQ.AF3,EQ.F7,EQ.F3,EQ.FC5,EQ.T7,EQ.P7,EQ.O1,EQ.O2,EQ.P8,EQ.T8,EQ.FC6,EQ.F4,EQ.F8,EQ.AF4,MC.Action,MC.ActionPower,MC.IsActive,PM.Attention.IsActive,PM.Attention.Scaled,PM.Attention.Raw,PM.Attention.Min,PM.Attention.Max,PM.Engagement.IsActive,PM.Engagement.Scaled,PM.Engagement.Raw,PM.Engagement.Min,PM.Engagement.Max,PM.Excitement.IsActive,PM.Excitement.Scaled,PM.Excitement.Raw,PM.Excitement.Min,PM.Excitement.Max,PM.LongTermExcitement,PM.Stress.IsActive,PM.Stress.Scaled,PM.Stress.Raw,PM.Stress.Min,PM.Stress.Max,PM.Relaxation.IsActive,PM.Relaxation.Scaled,PM.Relaxation.Raw,PM.Relaxation.Min,PM.Relaxation.Max,PM.Interest.IsActive,PM.Interest.Scaled,PM.Interest.Raw,PM.Interest.Min,PM.Interest.Max,PM.Focus.IsActive,PM.Focus.Scaled,PM.Focus.Raw,PM.Focus.Min,PM.Focus.Max,FE.BlinkWink,FE.HorizontalEyesDirection,FE.UpperFaceAction,FE.UpperFaceActionPower,FE.LowerFaceAction,FE.LowerFaceActionPower,POW.AF3.Theta,POW.AF3.Alpha,POW.AF3.BetaL,POW.AF3.BetaH,POW.AF3.Gamma,POW.F7.Theta,POW.F7.Alpha,POW.F7.BetaL,POW.F7.BetaH,POW.F7.Gamma,POW.F3.Theta,POW.F3.Alpha,POW.F3.BetaL,POW.F3.BetaH,POW.F3.Gamma,POW.FC5.Theta,POW.FC5.Alpha,POW.FC5.BetaL,POW.FC5.BetaH,POW.FC5.Gamma,POW.T7.Theta,POW.T7.Alpha,POW.T7.BetaL,POW.T7.BetaH,POW.T7.Gamma,POW.P7.Theta,POW.P7.Alpha,POW.P7.BetaL,POW.P7.BetaH,POW.P7.Gamma,POW.O1.Theta,POW.O1.Alpha,POW.O1.BetaL,POW.O1.BetaH,POW.O1.Gamma,POW.O2.Theta,POW.O2.Alpha,POW.O2.BetaL,POW.O2.BetaH,POW.O2.Gamma,POW.P8.Theta,POW.P8.Alpha,POW.P8.BetaL,POW.P8.BetaH,POW.P8.Gamma,POW.T8.Theta,POW.T8.Alpha,POW.T8.BetaL,POW.T8.BetaH,POW.T8.Gamma,POW.FC6.Theta,POW.FC6.Alpha,POW.FC6.BetaL,POW.FC6.BetaH,POW.FC6.Gamma,POW.F4.Theta,POW.F4.Alpha,POW.F4.BetaL,POW.F4.BetaH,POW.F4.Gamma,POW.F8.Theta,POW.F8.Alpha,POW.F8.BetaL,POW.F8.BetaH,POW.F8.Gamma,POW.AF4.Theta,POW.AF4.Alpha,POW.AF4.BetaL,POW.AF4.BetaH,POW.AF4.Gamma
1725717325.803795,1725717325.805561,237.0,0.0,4326.922852,4335.128418,4312.563965,4280.641113,4253.717773,4219.487305,4244.102539,4278.205078,4250.128418,4234.871582,4519.487305,4558.205078,4371.410156,4448.846191,3861.0,0.0,11.0,15.0,1.0,1.0,0.0,4.0,4.0,4.0,4.0,4.0,4.0,4.0,4.0,4.0,4.0,4.0,4.0,4.0,4.0,100.0,,,,,,,,,,,,,,,,,,,,,,,,,,,,,,,,,,,,,,,,,,,,,,,,,,,,,,,,,,,,,,,,,,,,,,,,,,,,,,,,,,,,,,,,,,,,,,,,,,,,,,,,,,,,,,,,,,,,,,,,,,,,,,,,,,,
1725717325.807699,1725717325.809465,238.0,0.0,4324.230957,4335.384766,4312.94873,4279.358887,4254.487305,4218.717773,4241.282227,4280.769043,4249.230957,4234.230957,4519.871582,4555.641113,4370.641113,4447.436035,2870.0,0.0,11.0,,,,0.0,4.0,4.0,4.0,4.0,4.0,4.0,4.0,4.0,4.0,4.0,4.0,4.0,4.0,4.0,100.0,,,,,,,,,,,,,,,,,,,,,,,,,,,,,,,,,,,,,,,,,,,,,,,,,,,,,,,,,,,,,,,,,,,,,,,,,,,,,,,,,,,,,,,,,,,,,,,,,,,,,,,,,,,,,,,,,,,,,,,,,,,,,,,,,,,
1725717325.811603,1725717325.813269,239.0,0.0,4319.743652,4335.0,4310.256348,4276.025879,4254.358887,4217.05127,4236.922852,4280.769043,4248.717773,4234.487305,4519.102539,4549.743652,4367.820313,4445.384766,3119.0,0.0,11.0,,,,0.0,4.0,4.0,4.0,4.0,4.0,4.0,4.0,4.0,4.0,4.0,4.0,4.0,4.0,4.0,100.0,,,,,,,,,,,,,,,,,,,,,,,,,,,,,,,,,,,,,,,,,,,,,,,,,,,,,,,,,,,,,,,,,,,,,,,,,,,,,,,,,,,,,,,,,,,,,,,,,,,,,,,,,,,,,,,,,,,,,,,,,,,,,,,,,,,
1725717325.815507,1725717325.817173,240.0,0.0,4314.743652,4333.461426,4306.025879,4272.563965,4252.692383,4215.0,4233.205078,4278.846191,4249.487305,4238.205078,4515.769043,4544.230957,4365.256348,4444.487305,3438.0,0.0,11.0,,,,0.0,4.0,4.0,4.0,4.0,4.0,4.0,4.0,4.0,4.0,4.0,4.0,4.0,4.0,4.0,100.0,,,,,,,,,,,,,,,,,,,,,,,,,,,,,,,,,,,,,,,,,,,,,,,,,,,,,,,,,,,,,,,,,,,,,,,,,,,,,,,,,,,,,,,,,,,,,,,,,,,,,,,,,,,,,,,,,,,,,,,,,,,,,,,,,,,
1725717325.819411,1725717325.821077,241.0,0.0,4311.025879,4330.256348,4302.436035,4271.025879,4250.256348,4213.333496,4232.179688,4276.282227,4250.897461,4244.871582,4510.769043,4541.666504,4364.487305,4445.0,3861.0,0.0,11.0,,,,0.0,4.0,4.0,4.0,4.0,4.0,4.0,4.0,4.0,4.0,4.0,4.0,4.0,4.0,4.0,100.0,,,,,,,,,,,,,,,,,,,,,,,,,,,,,,,,,,,,,,,,,,,,,,,,,,,,,,,,,,,,,,,,,,,,,,,,,,,,,,,,,,,,,,,,,,,,,,,,,,,,,,,,,,,,,,,,,,,,,,,,,,,,,,,,,,,
1725717325.823315,1725717325.824981,242.0,0.0,4309.615234,4326.666504,4300.641113,4272.563965,4248.717773,4212.563965,4233.846191,4273.333496,4251.922852,4250.769043,4506.025879,4540.897461,4365.384766,4444.743652,2870.0,0.0,11.0,,,,0.0,4.0,4.0,4.0,4.0,4.0,4.0,4.0,4.0,4.0,4.0,4.0,4.0,4.0,4.0,100.0,,,,,,,,,,,,,,,,,,,,,,,,,,,,,,,,,,,,,,,,,,,,,,,,,,,,,,,,,,,,,,,,,,,,,,,,,,,,,,,,,,,,,,,,,,,,,,,,,,,,,,,,,,,,,,,,,,,,,,,,,,,,,,,,,,,
1725717325.827219,1725717325.828785,243.0,0.0,4310.128418,4324.871582,4300.897461,4275.769043,4248.717773,4212.692383,4235.769043,4269.102539,4251.794922,4251.538574,4503.205078,4538.589844,4366.922852,4441.794922,3119.0,0.0,11.0,,,,0.0,4.0,4.0,4.0,4.0,4.0,4.0,4.0,4.0,4.0,4.0,4.0,4.0,4.0,4.0,100.0,,,,,,,,,,,,,,,,,,,,,,,,,,,,,,,,,,,,,,,,,,,,,,,,,,,,,,,,,,,,,,,,,,,,,,,,,,,,,,,,,,,,,,,,,,,,,,,,,,,,,,,,,,,,,,,,,,,,,,,,,,,,,,,,,,,
1725717325.831123,1725717325.83269,244.0,0.0,4311.025879,4326.282227,4302.436035,4278.461426,4249.615234,4212.820313,4235.897461,4263.589844,4250.512695,4246.282227,4501.410156,4533.205078,4368.205078,4436.410156,3438.0,0.0,11.0,,,,0.0,4.0,4.0,4.0,4.0,4.0,4.0,4.0,4.0,4.0,4.0,4.0,4.0,4.0,4.0,100.0,,,,,,,,,,,,,,,,,1.0,0.0,0.0,,,,,,,,,,,,,,,,,,,,,,,,,,,,,,,,,,,,,0.0,0.0,1.0,0.0,1.0,0.0,1.437011,1.013456,0.556704,0.245295,0.067991,2.59052,0.759408,0.405993,0.185139,0.088257,1.834994,0.767203,0.533259,0.18031,0.086947,1.258901,0.846611,0.399038,0.209783,0.101379,0.991203,0.433456,0.169464,0.135442,0.050057,0.147548,0.101129,0.142948,0.05074,0.047151,0.573428,0.192383,0.097076,0.069358,0.056178,0.890162,1.998744,0.909228,0.355029,0.243384,1.234426,1.055832,0.399809,0.27184,0.123529,1.640442,1.407099,1.126863,0.365829,0.182425,2.167283,1.318655,1.118892,0.66244,0.608322,2.369396,1.57363,0.962057,0.47802,0.220883,3.421289,1.425579,1.268926,0.465051,0.250912,2.293773,1.058958,0.917089,0.291549,0.177025
1725717325.835027,1725717325.836594,245.0,0.0,4311.153809,4329.743652,4303.589844,4278.974121,4249.871582,4212.692383,4234.615234,4258.589844,4248.974121,4238.077148,4498.461426,4527.179688,4368.205078,4431.153809,3861.0,0.0,11.0,,,,0.0,4.0,4.0,4.0,4.0,4.0,4.0,4.0,4.0,4.0,4.0,4.0,4.0,4.0,4.0,100.0,,,,,,,,,,,,,,,,,,,,,,,,,,,,,,,,,,,,,,,,,,,,,,,,,,,,,,,,,,,,,,,,,,,,,,,,,,,,,,,,,,,,,,,,,,,,,,,,,,,,,,,,,,,,,,,,,,,,,,,,,,,,,,,,,,,
1725717325.838931,1725717325.840498,246.0,0.0,4310.769043,4332.436035,4303.717773,4277.563965,4249.615234,4212.563965,4233.461426,4256.025879,4248.205078,4231.922852,4493.589844,4524.230957,4366.410156,4429.487305,2870.0,0.0,11.0,,,,0.0,4.0,4.0,4.0,4.0,4.0,4.0,4.0,4.0,4.0,4.0,4.0,4.0,4.0,4.0,100.0,,,,,,,,,,,,,,,,,,,,,,,,,,,,,,,,,,,,,,,,,,,,,,,,,,,,,,,,,,,,,,,,,,,,,,,,,,,,,,,,,,,,,,,,,,,,,,,,,,,,,,,,,,,,,,,,,,,,,,,,,,,,,,,,,,,
1725717325.842835,1725717325.844302,247.0,0.0,4310.641113,4332.692383,4303.205078,4276.025879,4250.128418,4212.820313,4233.589844,4256.282227,4248.589844,4232.05127,4490.384766,4526.538574,4363.717773,4432.820313,3119.0,0.0,11.0,,,,0.0,4.0,4.0,4.0,4.0,4.0,4.0,4.0,4.0,4.0,4.0,4.0,4.0,4.0,4.0,100.0,,,,,,,,,,,,,,,,,,,,,,,,,,,,,,,,,,,,,,,,,,,,,,,,,,,,,,,,,,,,,,,,,,,,,,,,,,,,,,,,,,,,,,,,,,,,,,,,,,,,,,,,,,,,,,,,,,,,,,,,,,,,,,,,,,,
1725717325.846739,1725717325.848206,248.0,0.0,4311.922852,4330.769043,4302.94873,4275.769043,4252.436035,4213.589844,4234.743652,4258.461426,4249.743652,4238.589844,4493.205078,4532.563965,4361.922852,4439.358887,3438.0,0.0,11.0,,,,0.0,4.0,4.0,4.0,4.0,4.0,4.0,4.0,4.0,4.0,4.0,4.0,4.0,4.0,4.0,100.0,,,,,,,,,,,,,,,,,,,,,,,,,,,,,,,,,,,,,,,,,,,,,,,,,,,,,,,,,,,,,,,,,,,,,,,,,,,,,,,,,,,,,,,,,,,,,,,,,,,,,,,,,,,,,,,,,,,,,,,,,,,,,,,,,,,
1725717325.850644,1725717325.85211,249.0,0.0,4314.615234,4328.846191,4303.974121,4276.666504,4256.282227,4214.487305,4236.025879,4260.769043,4250.897461,4247.563965,4502.820313,4539.487305,4363.205078,4445.641113,3861.0,0.0,11.0,,,,0.0,4.0,4.0,4.0,4.0,4.0,4.0,4.0,4.0,4.0,4.0,4.0,4.0,4.0,4.0,100.0,,,,,,,,,,,,,,,,,,,,,,,,,,,,,,,,,,,,,,,,,,,,,,,,,,,,,,,,,,,,,,,,,,,,,,,,,,,,,,,,,,,,,,,,,,,,,,,,,,,,,,,,,,,,,,,,,,,,,,,,,,,,,,,,,,,
1725717325.854548,1725717325.855914,250.0,0.0,4317.307617,4328.717773,4305.769043,4278.077148,4260.0,4215.0,4236.410156,4262.307617,4251.282227,4253.205078,4514.743652,4544.358887,4368.461426,4448.846191,2870.0,0.0,11.0,,,,0.0,4.0,4.0,4.0,4.0,4.0,4.0,4.0,4.0,4.0,4.0,4.0,4.0,4.0,4.0,100.0,,,,,,,,,,,,,,,,,,,,,,,,,,,,,,,,,,,,,,,,,,,,,,,,,,,,,,,,,,,,,,,,,,,,,,,,,,,,,,,,,,,,,,,,,,,,,,,,,,,,,,,,,,,,,,,,,,,,,,,,,,,,,,,,,,,
1725717325.858452,1725717325.859819,251.0,0.0,4319.102539,4331.025879,4307.820313,4278.846191,4262.179688,4214.743652,4235.641113,4262.563965,4251.025879,4252.05127,4522.307617,4546.153809,4376.025879,4448.589844,3119.0,0.0,11.0,,,,0.0,4.0,4.0,4.0,4.0,4.0,4.0,4.0,4.0,4.0,4.0,4.0,4.0,4.0,4.0,100.0,,,,,,,,,,,,,,,,,,,,,,,,,,,,,,,,,,,,,,,,,,,,,,,,,,,,,,,,,,,,,,,,,,,,,,,,,,,,,,,,,,,,,,,,,,,,,,,,,,,,,,,,,,,,,,,,,,,,,,,,,,,,,,,,,,,
1725717325.862356,1725717325.863723,252.0,0.0,4319.487305,4335.0,4309.102539,4278.717773,4262.820313,4214.487305,4234.487305,4262.436035,4250.384766,4245.384766,4522.179688,4545.512695,4381.794922,4446.666504,3438.0,0.0,11.0,,,,0.0,4.0,4.0,4.0,4.0,4.0,4.0,4.0,4.0,4.0,4.0,4.0,4.0,4.0,4.0,100.0,,,,,,,,,,,,,,,,,,,,,,,,,,,,,,,,,,,,,,,,,,,,,,,,,,,,,,,,0.0,0.0,1.0,0.0,1.0,0.0,,,,,,,,,,,,,,,,,,,,,,,,,,,,,,,,,,,,,,,,,,,,,,,,,,,,,,,,,,,,,,,,,,,,,,
1725717325.86626,1725717325.867727,253.0,0.0,4319.230957,4338.846191,4309.102539,4278.333496,4262.820313,4214.743652,4233.717773,4262.307617,4249.871582,4237.692383,4516.666504,4544.487305,4382.436035,4445.512695,3861.0,0.0,11.0,,,,0.0,4.0,4.0,4.0,4.0,4.0,4.0,4.0,4.0,4.0,4.0,4.0,4.0,4.0,4.0,100.0,,,,,,,,,,,,,,,,,,,,,,,,,,,,,,,,,,,,,,,,,,,,,,,,,,,,,,,,,,,,,,,,,,,,,,,,,,,,,,,,,,,,,,,,,,,,,,,,,,,,,,,,,,,,,,,,,,,,,,,,,,,,,,,,,,,
1725717325.870164,1725717325.871631,254.0,0.0,4319.358887,4340.384766,4308.589844,4278.461426,4262.692383,4215.769043,4233.589844,4262.94873,4248.974121,4233.846191,4510.384766,4544.487305,4377.94873,4445.641113,2870.0,0.0,11.0,,,,0.0,4.0,4.0,4.0,4.0,4.0,4.0,4.0,4.0,4.0,4.0,4.0,4.0,4.0,4.0,100.0,,,,,,,,,,,,,,,,,,,,,,,,,,,,,,,,,,,,,,,,,,,,,,,,,,,,,,,,,,,,,,,,,,,,,,,,,,,,,,,,,,,,,,,,,,,,,,,,,,,,,,,,,,,,,,,,,,,,,,,,,,,,,,,,,,,
1725717325.874068,1725717325.875535,255.0,0.0,4320.384766,4338.717773,4307.94873,4279.230957,4261.538574,4216.922852,4233.717773,4264.102539,4248.205078,4236.025879,4507.05127,4544.743652,4372.05127,4446.410156,11.0,0.0,11.0,,,,0.0,4.0,4.0,4.0,4.0,4.0,4.0,4.0,4.0,4.0,4.0,4.0,4.0,4.0,4.0,100.0,,,,,,,,,,,,,,,,,,,,,,,,,,,,,,,,,,,,,,,,,,,,,,,,,,,,,,,,,,,,,,,,,,,,,,,,,,,,,,,,,,,,,,,,,,,,,,,,,,,,,,,,,,,,,,,,,,,,,,,,,,,,,,,,,,,
1725717325.877972,1725717325.879439,0.0,0.0,4321.410156,4334.230957,4307.692383,4279.871582,4258.205078,4217.307617,4233.589844,4265.641113,4247.94873,4242.436035,4507.307617,4543.846191,4368.974121,4446.282227,2693.0,0.0,11.0,,,,0.0,4.0,4.0,4.0,4.0,4.0,4.0,4.0,4.0,4.0,4.0,4.0,4.0,4.0,4.0,100.0,,,,,,,,,,,,,,,,,,,,,,,,,,,,,,,,,,,,,,,,,,,,,,,,,,,,,,,,,,,,,,,,,,,,,,,,,,,,,,,,,,,,,,,,,,,,,,,,,,,,,,,,,,,,,,,,,,,,,,,,,,,,,,,,,,,
1725717325.881876,1725717325.883443,1.0,0.0,4320.897461,4329.230957,4307.820313,4279.743652,4253.333496,4216.666504,4232.563965,4267.179688,4248.974121,4248.461426,4509.230957,4541.666504,4370.256348,4445.128418,2580.0,0.0,11.0,,,,0.0,4.0,4.0,4.0,4.0,4.0,4.0,4.0,4.0,4.0,4.0,4.0,4.0,4.0,4.0,100.0,,,,,,,,,,,,,,,,,,,,,,,,,,,,,,,,,,,,,,,,,,,,,,,,,,,,,,,,,,,,,,,,,,,,,,,,,,,,,,,,,,,,,,,,,,,,,,,,,,,,,,,,,,,,,,,,,,,,,,,,,,,,,,,,,,,
1725717325.88578,1725717325.887347,2.0,0.0,4318.205078,4326.538574,4308.205078,4279.230957,4249.102539,4215.256348,4230.897461,4268.205078,4251.282227,4250.769043,4510.384766,4540.128418,4373.589844,4444.102539,2520.0,0.0,11.0,,,,0.0,4.0,4.0,4.0,4.0,4.0,4.0,4.0,4.0,4.0,4.0,4.0,4.0,4.0,4.0,100.0,,,,,,,,,,,,,,,,,,,,,,,,,,,,,,,,,,,,,,,,,,,,,,,,,,,,,,,,,,,,,,,,,,,,,,,,,,,,,,,,,,,,,,,,,,,,,,,,,,,,,,,,,,,,,,,,,,,,,,,,,,,,,,,,,,,
1725717325.889685,1725717325.891251,3.0,0.0,4313.974121,4327.179688,4308.717773,4278.974121,4247.563965,4214.102539,4229.102539,4268.205078,4253.974121,4249.871582,4510.0,4541.282227,4375.256348,4444.487305,2464.0,0.0,11.0,,,,0.0,4.0,4.0,4.0,4.0,4.0,4.0,4.0,4.0,4.0,4.0,4.0,4.0,4.0,4.0,100.0,,,,,,,,,,,,,,,,,,,,,,,,,,,,,,,,,,,,,,,,,,,,,,,,,,,,,,,,,,,,,,,,,,,,,,,,,,,,,,,,,,,,,,,,,,,,,,,,,,,,,,,,,,,,,,,,,,,,,,,,,,,,,,,,,,,
1725717325.893589,1725717325.895155,4.0,0.0,4310.512695,4329.487305,4309.102539,4279.358887,4249.615234,4213.717773,4228.846191,4267.179688,4255.769043,4248.589844,4508.205078,4544.358887,4373.077148,4445.897461,2441.0,0.0,11.0,,,,0.0,4.0,4.0,4.0,4.0,4.0,4.0,4.0,4.0,4.0,4.0,4.0,4.0,4.0,4.0,100.0,,,,,,,,,,,,,,,,,,,,,,,,,,,,,,,,,,,,,,,,,,,,,,,,,,,,,,,,0.0,0.0,1.0,0.0,1.0,0.0,,,,,,,,,,,,,,,,,,,,,,,,,,,,,,,,,,,,,,,,,,,,,,,,,,,,,,,,,,,,,,,,,,,,,,
1725717325.897493,1725717325.899159,5.0,0.0,4309.230957,4330.256348,4308.461426,4279.743652,4254.102539,4214.615234,4231.410156,4266.025879,4255.512695,4248.846191,4505.897461,4546.282227,4368.461426,4447.179688,2394.0,0.0,11.0,,,,0.0,4.0,4.0,4.0,4.0,4.0,4.0,4.0,4.0,4.0,4.0,4.0,4.0,4.0,4.0,100.0,,,,,,,,,,,,,,,,,,,,,,,,,,,,,,,,,,,,,,,,,,,,,,,,,,,,,,,,,,,,,,,,,,,,,,,,,,,,,,,,,,,,,,,,,,,,,,,,,,,,,,,,,,,,,,,,,,,,,,,,,,,,,,,,,,,
1725717325.901397,1725717325.903063,6.0,0.0,4309.743652,4327.307617,4306.794922,4280.0,4258.077148,4215.769043,4236.666504,4265.0,4253.461426,4249.871582,4504.487305,4544.230957,4364.615234,4446.282227,2438.0,0.0,11.0,,,,0.0,4.0,4.0,4.0,4.0,4.0,4.0,4.0,4.0,4.0,4.0,4.0,4.0,4.0,4.0,100.0,,,,,,,,,,,,,,,,,,,,,,,,,,,,,,,,,,,,,,,,,,,,,,,,,,,,,,,,,,,,,,,,,,,,,,,,,,,,,,,,,,,,,,,,,,,,,,,,,,,,,,,,,,,,,,,,,,,,,,,,,,,,,,,,,,,
1725717325.905301,1725717325.906967,7.0,0.0,4309.871582,4320.769043,4304.871582,4279.871582,4259.102539,4216.410156,4243.333496,4264.102539,4250.897461,4248.717773,4505.0,4538.205078,4363.974121,4443.077148,2498.0,0.0,11.0,,,,0.0,4.0,4.0,4.0,4.0,4.0,4.0,4.0,4.0,4.0,4.0,4.0,4.0,4.0,4.0,100.0,,,,,,,,,,,,,,,,,,,,,,,,,,,,,,,,,,,,,,,,,,,,,,,,,,,,,,,,,,,,,,,,,,,,,,,,,,,,,,,,,,,,,,,,,,,,,,,,,,,,,,,,,,,,,,,,,,,,,,,,,,,,,,,,,,,
1725717325.909205,1725717325.910872,8.0,0.0,4307.692383,4312.94873,4303.589844,4279.615234,4256.538574,4216.153809,4249.230957,4263.333496,4248.974121,4243.974121,4506.794922,4530.512695,4365.384766,4438.205078,2468.0,0.0,11.0,,,,0.0,4.0,4.0,4.0,4.0,4.0,4.0,4.0,4.0,4.0,4.0,4.0,4.0,4.0,4.0,100.0,,,,,,,,,,,,,,,,,,,,,,,,,,,,,,,,,,,,,,,,,,,,,,,,,,,,,,,,,,,,,,,,,,,,,,,,,,,,,,,,,,,,,,,,,,,,,,,,,,,,,,,,,,,,,,,,,,,,,,,,,,,,,,,,,,,
1725717325.913109,1725717325.914776,9.0,0.0,4303.333496,4306.794922,4303.717773,4278.974121,4252.307617,4215.512695,4252.94873,4262.307617,4248.077148,4236.922852,4507.436035,4524.871582,4365.641113,4433.589844,2565.0,0.0,11.0,,,,0.0,4.0,4.0,4.0,4.0,4.0,4.0,4.0,4.0,4.0,4.0,4.0,4.0,4.0,4.0,100.0,,,,,,,,,,,,,,,,,,,,,,,,,,,,,,,,,,,,,,,,,,,,,,,,,,,,,,,,,,,,,,,,,,,,,,,,,,,,,,,,,,,,,,,,,,,,,,,,,,,,,,,,,,,,,,,,,,,,,,,,,,,,,,,,,,,
1725717325.917013,1725717325.91858,10.0,0.0,4298.846191,4304.615234,4305.128418,4278.077148,4248.974121,4215.384766,4253.974121,4261.282227,4247.94873,4231.410156,4505.641113,4523.461426,4362.94873,4430.769043,2894.0,0.0,11.0,,,,0.0,4.0,4.0,4.0,4.0,4.0,4.0,4.0,4.0,4.0,4.0,4.0,4.0,4.0,4.0,100.0,,,,,,,,,,,,,,,,,,,,,,,,,,,,,,,,,,,,,,,,,,,,,,,,,,,,,,,,,,,,,,,,,,,,,,,,,,,,,,,,,,,,,,,,,,,,,,,,,,,,,,,,,,,,,,,,,,,,,,,,,,,,,,,,,,,
1725717325.920917,1725717325.922484,11.0,0.0,4296.922852,4305.897461,4306.794922,4277.179688,4247.692383,4216.025879,4252.820313,4260.897461,4248.333496,4231.538574,4501.153809,4527.307617,4358.589844,4430.769043,3119.0,0.0,11.0,,,,0.0,4.0,4.0,4.0,4.0,4.0,4.0,4.0,4.0,4.0,4.0,4.0,4.0,4.0,4.0,100.0,,,,,,,,,,,,,,,,,,,,,,,,,,,,,,,,,,,,,,,,,,,,,,,,,,,,,,,,,,,,,,,,,,,,,,,,,,,,,,,,,,,,,,,,,,,,,,,,,,,,,,,,,,,,,,,,,,,,,,,,,,,,,,,,,,,
1725717325.924822,1725717325.926388,12.0,0.0,4298.461426,4308.589844,4308.205078,4276.922852,4248.461426,4217.436035,4251.153809,4261.794922,4249.230957,4237.94873,4496.153809,4534.743652,4356.153809,4433.974121,3473.0,0.0,11.0,,,,0.0,4.0,4.0,4.0,4.0,4.0,4.0,4.0,4.0,4.0,4.0,4.0,4.0,4.0,4.0,100.0,,,,,,,,,,,,,,,,,,,,,,,,,,,,,,,,,,,,,,,,,,,,,,,,,,,,,,,,0.0,0.0,1.0,0.0,1.0,0.0,,,,,,,,,,,,,,,,,,,,,,,,,,,,,,,,,,,,,,,,,,,,,,,,,,,,,,,,,,,,,,,,,,,,,,
1725717325.928726,1725717325.930292,13.0,0.0,4302.692383,4309.871582,4309.102539,4276.922852,4250.0,4218.717773,4250.384766,4264.358887,4250.384766,4247.563965,4493.717773,4542.179688,4357.563965,4439.102539,3839.0,0.0,11.0,,,,0.0,4.0,4.0,4.0,4.0,4.0,4.0,4.0,4.0,4.0,4.0,4.0,4.0,4.0,4.0,100.0,,,,,,,,,,,,,,,,,,,,,,,,,,,,,,,,,,,,,,,,,,,,,,,,,,,,,,,,,,,,,,,,,,,,,,,,,,,,,,,,,,,,,,,,,,,,,,,,,,,,,,,,,,,,,,,,,,,,,,,,,,,,,,,,,,,
1725717325.93263,1725717325.934096,14.0,0.0,4307.436035,4309.102539,4309.487305,4276.794922,4251.410156,4219.230957,4251.282227,4266.794922,4251.538574,4254.743652,4496.153809,4545.128418,4361.666504,4443.333496,2894.0,0.0,11.0,,,,0.0,4.0,4.0,4.0,4.0,4.0,4.0,4.0,4.0,4.0,4.0,4.0,4.0,4.0,4.0,100.0,,,,,,,,,,,,,,,,,,,,,,,,,,,,,,,,,,,,,,,,,,,,,,,,,,,,,,,,,,,,,,,,,,,,,,,,,,,,,,,,,,,,,,,,,,,,,,,,,,,,,,,,,,,,,,,,,,,,,,,,,,,,,,,,,,,
1725717325.936534,1725717325.938,15.0,0.0,4309.615234,4307.820313,4308.717773,4276.153809,4252.436035,4218.717773,4253.077148,4267.436035,4252.436035,4255.897461,4503.205078,4541.410156,4365.512695,4444.358887,3119.0,0.0,11.0,,,,0.0,4.0,4.0,4.0,4.0,4.0,4.0,4.0,4.0,4.0,4.0,4.0,4.0,4.0,4.0,100.0,,,,,,,,,,,,,,,,,,,,,,,,,,,,,,,,,,,,,,,,,,,,,,,,,,,,,,,,,,,,,,,,,,,,,,,,,,,,,,,,,,,,,,,,,,,,,,,,,,,,,,,,,,,,,,,,,,,,,,,,,,,,,,,,,,,
1725717325.940438,1725717325.941905,16.0,0.0,4308.077148,4307.94873,4306.153809,4274.358887,4252.436035,4217.563965,4254.230957,4265.641113,4252.179688,4251.666504,4510.512695,4533.205078,4367.05127,4441.410156,3473.0,0.0,11.0,,,,0.0,4.0,4.0,4.0,4.0,4.0,4.0,4.0,4.0,4.0,4.0,4.0,4.0,4.0,4.0,100.0,,,,,,,,,,,,,,,,,,,,,,,,,,,,,,,,,,,,,,,,,,,,,,,,,,,,,,,,,,,,,,,,,,,,,,,,,,,,,,,,,,,,,,,,,,,,,,,,,,,,,,,,,,,,,,,,,,,,,,,,,,,,,,,,,,,
1725717325.944342,1725717325.945809,17.0,0.0,4303.846191,4309.230957,4301.538574,4270.897461,4251.410156,4216.153809,4253.333496,4262.307617,4250.641113,4245.769043,4513.589844,4525.128418,4366.922852,4436.153809,3839.0,0.0,11.0,,,,0.0,4.0,4.0,4.0,4.0,4.0,4.0,4.0,4.0,4.0,4.0,4.0,4.0,4.0,4.0,100.0,,,,,,,,,,,,,,,,,,,,,,,,,,,,,,,,,,,,,,,,,,,,,,,,,,,,,,,,,,,,,,,,,,,,,,,,,,,,,,,,,,,,,,,,,,,,,,,,,,,,,,,,,,,,,,,,,,,,,,,,,,,,,,,,,,,
1725717325.948246,1725717325.949613,18.0,0.0,4299.487305,4310.641113,4296.666504,4266.538574,4250.128418,4215.256348,4251.153809,4259.615234,4248.846191,4242.563965,4510.769043,4521.538574,4367.179688,4432.436035,2894.0,0.0,11.0,,,,0.0,4.0,4.0,4.0,4.0,4.0,4.0,4.0,4.0,4.0,4.0,4.0,4.0,4.0,4.0,100.0,,,,,,,,,,,,,,,,,,,,,,,,,,,,,,,,,,,,,,,,,,,,,,,,,,,,,,,,,,,,,,,,,,,,,,,,,,,,,,,,,,,,,,,,,,,,,,,,,,,,,,,,,,,,,,,,,,,,,,,,,,,,,,,,,,,
1725717325.95215,1725717325.953517,19.0,0.0,4297.436035,4311.282227,4294.102539,4262.820313,4249.230957,4215.0,4249.871582,4259.487305,4248.205078,4243.589844,4505.128418,4523.846191,4369.871582,4432.820313,3119.0,0.0,11.0,,,,0.0,4.0,4.0,4.0,4.0,4.0,4.0,4.0,4.0,4.0,4.0,4.0,4.0,4.0,4.0,100.0,,,,,,,,,,,,,,,,,,,,,,,,,,,,,,,,,,,,,,,,,,,,,,,,,,,,,,,,,,,,,,,,,,,,,,,,,,,,,,,,,,,,,,,,,,,,,,,,,,,,,,,,,,,,,,,,,,,,,,,,,,,,,,,,,,,
1725717325.956054,1725717325.957421,20.0,0.0,4298.461426,4311.538574,4295.897461,4261.666504,4248.974121,4215.256348,4251.410156,4261.666504,4249.230957,4247.307617,4501.666504,4530.128418,4374.358887,4437.436035,3473.0,0.0,11.0,,,,0.0,4.0,4.0,4.0,4.0,4.0,4.0,4.0,4.0,4.0,4.0,4.0,4.0,4.0,4.0,100.0,,,,,,,,,,,,,,,,,1.0,0.0,0.0,,,,,,,,,,,,,,,,,,,,,,,,,,,,,,,,,,,,,0.0,0.0,1.0,0.0,1.0,0.0,1.423324,0.775972,0.623498,0.288842,0.06532,2.179127,0.646011,0.480519,0.222193,0.076021,1.592453,0.64119,0.634883,0.209041,0.080569,0.982043,0.666166,0.448427,0.211141,0.109054,0.842858,0.47626,0.181385,0.135431,0.053537,0.208614,0.137349,0.171268,0.052809,0.047881,0.471795,0.189756,0.123029,0.065073,0.053659,1.059991,2.347113,0.973872,0.336533,0.239075,1.412477,1.011727,0.471665,0.275805,0.117934,1.949804,1.173805,1.205908,0.339983,0.194949,2.381357,1.251173,1.367286,0.635902,0.532783,2.67426,1.341244,1.041265,0.502202,0.217864,3.476639,1.31435,1.115009,0.49258,0.252603,2.39881,0.778051,0.854023,0.303179,0.18029
1725717325.959958,1725717325.961225,21.0,0.0,4301.282227,4312.692383,4301.410156,4263.589844,4249.358887,4215.641113,4255.384766,4264.743652,4251.025879,4250.256348,4502.692383,4536.538574,4377.94873,4443.333496,3839.0,0.0,11.0,,,,0.0,4.0,4.0,4.0,4.0,4.0,4.0,4.0,4.0,4.0,4.0,4.0,4.0,4.0,4.0,100.0,,,,,,,,,,,,,,,,,,,,,,,,,,,,,,,,,,,,,,,,,,,,,,,,,,,,,,,,,,,,,,,,,,,,,,,,,,,,,,,,,,,,,,,,,,,,,,,,,,,,,,,,,,,,,,,,,,,,,,,,,,,,,,,,,,,
1725717325.963863,1725717325.965129,22.0,0.0,4304.102539,4314.871582,4307.692383,4267.436035,4250.0,4215.897461,4259.743652,4266.153809,4252.05127,4250.256348,4506.538574,4539.743652,4378.717773,4446.794922,2894.0,0.0,11.0,,,,0.0,4.0,4.0,4.0,4.0,4.0,4.0,4.0,4.0,4.0,4.0,4.0,4.0,4.0,4.0,100.0,,,,,,,,,,,,,,,,,,,,,,,,,,,,,,,,,,,,,,,,,,,,,,,,,,,,,,,,,,,,,,,,,,,,,,,,,,,,,,,,,,,,,,,,,,,,,,,,,,,,,,,,,,,,,,,,,,,,,,,,,,,,,,,,,,,
1725717325.967767,1725717325.969034,23.0,0.0,4305.512695,4316.922852,4310.897461,4271.282227,4250.641113,4215.769043,4261.794922,4264.743652,4251.538574,4247.820313,4509.615234,4538.974121,4376.410156,4446.538574,3119.0,0.0,11.0,,,,0.0,4.0,4.0,4.0,4.0,4.0,4.0,4.0,4.0,4.0,4.0,4.0,4.0,4.0,4.0,100.0,,,,,,,,,,,,,,,,,,,,,,,,,,,,,,,,,,,,,,,,,,,,,,,,,,,,,,,,,,,,,,,,,,,,,,,,,,,,,,,,,,,,,,,,,,,,,,,,,,,,,,,,,,,,,,,,,,,,,,,,,,,,,,,,,,,
1725717325.971671,1725717325.973038,24.0,0.0,4305.256348,4317.692383,4309.743652,4273.846191,4250.641113,4215.512695,4260.128418,4261.538574,4249.743652,4245.256348,4510.128418,4536.025879,4372.820313,4443.717773,3473.0,0.0,11.0,,,,0.0,4.0,4.0,4.0,4.0,4.0,4.0,4.0,4.0,4.0,4.0,4.0,4.0,4.0,4.0,100.0,,,,,,,,,,,,,,,,,,,,,,,,,,,,,,,,,,,,,,,,,,,,,,,,,,,,,,,,,,,,,,,,,,,,,,,,,,,,,,,,,,,,,,,,,,,,,,,,,,,,,,,,,,,,,,,,,,,,,,,,,,,,,,,,,,,
1725717325.975575,1725717325.976942,25.0,0.0,4304.358887,4316.922852,4305.641113,4274.743652,4250.384766,4215.0,4255.769043,4259.230957,4248.205078,4244.487305,4508.717773,4534.230957,4371.153809,4441.410156,3839.0,0.0,11.0,,,,0.0,4.0,4.0,4.0,4.0,4.0,4.0,4.0,4.0,4.0,4.0,4.0,4.0,4.0,4.0,100.0,,,,,,,,,,,,,,,,,,,,,,,,,,,,,,,,,,,,,,,,,,,,,,,,,,,,,,,,,,,,,,,,,,,,,,,,,,,,,,,,,,,,,,,,,,,,,,,,,,,,,,,,,,,,,,,,,,,,,,,,,,,,,,,,,,,
1725717325.979479,1725717325.980846,26.0,0.0,4303.589844,4314.871582,4302.307617,4274.487305,4250.128418,4214.358887,4251.153809,4259.615234,4247.563965,4245.641113,4507.692383,4535.384766,4372.436035,4441.410156,2894.0,0.0,11.0,,,,0.0,4.0,4.0,4.0,4.0,4.0,4.0,4.0,4.0,4.0,4.0,4.0,4.0,4.0,4.0,100.0,,,,,,,,,,,,,,,,,,,,,,,,,,,,,,,,,,,,,,,,,,,,,,,,,,,,,,,,,,,,,,,,,,,,,,,,,,,,,,,,,,,,,,,,,,,,,,,,,,,,,,,,,,,,,,,,,,,,,,,,,,,,,,,,,,,
1725717325.983383,1725717325.98475,27.0,0.0,4303.717773,4311.666504,4302.179688,4273.589844,4250.512695,4214.615234,4248.589844,4261.922852,4247.692383,4247.05127,4508.461426,4538.333496,4375.512695,4443.333496,3119.0,0.0,11.0,,,,0.0,4.0,4.0,4.0,4.0,4.0,4.0,4.0,4.0,4.0,4.0,4.0,4.0,4.0,4.0,100.0,,,,,,,,,,,,,,,,,,,,,,,,,,,,,,,,,,,,,,,,,,,,,,,,,,,,,,,,,,,,,,,,,,,,,,,,,,,,,,,,,,,,,,,,,,,,,,,,,,,,,,,,,,,,,,,,,,,,,,,,,,,,,,,,,,,
1725717325.987287,1725717325.988754,28.0,0.0,4304.230957,4308.333496,4304.743652,4272.563965,4251.410156,4216.025879,4248.974121,4264.358887,4247.94873,4246.666504,4510.512695,4540.256348,4377.307617,4445.384766,3473.0,0.0,11.0,,,,0.0,4.0,4.0,4.0,4.0,4.0,4.0,4.0,4.0,4.0,4.0,4.0,4.0,4.0,4.0,100.0,,,,,,,,,,,,,,,,,,,,,,,,,,,,,,,,,,,,,,,,,,,,,,,,,,,,,,,,0.0,0.0,1.0,0.0,1.0,0.0,,,,,,,,,,,,,,,,,,,,,,,,,,,,,,,,,,,,,,,,,,,,,,,,,,,,,,,,,,,,,,,,,,,,,,
1725717325.991191,1725717325.992658,29.0,0.0,4304.615234,4306.282227,4307.179688,4271.153809,4252.05127,4218.461426,4251.025879,4265.512695,4248.205078,4244.871582,4512.05127,4539.358887,4375.512695,4445.897461,3839.0,0.0,11.0,,,,0.0,4.0,4.0,4.0,4.0,4.0,4.0,4.0,4.0,4.0,4.0,4.0,4.0,4.0,4.0,100.0,,,,,,,,,,,,,,,,,,,,,,,,,,,,,,,,,,,,,,,,,,,,,,,,,,,,,,,,,,,,,,,,,,,,,,,,,,,,,,,,,,,,,,,,,,,,,,,,,,,,,,,,,,,,,,,,,,,,,,,,,,,,,,,,,,,
1725717325.995095,1725717325.996562,30.0,0.0,4304.358887,4306.410156,4307.05127,4269.487305,4251.666504,4220.128418,4252.307617,4266.025879,4249.871582,4243.846191,4511.922852,4536.410156,4371.282227,4444.358887,2894.0,0.0,11.0,,,,0.0,4.0,4.0,4.0,4.0,4.0,4.0,4.0,4.0,4.0,4.0,4.0,4.0,4.0,4.0,100.0,,,,,,,,,,,,,,,,,,,,,,,,,,,,,,,,,,,,,,,,,,,,,,,,,,,,,,,,,,,,,,,,,,,,,,,,,,,,,,,,,,,,,,,,,,,,,,,,,,,,,,,,,,,,,,,,,,,,,,,,,,,,,,,,,,,
1725717325.998999,1725717326.000466,31.0,0.0,4303.589844,4308.333496,4304.102539,4268.077148,4250.128418,4220.256348,4251.410156,4267.436035,4253.974121,4245.128418,4510.256348,4534.102539,4367.307617,4442.563965,3119.0,0.0,11.0,,,,0.0,4.0,4.0,4.0,4.0,4.0,4.0,4.0,4.0,4.0,4.0,4.0,4.0,4.0,4.0,100.0,,,,,,,,,,,,,,,,,,,,,,,,,,,,,,,,,,,,,,,,,,,,,,,,,,,,,,,,,,,,,,,,,,,,,,,,,,,,,,,,,,,,,,,,,,,,,,,,,,,,,,,,,,,,,,,,,,,,,,,,,,,,,,,,,,,
1725717326.002903,1725717326.00447,32.0,0.0,4302.563965,4309.871582,4300.512695,4267.179688,4248.333496,4218.717773,4248.974121,4270.128418,4259.743652,4248.461426,4507.692383,4534.487305,4366.410156,4441.922852,0.0,0.0,11.0,,,,0.0,4.0,4.0,4.0,4.0,4.0,4.0,4.0,4.0,4.0,4.0,4.0,4.0,4.0,4.0,100.0,,,,,,,,,,,,,,,,,,,,,,,,,,,,,,,,,,,,,,,,,,,,,,,,,,,,,,,,,,,,,,,,,,,,,,,,,,,,,,,,,,,,,,,,,,,,,,,,,,,,,,,,,,,,,,,,,,,,,,,,,,,,,,,,,,,
1725717326.006807,1725717326.008374,33.0,0.0,4301.410156,4308.974121,4298.077148,4266.410156,4247.05127,4217.436035,4246.922852,4273.205078,4264.487305,4250.897461,4505.128418,4537.692383,4369.102539,4442.179688,0.0,0.0,11.0,,,,0.0,4.0,4.0,4.0,4.0,4.0,4.0,4.0,4.0,4.0,4.0,4.0,4.0,4.0,4.0,100.0,,,,,,,,,,,,,,,,,,,,,,,,,,,,,,,,,,,,,,,,,,,,,,,,,,,,,,,,,,,,,,,,,,,,,,,,,,,,,,,,,,,,,,,,,,,,,,,,,,,,,,,,,,,,,,,,,,,,,,,,,,,,,,,,,,,
1725717326.010712,1725717326.012278,34.0,0.0,4300.0,4305.256348,4297.05127,4265.256348,4246.666504,4218.333496,4246.538574,4275.384766,4265.512695,4249.743652,4503.589844,4541.282227,4373.717773,4442.692383,0.0,0.0,11.0,,,,0.0,4.0,4.0,4.0,4.0,4.0,4.0,4.0,4.0,4.0,4.0,4.0,4.0,4.0,4.0,100.0,,,,,,,,,,,,,,,,,,,,,,,,,,,,,,,,,,,,,,,,,,,,,,,,,,,,,,,,,,,,,,,,,,,,,,,,,,,,,,,,,,,,,,,,,,,,,,,,,,,,,,,,,,,,,,,,,,,,,,,,,,,,,,,,,,,
1725717326.014616,1725717326.016182,35.0,0.0,4298.333496,4299.871582,4296.538574,4263.717773,4246.922852,4221.666504,4247.820313,4275.512695,4261.922852,4244.615234,4503.717773,4542.94873,4377.307617,4442.563965,0.0,0.0,11.0,,,,0.0,4.0,4.0,4.0,4.0,4.0,4.0,4.0,4.0,4.0,4.0,4.0,4.0,4.0,4.0,100.0,,,,,,,,,,,,,,,,,,,,,,,,,,,,,,,,,,,,,,,,,,,,,,,,,,,,,,,,,,,,,,,,,,,,,,,,,,,,,,,,,,,,,,,,,,,,,,,,,,,,,,,,,,,,,,,,,,,,,,,,,,,,,,,,,,,
1725717326.01852,1725717326.020087,36.0,0.0,4296.794922,4295.512695,4296.153809,4262.820313,4247.563965,4226.153809,4249.615234,4273.205078,4255.897461,4238.974121,4505.512695,4541.282227,4378.205078,4442.307617,0.0,0.0,11.0,,,,0.0,4.0,4.0,4.0,4.0,4.0,4.0,4.0,4.0,4.0,4.0,4.0,4.0,4.0,4.0,100.0,,,,,,,,,,,,,,,,,,,,,,,,,,,,,,,,,,,,,,,,,,,,,,,,,,,,,,,,0.0,0.0,1.0,0.0,1.0,0.0,,,,,,,,,,,,,,,,,,,,,,,,,,,,,,,,,,,,,,,,,,,,,,,,,,,,,,,,,,,,,,,,,,,,,,
1725717326.022424,1725717326.023891,37.0,0.0,4296.025879,4293.717773,4296.410156,4262.94873,4247.692383,4229.615234,4250.512695,4268.589844,4250.384766,4236.794922,4507.436035,4537.179688,4376.538574,4442.307617,0.0,0.0,11.0,,,,0.0,4.0,4.0,4.0,4.0,4.0,4.0,4.0,4.0,4.0,4.0,4.0,4.0,4.0,4.0,100.0,,,,,,,,,,,,,,,,,,,,,,,,,,,,,,,,,,,,,,,,,,,,,,,,,,,,,,,,,,,,,,,,,,,,,,,,,,,,,,,,,,,,,,,,,,,,,,,,,,,,,,,,,,,,,,,,,,,,,,,,,,,,,,,,,,,
1725717326.026328,1725717326.027795,38.0,0.0,4296.025879,4294.358887,4298.333496,4264.615234,4247.436035,4231.282227,4250.128418,4262.179688,4247.692383,4239.358887,4508.589844,4532.179688,4374.358887,4442.179688,0.0,0.0,11.0,,,,0.0,4.0,4.0,4.0,4.0,4.0,4.0,4.0,4.0,4.0,4.0,4.0,4.0,4.0,4.0,100.0,,,,,,,,,,,,,,,,,,,,,,,,,,,,,,,,,,,,,,,,,,,,,,,,,,,,,,,,,,,,,,,,,,,,,,,,,,,,,,,,,,,,,,,,,,,,,,,,,,,,,,,,,,,,,,,,,,,,,,,,,,,,,,,,,,,
1725717326.030232,1725717326.031699,39.0,0.0,4296.410156,4296.410156,4301.922852,4267.307617,4246.922852,4231.794922,4248.846191,4255.512695,4248.077148,4243.974121,4508.205078,4528.205078,4373.461426,4441.666504,0.0,0.0,11.0,,,,0.0,4.0,4.0,4.0,4.0,4.0,4.0,4.0,4.0,4.0,4.0,4.0,4.0,4.0,4.0,100.0,,,,,,,,,,,,,,,,,,,,,,,,,,,,,,,,,,,,,,,,,,,,,,,,,,,,,,,,,,,,,,,,,,,,,,,,,,,,,,,,,,,,,,,,,,,,,,,,,,,,,,,,,,,,,,,,,,,,,,,,,,,,,,,,,,,
1725717326.034136,1725717326.035603,40.0,0.0,4297.05127,4298.461426,4305.769043,4270.128418,4246.666504,4232.05127,4247.436035,4250.0,4249.615234,4246.922852,4506.538574,4525.897461,4373.846191,4440.256348,0.0,0.0,11.0,,,,0.0,4.0,4.0,4.0,4.0,4.0,4.0,4.0,4.0,4.0,4.0,4.0,4.0,4.0,4.0,100.0,,,,,,,,,,,,,,,,,,,,,,,,,,,,,,,,,,,,,,,,,,,,,,,,,,,,,,,,,,,,,,,,,,,,,,,,,,,,,,,,,,,,,,,,,,,,,,,,,,,,,,,,,,,,,,,,,,,,,,,,,,,,,,,,,,,
1725717326.03804,1725717326.039407,41.0,0.0,4297.692383,4299.743652,4307.692383,4272.05127,4247.307617,4232.179688,4246.666504,4246.922852,4250.384766,4246.153809,4504.487305,4524.871582,4374.487305,4438.077148,0.0,0.0,11.0,,,,0.0,4.0,4.0,4.0,4.0,4.0,4.0,4.0,4.0,4.0,4.0,4.0,4.0,4.0,4.0,100.0,,,,,,,,,,,,,,,,,,,,,,,,,,,,,,,,,,,,,,,,,,,,,,,,,,,,,,,,,,,,,,,,,,,,,,,,,,,,,,,,,,,,,,,,,,,,,,,,,,,,,,,,,,,,,,,,,,,,,,,,,,,,,,,,,,,
1725717326.041944,1725717326.043311,42.0,0.0,4298.077148,4300.128418,4306.153809,4272.94873,4248.589844,4231.282227,4246.410156,4246.666504,4249.487305,4242.436035,4503.205078,4524.102539,4373.461426,4435.641113,0.0,0.0,11.0,,,,0.0,4.0,4.0,4.0,4.0,4.0,4.0,4.0,4.0,4.0,4.0,4.0,4.0,4.0,4.0,100.0,,,,,,,,,,,,,,,,,,,,,,,,,,,,,,,,,,,,,,,,,,,,,,,,,,,,,,,,,,,,,,,,,,,,,,,,,,,,,,,,,,,,,,,,,,,,,,,,,,,,,,,,,,,,,,,,,,,,,,,,,,,,,,,,,,,
1725717326.045848,1725717326.047216,43.0,0.0,4297.692383,4300.512695,4301.666504,4273.589844,4250.0,4228.974121,4246.410156,4247.94873,4247.692383,4238.077148,4503.846191,4523.077148,4370.256348,4433.205078,0.0,0.0,11.0,,,,0.0,4.0,4.0,4.0,4.0,4.0,4.0,4.0,4.0,4.0,4.0,4.0,4.0,4.0,4.0,100.0,,,,,,,,,,,,,,,,,,,,,,,,,,,,,,,,,,,,,,,,,,,,,,,,,,,,,,,,,,,,,,,,,,,,,,,,,,,,,,,,,,,,,,,,,,,,,,,,,,,,,,,,,,,,,,,,,,,,,,,,,,,,,,,,,,,
1725717326.049753,1725717326.05112,44.0,0.0,4297.179688,4301.282227,4296.922852,4274.743652,4251.025879,4226.025879,4246.282227,4249.358887,4246.025879,4234.743652,4506.025879,4521.666504,4366.410156,4431.282227,0.0,0.0,11.0,,,,0.0,4.0,4.0,4.0,4.0,4.0,4.0,4.0,4.0,4.0,4.0,4.0,4.0,4.0,4.0,100.0,,,,,,,,,,,,,,,,,,,,,,,,,,,,,,,,,,,,,,,,,,,,,,,,,,,,,,,,0.0,0.0,1.0,0.0,1.0,0.0,,,,,,,,,,,,,,,,,,,,,,,,,,,,,,,,,,,,,,,,,,,,,,,,,,,,,,,,,,,,,,,,,,,,,,
1725717326.053657,1725717326.054924,45.0,0.0,4297.05127,4302.05127,4295.128418,4276.410156,4250.897461,4224.358887,4246.153809,4249.230957,4245.384766,4233.205078,4507.436035,4520.897461,4363.589844,4429.871582,0.0,0.0,11.0,,,,0.0,4.0,4.0,4.0,4.0,4.0,4.0,4.0,4.0,4.0,4.0,4.0,4.0,4.0,4.0,100.0,,,,,,,,,,,,,,,,,,,,,,,,,,,,,,,,,,,,,,,,,,,,,,,,,,,,,,,,,,,,,,,,,,,,,,,,,,,,,,,,,,,,,,,,,,,,,,,,,,,,,,,,,,,,,,,,,,,,,,,,,,,,,,,,,,,
1725717326.057561,1725717326.058828,46.0,0.0,4297.692383,4302.05127,4297.563965,4277.563965,4250.128418,4225.256348,4246.666504,4247.820313,4245.512695,4233.717773,4506.282227,4521.410156,4363.077148,4429.102539,0.0,0.0,11.0,,,,0.0,4.0,4.0,4.0,4.0,4.0,4.0,4.0,4.0,4.0,4.0,4.0,4.0,4.0,4.0,100.0,,,,,,,,,,,,,,,,,,,,,,,,,,,,,,,,,,,,,,,,,,,,,,,,,,,,,,,,,,,,,,,,,,,,,,,,,,,,,,,,,,,,,,,,,,,,,,,,,,,,,,,,,,,,,,,,,,,,,,,,,,,,,,,,,,,
1725717326.061465,1725717326.062732,47.0,0.0,4298.974121,4301.282227,4302.563965,4277.94873,4248.974121,4228.205078,4247.563965,4246.410156,4245.897461,4235.641113,4502.94873,4522.692383,4364.102539,4428.846191,0.0,0.0,11.0,,,,0.0,4.0,4.0,4.0,4.0,4.0,4.0,4.0,4.0,4.0,4.0,4.0,4.0,4.0,4.0,100.0,,,,,,,,,,,,,,,,,,,,,,,,,,,,,,,,,,,,,,,,,,,,,,,,,,,,,,,,,,,,,,,,,,,,,,,,,,,,,,,,,,,,,,,,,,,,,,,,,,,,,,,,,,,,,,,,,,,,,,,,,,,,,,,,,,,
1725717326.065369,1725717326.066536,48.0,0.0,4300.641113,4300.769043,4306.794922,4277.820313,4248.333496,4231.282227,4247.820313,4246.538574,4246.025879,4238.461426,4499.615234,4523.205078,4365.384766,4428.846191,0.0,0.0,11.0,,,,0.0,4.0,4.0,4.0,4.0,4.0,4.0,4.0,4.0,4.0,4.0,4.0,4.0,4.0,4.0,100.0,,,,,,,,,,,,,,,,,,,,,,,,,,,,,,,,,,,,,,,,,,,,,,,,,,,,,,,,,,,,,,,,,,,,,,,,,,,,,,,,,,,,,,,,,,,,,,,,,,,,,,,,,,,,,,,,,,,,,,,,,,,,,,,,,,,
1725717326.069273,1725717326.07044,49.0,0.0,4302.307617,4301.410156,4308.205078,4277.563965,4248.461426,4232.436035,4246.282227,4248.846191,4245.897461,4240.769043,4497.563965,4522.179688,4365.897461,4428.974121,0.0,0.0,11.0,,,,0.0,4.0,4.0,4.0,4.0,4.0,4.0,4.0,4.0,4.0,4.0,4.0,4.0,4.0,4.0,100.0,,,,,,,,,,,,,,,,,,,,,,,,,,,,,,,,,,,,,,,,,,,,,,,,,,,,,,,,,,,,,,,,,,,,,,,,,,,,,,,,,,,,,,,,,,,,,,,,,,,,,,,,,,,,,,,,,,,,,,,,,,,,,,,,,,,
1725717326.073177,1725717326.074344,50.0,0.0,4303.717773,4303.333496,4307.05127,4277.692383,4249.230957,4231.538574,4242.692383,4252.692383,4245.512695,4241.666504,4495.769043,4520.769043,4366.025879,4428.974121,0.0,0.0,11.0,,,,0.0,4.0,4.0,4.0,4.0,4.0,4.0,4.0,4.0,4.0,4.0,4.0,4.0,4.0,4.0,100.0,,,,,,,,,,,,,,,,,,,,,,,,,,,,,,,,,,,,,,,,,,,,,,,,,,,,,,,,,,,,,,,,,,,,,,,,,,,,,,,,,,,,,,,,,,,,,,,,,,,,,,,,,,,,,,,,,,,,,,,,,,,,,,,,,,,
1725717326.077081,1725717326.078348,51.0,0.0,4303.974121,4305.512695,4305.384766,4278.077148,4250.256348,4230.0,4238.333496,4256.410156,4245.0,4240.128418,4492.436035,4521.025879,4366.410156,4428.974121,0.0,0.0,11.0,,,,0.0,4.0,4.0,4.0,4.0,4.0,4.0,4.0,4.0,4.0,4.0,4.0,4.0,4.0,4.0,100.0,,,,,,,,,,,,,,,,,,,,,,,,,,,,,,,,,,,,,,,,,,,,,,,,,,,,,,,,,,,,,,,,,,,,,,,,,,,,,,,,,,,,,,,,,,,,,,,,,,,,,,,,,,,,,,,,,,,,,,,,,,,,,,,,,,,
1725717326.080985,1725717326.082253,52.0,0.0,4303.333496,4306.794922,4304.230957,4278.461426,4251.025879,4229.615234,4234.871582,4258.974121,4244.358887,4236.666504,4487.820313,4523.974121,4366.794922,4429.102539,0.0,0.0,11.0,,,,0.0,4.0,4.0,4.0,4.0,4.0,4.0,4.0,4.0,4.0,4.0,4.0,4.0,4.0,4.0,100.0,1.0,100.0,4.0,4.0,4.0,4.0,4.0,4.0,4.0,4.0,4.0,4.0,4.0,4.0,4.0,4.0,1.0,0.0,0.0,1.0,0.364208,-8.88926,-12.226501,-4.42338,1.0,0.699489,-0.323737,-1.037502,0.046314,1.0,0.317276,3.452063,2.18297,6.182964,0.318132,1.0,0.412284,23.21474,-763.793915,1070.323541,1.0,0.286987,0.125109,0.081506,0.234404,1.0,0.471127,2.796962,-11.854046,19.046247,1.0,0.429322,0.429322,0.0,1.0,0.0,0.0,1.0,0.0,1.0,0.0,1.623381,0.654965,0.771259,0.360528,0.063814,1.877884,0.613687,0.618043,0.292182,0.065475,1.536661,0.573273,0.818911,0.259075,0.074148,0.822441,0.533262,0.550666,0.222054,0.116074,0.733462,0.552497,0.218714,0.152147,0.060571,0.314924,0.194908,0.212575,0.055271,0.048273,0.437955,0.210622,0.163471,0.071357,0.05336,1.206278,2.527597,1.025664,0.341309,0.231799,1.557901,0.969795,0.592948,0.289872,0.11245,2.283452,1.017058,1.421147,0.3451,0.207576,2.751845,1.240742,1.725756,0.619892,0.461234,3.2677,1.277471,1.283566,0.57425,0.209177,3.776556,1.300998,1.168837,0.585755,0.255358,2.716723,0.625259,0.945211,0.350137,0.171292
1725717326.08489,1725717326.086157,53.0,0.0,4302.179688,4306.410156,4303.717773,4278.333496,4250.897461,4230.256348,4233.589844,4260.256348,4243.974121,4233.077148,4484.743652,4528.205078,4366.282227,4429.615234,0.0,0.0,11.0,,,,0.0,4.0,4.0,4.0,4.0,4.0,4.0,4.0,4.0,4.0,4.0,4.0,4.0,4.0,4.0,100.0,,,,,,,,,,,,,,,,,,,,,,,,,,,,,,,,,,,,,,,,,,,,,,,,,,,,,,,,,,,,,,,,,,,,,,,,,,,,,,,,,,,,,,,,,,,,,,,,,,,,,,,,,,,,,,,,,,,,,,,,,,,,,,,,,,,
1725717326.088794,1725717326.090061,54.0,0.0,4300.512695,4304.358887,4303.077148,4277.563965,4249.358887,4231.153809,4234.102539,4261.025879,4244.230957,4231.153809,4486.410156,4530.769043,4364.102539,4430.384766,0.0,0.0,11.0,,,,0.0,4.0,4.0,4.0,4.0,4.0,4.0,4.0,4.0,4.0,4.0,4.0,4.0,4.0,4.0,100.0,,,,,,,,,,,,,,,,,,,,,,,,,,,,,,,,,,,,,,,,,,,,,,,,,,,,,,,,,,,,,,,,,,,,,,,,,,,,,,,,,,,,,,,,,,,,,,,,,,,,,,,,,,,,,,,,,,,,,,,,,,,,,,,,,,,
1725717326.092698,1725717326.094065,55.0,0.0,4298.077148,4300.769043,4301.666504,4276.794922,4246.282227,4231.153809,4234.871582,4261.282227,4244.871582,4231.153809,4493.589844,4529.871582,4360.897461,4430.897461,0.0,0.0,11.0,,,,0.0,4.0,4.0,4.0,4.0,4.0,4.0,4.0,4.0,4.0,4.0,4.0,4.0,4.0,4.0,100.0,,,,,,,,,,,,,,,,,,,,,,,,,,,,,,,,,,,,,,,,,,,,,,,,,,,,,,,,,,,,,,,,,,,,,,,,,,,,,,,,,,,,,,,,,,,,,,,,,,,,,,,,,,,,,,,,,,,,,,,,,,,,,,,,,,,
1725717326.096602,1725717326.097969,56.0,0.0,4295.641113,4296.922852,4300.0,4276.538574,4243.077148,4229.871582,4234.615234,4261.410156,4245.256348,4231.666504,4503.205078,4526.538574,4357.563965,4431.025879,0.0,0.0,11.0,,,,0.0,4.0,4.0,4.0,4.0,4.0,4.0,4.0,4.0,4.0,4.0,4.0,4.0,4.0,4.0,100.0,,,,,,,,,,,,,,,,,,,,,,,,,,,,,,,,,,,,,,,,,,,,,,,,,,,,,,,,,,,,,,,,,,,,,,,,,,,,,,,,,,,,,,,,,,,,,,,,,,,,,,,,,,,,,,,,,,,,,,,,,,,,,,,,,,,
1725717326.100506,1725717326.101873,57.0,0.0,4294.102539,4294.230957,4299.230957,4277.05127,4241.025879,4228.333496,4233.077148,4261.410156,4245.512695,4231.794922,4510.641113,4524.615234,4355.512695,4430.897461,0.0,0.0,11.0,,,,0.0,4.0,4.0,4.0,4.0,4.0,4.0,4.0,4.0,4.0,4.0,4.0,4.0,4.0,4.0,100.0,,,,,,,,,,,,,,,,,,,,,,,,,,,,,,,,,,,,,,,,,,,,,,,,,,,,,,,,,,,,,,,,,,,,,,,,,,,,,,,,,,,,,,,,,,,,,,,,,,,,,,,,,,,,,,,,,,,,,,,,,,,,,,,,,,,
1725717326.10441,1725717326.105777,58.0,0.0,4294.487305,4293.846191,4300.512695,4277.692383,4241.025879,4227.692383,4231.282227,4261.666504,4246.282227,4231.794922,4512.436035,4527.179688,4355.769043,4431.666504,0.0,0.0,11.0,,,,0.0,4.0,4.0,4.0,4.0,4.0,4.0,4.0,4.0,4.0,4.0,4.0,4.0,4.0,4.0,100.0,,,,,,,,,,,,,,,,,,,,,,,,,,,,,,,,,,,,,,,,,,,,,,,,,,,,,,,,,,,,,,,,,,,,,,,,,,,,,,,,,,,,,,,,,,,,,,,,,,,,,,,,,,,,,,,,,,,,,,,,,,,,,,,,,,,
1725717326.108314,1725717326.109781,59.0,0.0,4296.794922,4295.769043,4304.358887,4277.94873,4242.563965,4228.589844,4230.384766,4263.077148,4248.333496,4232.820313,4508.974121,4534.358887,4358.846191,4434.487305,0.0,0.0,11.0,,,,0.0,4.0,4.0,4.0,4.0,4.0,4.0,4.0,4.0,4.0,4.0,4.0,4.0,4.0,4.0,100.0,,,,,,,,,,,,,,,,,,,,,,,,,,,,,,,,,,,,,,,,,,,,,,,,,,,,,,,,,,,,,,,,,,,,,,,,,,,,,,,,,,,,,,,,,,,,,,,,,,,,,,,,,,,,,,,,,,,,,,,,,,,,,,,,,,,
1725717326.112218,1725717326.113685,60.0,0.0,4299.871582,4298.717773,4309.743652,4278.077148,4244.487305,4230.384766,4230.897461,4265.256348,4250.897461,4234.615234,4503.589844,4542.436035,4364.743652,4439.102539,0.0,0.0,11.0,,,,0.0,4.0,4.0,4.0,4.0,4.0,4.0,4.0,4.0,4.0,4.0,4.0,4.0,4.0,4.0,100.0,,,,,,,,,,,,,,,,,,,,,,,,,,,,,,,,,,,,,,,,,,,,,,,,,,,,,,,,0.0,0.0,1.0,0.0,1.0,0.0,,,,,,,,,,,,,,,,,,,,,,,,,,,,,,,,,,,,,,,,,,,,,,,,,,,,,,,,,,,,,,,,,,,,,,
1725717326.116122,1725717326.117589,61.0,0.0,4301.922852,4300.384766,4313.717773,4278.077148,4245.384766,4231.794922,4231.666504,4267.05127,4251.922852,4235.641113,4500.128418,4546.794922,4371.410156,4443.717773,0.0,0.0,11.0,,,,0.0,4.0,4.0,4.0,4.0,4.0,4.0,4.0,4.0,4.0,4.0,4.0,4.0,4.0,4.0,100.0,,,,,,,,,,,,,,,,,,,,,,,,,,,,,,,,,,,,,,,,,,,,,,,,,,,,,,,,,,,,,,,,,,,,,,,,,,,,,,,,,,,,,,,,,,,,,,,,,,,,,,,,,,,,,,,,,,,,,,,,,,,,,,,,,,,
1725717326.120026,1725717326.121493,62.0,0.0,4301.538574,4299.487305,4313.589844,4277.820313,4245.128418,4231.794922,4231.666504,4266.794922,4250.0,4235.128418,4501.153809,4544.871582,4375.128418,4445.897461,0.0,0.0,11.0,,,,0.0,4.0,4.0,4.0,4.0,4.0,4.0,4.0,4.0,4.0,4.0,4.0,4.0,4.0,4.0,100.0,,,,,,,,,,,,,,,,,,,,,,,,,,,,,,,,,,,,,,,,,,,,,,,,,,,,,,,,,,,,,,,,,,,,,,,,,,,,,,,,,,,,,,,,,,,,,,,,,,,,,,,,,,,,,,,,,,,,,,,,,,,,,,,,,,,
1725717326.123931,1725717326.125397,63.0,0.0,4299.871582,4297.179688,4309.358887,4277.436035,4244.487305,4230.128418,4231.025879,4263.461426,4246.153809,4234.102539,4505.641113,4539.102539,4373.589844,4444.487305,0.0,0.0,11.0,,,,0.0,4.0,4.0,4.0,4.0,4.0,4.0,4.0,4.0,4.0,4.0,4.0,4.0,4.0,4.0,100.0,,,,,,,,,,,,,,,,,,,,,,,,,,,,,,,,,,,,,,,,,,,,,,,,,,,,,,,,,,,,,,,,,,,,,,,,,,,,,,,,,,,,,,,,,,,,,,,,,,,,,,,,,,,,,,,,,,,,,,,,,,,,,,,,,,,
1725717326.127835,1725717326.129202,64.0,0.0,4299.230957,4296.153809,4303.974121,4276.922852,4244.487305,4228.333496,4230.897461,4257.94873,4243.333496,4234.743652,4509.743652,4534.358887,4368.077148,4441.282227,0.0,0.0,11.0,,,,0.0,4.0,4.0,4.0,4.0,4.0,4.0,4.0,4.0,4.0,4.0,4.0,4.0,4.0,4.0,100.0,,,,,,,,,,,,,,,,,,,,,,,,,,,,,,,,,,,,,,,,,,,,,,,,,,,,,,,,,,,,,,,,,,,,,,,,,,,,,,,,,,,,,,,,,,,,,,,,,,,,,,,,,,,,,,,,,,,,,,,,,,,,,,,,,,,
1725717326.131739,1725717326.133106,65.0,0.0,4300.897461,4298.205078,4301.282227,4276.922852,4245.769043,4228.461426,4232.05127,4252.436035,4243.205078,4238.205078,4510.0,4534.358887,4363.717773,4439.102539,0.0,0.0,11.0,,,,0.0,4.0,4.0,4.0,4.0,4.0,4.0,4.0,4.0,4.0,4.0,4.0,4.0,4.0,4.0,100.0,,,,,,,,,,,,,,,,,,,,,,,,,,,,,,,,,,,,,,,,,,,,,,,,,,,,,,,,,,,,,,,,,,,,,,,,,,,,,,,,,,,,,,,,,,,,,,,,,,,,,,,,,,,,,,,,,,,,,,,,,,,,,,,,,,,
1725717326.135643,1725717326.13701,66.0,0.0,4304.615234,4302.563965,4302.94873,4277.94873,4247.94873,4230.897461,4233.077148,4249.102539,4244.871582,4243.205078,4505.512695,4538.333496,4365.128418,4439.871582,0.0,0.0,11.0,,,,0.0,4.0,4.0,4.0,4.0,4.0,4.0,4.0,4.0,4.0,4.0,4.0,4.0,4.0,4.0,100.0,,,,,,,,,,,,,,,,,,,,,,,,,,,,,,,,,,,,,,,,,,,,,,,,,,,,,,,,,,,,,,,,,,,,,,,,,,,,,,,,,,,,,,,,,,,,,,,,,,,,,,,,,,,,,,,,,,,,,,,,,,,,,,,,,,,
1725717326.139547,1725717326.140914,67.0,0.0,4307.94873,4306.538574,4306.794922,4280.128418,4249.743652,4233.333496,4232.436035,4248.589844,4245.512695,4245.897461,4499.871582,4541.794922,4371.922852,4442.692383,0.0,0.0,11.0,,,,0.0,4.0,4.0,4.0,4.0,4.0,4.0,4.0,4.0,4.0,4.0,4.0,4.0,4.0,4.0,100.0,,,,,,,,,,,,,,,,,,,,,,,,,,,,,,,,,,,,,,,,,,,,,,,,,,,,,,,,,,,,,,,,,,,,,,,,,,,,,,,,,,,,,,,,,,,,,,,,,,,,,,,,,,,,,,,,,,,,,,,,,,,,,,,,,,,
1725717326.143451,1725717326.144718,68.0,0.0,4308.974121,4307.436035,4309.487305,4282.05127,4249.871582,4232.94873,4229.230957,4249.487305,4243.333496,4243.974121,4496.666504,4540.128418,4379.102539,4444.358887,0.0,0.0,11.0,,,,0.0,4.0,4.0,4.0,4.0,4.0,4.0,4.0,4.0,4.0,4.0,4.0,4.0,4.0,4.0,100.0,,,,,,,,,,,,,,,,,,,,,,,,,,,,,,,,,,,,,,,,,,,,,,,,,,,,,,,,0.0,0.0,1.0,0.0,1.0,0.0,,,,,,,,,,,,,,,,,,,,,,,,,,,,,,,,,,,,,,,,,,,,,,,,,,,,,,,,,,,,,,,,,,,,,,
1725717326.147355,1725717326.148622,69.0,0.0,4306.153809,4304.358887,4308.205078,4282.436035,4248.333496,4228.589844,4224.487305,4250.128418,4239.230957,4238.333496,4496.538574,4533.205078,4381.538574,4442.179688,0.0,0.0,11.0,,,,0.0,4.0,4.0,4.0,4.0,4.0,4.0,4.0,4.0,4.0,4.0,4.0,4.0,4.0,4.0,100.0,,,,,,,,,,,,,,,,,,,,,,,,,,,,,,,,,,,,,,,,,,,,,,,,,,,,,,,,,,,,,,,,,,,,,,,,,,,,,,,,,,,,,,,,,,,,,,,,,,,,,,,,,,,,,,,,,,,,,,,,,,,,,,,,,,,
1725717326.151259,1725717326.152526,70.0,0.0,4300.512695,4298.717773,4303.333496,4280.384766,4246.410156,4222.563965,4220.256348,4249.743652,4236.153809,4232.307617,4497.05127,4525.256348,4377.563965,4436.153809,0.0,0.0,11.0,,,,0.0,4.0,4.0,4.0,4.0,4.0,4.0,4.0,4.0,4.0,4.0,4.0,4.0,4.0,4.0,100.0,,,,,,,,,,,,,,,,,,,,,,,,,,,,,,,,,,,,,,,,,,,,,,,,,,,,,,,,,,,,,,,,,,,,,,,,,,,,,,,,,,,,,,,,,,,,,,,,,,,,,,,,,,,,,,,,,,,,,,,,,,,,,,,,,,,
1725717326.155163,1725717326.156331,71.0,0.0,4295.128418,4293.205078,4297.436035,4276.922852,4245.512695,4218.589844,4217.94873,4248.974121,4236.538574,4228.974121,4495.512695,4520.769043,4370.769043,4429.615234,0.0,0.0,11.0,,,,0.0,4.0,4.0,4.0,4.0,4.0,4.0,4.0,4.0,4.0,4.0,4.0,4.0,4.0,4.0,100.0,,,,,,,,,,,,,,,,,,,,,,,,,,,,,,,,,,,,,,,,,,,,,,,,,,,,,,,,,,,,,,,,,,,,,,,,,,,,,,,,,,,,,,,,,,,,,,,,,,,,,,,,,,,,,,,,,,,,,,,,,,,,,,,,,,,
1725717326.159067,1725717326.160235,72.0,0.0,4293.077148,4290.384766,4293.589844,4274.102539,4246.025879,4219.743652,4217.307617,4249.615234,4240.384766,4228.846191,4491.538574,4522.179688,4365.897461,4426.538574,0.0,0.0,11.0,,,,0.0,4.0,4.0,4.0,4.0,4.0,4.0,4.0,4.0,4.0,4.0,4.0,4.0,4.0,4.0,100.0,,,,,,,,,,,,,,,,,,,,,,,,,,,,,,,,,,,,,,,,,,,,,,,,,,,,,,,,,,,,,,,,,,,,,,,,,,,,,,,,,,,,,,,,,,,,,,,,,,,,,,,,,,,,,,,,,,,,,,,,,,,,,,,,,,,
1725717326.162971,1725717326.164139,73.0,0.0,4295.128418,4291.410156,4294.230957,4273.974121,4246.922852,4225.256348,4217.307617,4252.820313,4245.128418,4230.897461,4488.333496,4528.461426,4365.384766,4428.974121,0.0,0.0,11.0,,,,0.0,4.0,4.0,4.0,4.0,4.0,4.0,4.0,4.0,4.0,4.0,4.0,4.0,4.0,4.0,100.0,,,,,,,,,,,,,,,,,,,,,,,,,,,,,,,,,,,,,,,,,,,,,,,,,,,,,,,,,,,,,,,,,,,,,,,,,,,,,,,,,,,,,,,,,,,,,,,,,,,,,,,,,,,,,,,,,,,,,,,,,,,,,,,,,,,
1725717326.166875,1725717326.168043,74.0,0.0,4299.230957,4295.256348,4298.974121,4276.538574,4247.307617,4231.666504,4217.307617,4258.846191,4248.589844,4233.846191,4489.615234,4536.922852,4368.589844,4435.384766,0.0,0.0,11.0,,,,0.0,4.0,4.0,4.0,4.0,4.0,4.0,4.0,4.0,4.0,4.0,4.0,4.0,4.0,4.0,100.0,,,,,,,,,,,,,,,,,,,,,,,,,,,,,,,,,,,,,,,,,,,,,,,,,,,,,,,,,,,,,,,,,,,,,,,,,,,,,,,,,,,,,,,,,,,,,,,,,,,,,,,,,,,,,,,,,,,,,,,,,,,,,,,,,,,
1725717326.17078,1725717326.171847,75.0,0.0,4302.563965,4299.230957,4304.871582,4280.384766,4247.307617,4234.743652,4217.05127,4265.641113,4250.256348,4236.410156,4497.436035,4543.717773,4373.461426,4442.179688,0.0,0.0,11.0,,,,0.0,4.0,4.0,4.0,4.0,4.0,4.0,4.0,4.0,4.0,4.0,4.0,4.0,4.0,4.0,100.0,,,,,,,,,,,,,,,,,,,,,,,,,,,,,,,,,,,,,,,,,,,,,,,,,,,,,,,,,,,,,,,,,,,,,,,,,,,,,,,,,,,,,,,,,,,,,,,,,,,,,,,,,,,,,,,,,,,,,,,,,,,,,,,,,,,
1725717326.174684,1725717326.175751,76.0,0.0,4303.333496,4301.025879,4308.846191,4282.94873,4247.179688,4232.94873,4216.922852,4270.256348,4251.025879,4238.589844,4508.205078,4546.025879,4377.563965,4446.153809,0.0,0.0,11.0,,,,0.0,4.0,4.0,4.0,4.0,4.0,4.0,4.0,4.0,4.0,4.0,4.0,4.0,4.0,4.0,100.0,,,,,,,,,,,,,,,,,,,,,,,,,,,,,,,,,,,,,,,,,,,,,,,,,,,,,,,,0.0,0.0,1.0,0.0,1.0,0.0,,,,,,,,,,,,,,,,,,,,,,,,,,,,,,,,,,,,,,,,,,,,,,,,,,,,,,,,,,,,,,,,,,,,,,
1725717326.178588,1725717326.179655,77.0,0.0,4301.410156,4299.487305,4309.230957,4282.692383,4246.922852,4228.461426,4216.922852,4269.358887,4251.410156,4239.871582,4515.384766,4543.205078,4378.974121,4446.025879,0.0,0.0,11.0,,,,0.0,4.0,4.0,4.0,4.0,4.0,4.0,4.0,4.0,4.0,4.0,4.0,4.0,4.0,4.0,100.0,,,,,,,,,,,,,,,,,,,,,,,,,,,,,,,,,,,,,,,,,,,,,,,,,,,,,,,,,,,,,,,,,,,,,,,,,,,,,,,,,,,,,,,,,,,,,,,,,,,,,,,,,,,,,,,,,,,,,,,,,,,,,,,,,,,
1725717326.182492,1725717326.183659,78.0,0.0,4298.077148,4296.025879,4306.794922,4280.128418,4246.153809,4225.0,4215.897461,4262.563965,4250.128418,4240.256348,4513.333496,4536.666504,4376.666504,4442.179688,0.0,0.0,11.0,,,,0.0,4.0,4.0,4.0,4.0,4.0,4.0,4.0,4.0,4.0,4.0,4.0,4.0,4.0,4.0,100.0,,,,,,,,,,,,,,,,,,,,,,,,,,,,,,,,,,,,,,,,,,,,,,,,,,,,,,,,,,,,,,,,,,,,,,,,,,,,,,,,,,,,,,,,,,,,,,,,,,,,,,,,,,,,,,,,,,,,,,,,,,,,,,,,,,,
1725717326.186396,1725717326.187563,79.0,0.0,4295.256348,4293.461426,4302.94873,4277.563965,4244.615234,4225.128418,4212.820313,4252.563965,4245.897461,4239.358887,4502.563965,4529.230957,4371.282227,4436.538574,0.0,0.0,11.0,,,,0.0,4.0,4.0,4.0,4.0,4.0,4.0,4.0,4.0,4.0,4.0,4.0,4.0,4.0,4.0,100.0,,,,,,,,,,,,,,,,,,,,,,,,,,,,,,,,,,,,,,,,,,,,,,,,,,,,,,,,,,,,,,,,,,,,,,,,,,,,,,,,,,,,,,,,,,,,,,,,,,,,,,,,,,,,,,,,,,,,,,,,,,,,,,,,,,,
1725717326.1903,1725717326.191468,80.0,0.0,4294.358887,4293.974121,4299.230957,4276.666504,4242.94873,4228.333496,4208.077148,4244.615234,4239.230957,4236.794922,4489.871582,4523.717773,4365.384766,4431.538574,0.0,0.0,11.0,,,,0.0,4.0,4.0,4.0,4.0,4.0,4.0,4.0,4.0,4.0,4.0,4.0,4.0,4.0,4.0,100.0,,,,,,,,,,,,,,,,,,,,,,,,,,,,,,,,,,,,,,,,,,,,,,,,,,,,,,,,,,,,,,,,,,,,,,,,,,,,,,,,,,,,,,,,,,,,,,,,,,,,,,,,,,,,,,,,,,,,,,,,,,,,,,,,,,,
1725717326.194204,1725717326.195372,81.0,0.0,4295.512695,4297.94873,4296.538574,4277.436035,4242.179688,4232.307617,4203.333496,4242.94873,4233.205078,4233.205078,4484.230957,4521.282227,4361.538574,4429.102539,0.0,0.0,11.0,,,,0.0,4.0,4.0,4.0,4.0,4.0,4.0,4.0,4.0,4.0,4.0,4.0,4.0,4.0,4.0,100.0,,,,,,,,,,,,,,,,,,,,,,,,,,,,,,,,,,,,,,,,,,,,,,,,,,,,,,,,,,,,,,,,,,,,,,,,,,,,,,,,,,,,,,,,,,,,,,,,,,,,,,,,,,,,,,,,,,,,,,,,,,,,,,,,,,,
1725717326.198108,1725717326.199376,82.0,0.0,4297.692383,4303.205078,4295.512695,4278.589844,4242.692383,4234.615234,4200.384766,4247.692383,4231.666504,4230.641113,4489.358887,4522.05127,4362.05127,4430.128418,0.0,0.0,11.0,,,,0.0,4.0,4.0,4.0,4.0,4.0,4.0,4.0,4.0,4.0,4.0,4.0,4.0,4.0,4.0,100.0,,,,,,,,,,,,,,,,,,,,,,,,,,,,,,,,,,,,,,,,,,,,,,,,,,,,,,,,,,,,,,,,,,,,,,,,,,,,,,,,,,,,,,,,,,,,,,,,,,,,,,,,,,,,,,,,,,,,,,,,,,,,,,,,,,,
1725717326.202012,1725717326.20328,83.0,0.0,4300.512695,4307.436035,4296.666504,4279.230957,4243.974121,4235.0,4199.871582,4255.256348,4236.153809,4231.282227,4501.666504,4525.0,4367.179688,4434.230957,0.0,0.0,11.0,,,,0.0,4.0,4.0,4.0,4.0,4.0,4.0,4.0,4.0,4.0,4.0,4.0,4.0,4.0,4.0,100.0,,,,,,,,,,,,,,,,,,,,,,,,,,,,,,,,,,,,,,,,,,,,,,,,,,,,,,,,,,,,,,,,,,,,,,,,,,,,,,,,,,,,,,,,,,,,,,,,,,,,,,,,,,,,,,,,,,,,,,,,,,,,,,,,,,,
1725717326.205917,1725717326.207184,84.0,0.0,4304.102539,4308.846191,4299.487305,4279.615234,4245.256348,4233.974121,4200.897461,4260.641113,4244.615234,4235.512695,4512.820313,4528.717773,4375.256348,4439.743652,0.0,0.0,11.0,,,,0.0,4.0,4.0,4.0,4.0,4.0,4.0,4.0,4.0,4.0,4.0,4.0,4.0,4.0,4.0,100.0,,,,,,,,,,,,,,,,,1.0,0.0,0.0,,,,,,,,,,,,,,,,,,,,,,,,,,,,,,,,,,,,,0.0,0.0,1.0,0.0,1.0,0.0,1.847617,0.645932,0.936083,0.437626,0.063886,1.742627,0.63961,0.764832,0.370441,0.058819,1.625544,0.552375,1.014953,0.31141,0.070792,0.716893,0.448496,0.655023,0.230559,0.118096,0.66917,0.635509,0.263824,0.176962,0.068727,0.432776,0.261573,0.254704,0.05672,0.047981,0.479222,0.23743,0.203831,0.088129,0.055169,1.284291,2.471188,1.053682,0.364206,0.221699,1.622038,0.923894,0.703478,0.30482,0.107719,2.555357,0.935811,1.661643,0.369845,0.220927,3.136313,1.249325,2.053896,0.616573,0.411653,4.000721,1.33469,1.544279,0.656791,0.199936,4.173721,1.342419,1.319377,0.696897,0.257811,3.149536,0.582848,1.093002,0.408515,0.153425
1725717326.209821,1725717326.211088,85.0,0.0,4308.077148,4307.307617,4302.820313,4280.384766,4246.153809,4232.692383,4201.794922,4261.794922,4252.05127,4242.179688,4516.538574,4532.179688,4382.563965,4444.358887,0.0,0.0,11.0,,,,0.0,4.0,4.0,4.0,4.0,4.0,4.0,4.0,4.0,4.0,4.0,4.0,4.0,4.0,4.0,100.0,,,,,,,,,,,,,,,,,,,,,,,,,,,,,,,,,,,,,,,,,,,,,,,,,,,,,,,,,,,,,,,,,,,,,,,,,,,,,,,,,,,,,,,,,,,,,,,,,,,,,,,,,,,,,,,,,,,,,,,,,,,,,,,,,,,
1725717326.213725,1725717326.215092,86.0,0.0,4310.897461,4304.615234,4304.743652,4281.666504,4247.179688,4231.410156,4201.666504,4260.256348,4254.487305,4248.205078,4513.461426,4535.256348,4385.897461,4446.794922,0.0,0.0,11.0,,,,0.0,4.0,4.0,4.0,4.0,4.0,4.0,4.0,4.0,4.0,4.0,4.0,4.0,4.0,4.0,100.0,,,,,,,,,,,,,,,,,,,,,,,,,,,,,,,,,,,,,,,,,,,,,,,,,,,,,,,,,,,,,,,,,,,,,,,,,,,,,,,,,,,,,,,,,,,,,,,,,,,,,,,,,,,,,,,,,,,,,,,,,,,,,,,,,,,
1725717326.217629,1725717326.218996,87.0,0.0,4311.025879,4302.436035,4305.256348,4283.077148,4248.717773,4230.769043,4200.256348,4259.102539,4252.179688,4250.769043,4508.461426,4537.94873,4385.256348,4447.179688,0.0,0.0,11.0,,,,0.0,4.0,4.0,4.0,4.0,4.0,4.0,4.0,4.0,4.0,4.0,4.0,4.0,4.0,4.0,100.0,,,,,,,,,,,,,,,,,,,,,,,,,,,,,,,,,,,,,,,,,,,,,,,,,,,,,,,,,,,,,,,,,,,,,,,,,,,,,,,,,,,,,,,,,,,,,,,,,,,,,,,,,,,,,,,,,,,,,,,,,,,,,,,,,,,
1725717326.221533,1725717326.2229,88.0,0.0,4308.717773,4301.922852,4304.871582,4283.846191,4250.512695,4231.153809,4198.333496,4259.743652,4248.846191,4248.589844,4506.153809,4540.512695,4382.563965,4446.410156,0.0,0.0,11.0,,,,0.0,4.0,4.0,4.0,4.0,4.0,4.0,4.0,4.0,4.0,4.0,4.0,4.0,4.0,4.0,100.0,,,,,,,,,,,,,,,,,,,,,,,,,,,,,,,,,,,,,,,,,,,,,,,,,,,,,,,,,,,,,,,,,,,,,,,,,,,,,,,,,,,,,,,,,,,,,,,,,,,,,,,,,,,,,,,,,,,,,,,,,,,,,,,,,,,
1725717326.225437,1725717326.226804,89.0,0.0,4304.615234,4302.563965,4304.102539,4283.077148,4250.769043,4232.179688,4196.794922,4261.153809,4247.94873,4242.820313,4507.307617,4541.538574,4380.0,4445.0,0.0,0.0,11.0,,,,0.0,4.0,4.0,4.0,4.0,4.0,4.0,4.0,4.0,4.0,4.0,4.0,4.0,4.0,4.0,100.0,,,,,,,,,,,,,,,,,,,,,,,,,,,,,,,,,,,,,,,,,,,,,,,,,,,,,,,,,,,,,,,,,,,,,,,,,,,,,,,,,,,,,,,,,,,,,,,,,,,,,,,,,,,,,,,,,,,,,,,,,,,,,,,,,,,
1725717326.229341,1725717326.230708,90.0,0.0,4300.0,4302.436035,4302.179688,4280.384766,4247.820313,4232.436035,4195.0,4260.641113,4249.615234,4236.666504,4509.487305,4539.102539,4377.05127,4441.922852,0.0,0.0,11.0,,,,0.0,4.0,4.0,4.0,4.0,4.0,4.0,4.0,4.0,4.0,4.0,4.0,4.0,4.0,4.0,100.0,,,,,,,,,,,,,,,,,,,,,,,,,,,,,,,,,,,,,,,,,,,,,,,,,,,,,,,,,,,,,,,,,,,,,,,,,,,,,,,,,,,,,,,,,,,,,,,,,,,,,,,,,,,,,,,,,,,,,,,,,,,,,,,,,,,
1725717326.233245,1725717326.234513,91.0,0.0,4295.897461,4300.256348,4298.461426,4276.666504,4242.05127,4230.128418,4192.179688,4256.282227,4251.153809,4233.077148,4509.358887,4532.307617,4371.666504,4436.025879,0.0,0.0,11.0,,,,0.0,4.0,4.0,4.0,4.0,4.0,4.0,4.0,4.0,4.0,4.0,4.0,4.0,4.0,4.0,100.0,,,,,,,,,,,,,,,,,,,,,,,,,,,,,,,,,,,,,,,,,,,,,,,,,,,,,,,,,,,,,,,,,,,,,,,,,,,,,,,,,,,,,,,,,,,,,,,,,,,,,,,,,,,,,,,,,,,,,,,,,,,,,,,,,,,
1725717326.237149,1725717326.238417,92.0,0.0,4292.820313,4295.897461,4293.333496,4272.94873,4235.769043,4225.256348,4187.692383,4249.358887,4249.615234,4233.205078,4504.487305,4522.692383,4362.94873,4427.563965,0.0,0.0,11.0,,,,0.0,4.0,4.0,4.0,4.0,4.0,4.0,4.0,4.0,4.0,4.0,4.0,4.0,4.0,4.0,100.0,,,,,,,,,,,,,,,,,,,,,,,,,,,,,,,,,,,,,,,,,,,,,,,,,,,,,,,,0.0,0.0,1.0,0.0,1.0,0.0,,,,,,,,,,,,,,,,,,,,,,,,,,,,,,,,,,,,,,,,,,,,,,,,,,,,,,,,,,,,,,,,,,,,,,
1725717326.241053,1725717326.242321,93.0,0.0,4290.128418,4291.025879,4288.077148,4270.0,4231.922852,4220.0,4181.794922,4243.717773,4244.358887,4235.0,4494.230957,4513.461426,4352.820313,4418.717773,0.0,0.0,11.0,,,,0.0,4.0,4.0,4.0,4.0,4.0,4.0,4.0,4.0,4.0,4.0,4.0,4.0,4.0,4.0,100.0,,,,,,,,,,,,,,,,,,,,,,,,,,,,,,,,,,,,,,,,,,,,,,,,,,,,,,,,,,,,,,,,,,,,,,,,,,,,,,,,,,,,,,,,,,,,,,,,,,,,,,,,,,,,,,,,,,,,,,,,,,,,,,,,,,,
1725717326.244958,1725717326.246225,94.0,0.0,4286.410156,4286.922852,4284.102539,4267.436035,4231.282227,4216.410156,4175.512695,4242.563965,4237.94873,4235.0,4480.128418,4507.94873,4343.974121,4411.282227,0.0,0.0,11.0,,,,0.0,4.0,4.0,4.0,4.0,4.0,4.0,4.0,4.0,4.0,4.0,4.0,4.0,4.0,4.0,100.0,,,,,,,,,,,,,,,,,,,,,,,,,,,,,,,,,,,,,,,,,,,,,,,,,,,,,,,,,,,,,,,,,,,,,,,,,,,,,,,,,,,,,,,,,,,,,,,,,,,,,,,,,,,,,,,,,,,,,,,,,,,,,,,,,,,
1725717326.248862,1725717326.250029,95.0,0.0,4280.897461,4283.077148,4280.641113,4264.358887,4231.666504,4215.256348,4170.641113,4245.512695,4232.563965,4230.128418,4465.897461,4506.410156,4337.563965,4406.025879,0.0,0.0,11.0,,,,0.0,4.0,4.0,4.0,4.0,4.0,4.0,4.0,4.0,4.0,4.0,4.0,4.0,4.0,4.0,100.0,,,,,,,,,,,,,,,,,,,,,,,,,,,,,,,,,,,,,,,,,,,,,,,,,,,,,,,,,,,,,,,,,,,,,,,,,,,,,,,,,,,,,,,,,,,,,,,,,,,,,,,,,,,,,,,,,,,,,,,,,,,,,,,,,,,
1725717326.252766,1725717326.253933,96.0,0.0,4273.846191,4278.333496,4276.794922,4259.743652,4230.128418,4215.256348,4167.820313,4248.589844,4229.487305,4220.512695,4455.0,4506.282227,4332.05127,4402.179688,0.0,0.0,11.0,,,,0.0,4.0,4.0,4.0,4.0,4.0,4.0,4.0,4.0,4.0,4.0,4.0,4.0,4.0,4.0,100.0,,,,,,,,,,,,,,,,,,,,,,,,,,,,,,,,,,,,,,,,,,,,,,,,,,,,,,,,,,,,,,,,,,,,,,,,,,,,,,,,,,,,,,,,,,,,,,,,,,,,,,,,,,,,,,,,,,,,,,,,,,,,,,,,,,,
1725717326.25667,1725717326.257837,97.0,0.0,4267.179688,4272.179688,4271.666504,4253.589844,4225.128418,4214.871582,4166.538574,4248.589844,4228.461426,4209.487305,4450.512695,4504.871582,4325.769043,4398.461426,0.0,0.0,11.0,,,,0.0,4.0,4.0,4.0,4.0,4.0,4.0,4.0,4.0,4.0,4.0,4.0,4.0,4.0,4.0,100.0,,,,,,,,,,,,,,,,,,,,,,,,,,,,,,,,,,,,,,,,,,,,,,,,,,,,,,,,,,,,,,,,,,,,,,,,,,,,,,,,,,,,,,,,,,,,,,,,,,,,,,,,,,,,,,,,,,,,,,,,,,,,,,,,,,,
1725717326.260574,1725717326.261642,98.0,0.0,4263.589844,4265.769043,4266.025879,4247.307617,4218.589844,4213.974121,4165.769043,4245.641113,4228.717773,4201.922852,4453.461426,4501.282227,4320.384766,4395.256348,0.0,0.0,11.0,,,,0.0,4.0,4.0,4.0,4.0,4.0,4.0,4.0,4.0,4.0,4.0,4.0,4.0,4.0,4.0,100.0,,,,,,,,,,,,,,,,,,,,,,,,,,,,,,,,,,,,,,,,,,,,,,,,,,,,,,,,,,,,,,,,,,,,,,,,,,,,,,,,,,,,,,,,,,,,,,,,,,,,,,,,,,,,,,,,,,,,,,,,,,,,,,,,,,,
1725717326.264478,1725717326.265546,99.0,0.0,4264.487305,4261.282227,4262.179688,4243.461426,4213.974121,4214.230957,4165.256348,4243.589844,4229.615234,4200.769043,4461.922852,4497.820313,4319.487305,4394.743652,0.0,0.0,11.0,,,,0.0,4.0,4.0,4.0,4.0,4.0,4.0,4.0,4.0,4.0,4.0,4.0,4.0,4.0,4.0,100.0,,,,,,,,,,,,,,,,,,,,,,,,,,,,,,,,,,,,,,,,,,,,,,,,,,,,,,,,,,,,,,,,,,,,,,,,,,,,,,,,,,,,,,,,,,,,,,,,,,,,,,,,,,,,,,,,,,,,,,,,,,,,,,,,,,,
1725717326.268382,1725717326.26945,100.0,0.0,4269.871582,4261.538574,4262.820313,4244.358887,4213.974121,4217.436035,4165.128418,4246.025879,4231.794922,4206.538574,4472.436035,4498.717773,4325.384766,4399.230957,0.0,0.0,11.0,,,,0.0,4.0,4.0,4.0,4.0,4.0,4.0,4.0,4.0,4.0,4.0,4.0,4.0,4.0,4.0,100.0,,,,,,,,,,,,,,,,,,,,,,,,,,,,,,,,,,,,,,,,,,,,,,,,,,,,,,,,0.0,0.0,1.0,0.0,1.0,0.0,,,,,,,,,,,,,,,,,,,,,,,,,,,,,,,,,,,,,,,,,,,,,,,,,,,,,,,,,,,,,,,,,,,,,,
1725717326.272286,1725717326.273354,101.0,0.0,4277.94873,4267.436035,4269.230957,4250.897461,4219.487305,4223.717773,4166.794922,4252.820313,4236.410156,4217.05127,4482.436035,4507.179688,4337.179688,4409.487305,0.0,0.0,11.0,,,,0.0,4.0,4.0,4.0,4.0,4.0,4.0,4.0,4.0,4.0,4.0,4.0,4.0,4.0,4.0,100.0,,,,,,,,,,,,,,,,,,,,,,,,,,,,,,,,,,,,,,,,,,,,,,,,,,,,,,,,,,,,,,,,,,,,,,,,,,,,,,,,,,,,,,,,,,,,,,,,,,,,,,,,,,,,,,,,,,,,,,,,,,,,,,,,,,,
1725717326.27619,1725717326.277158,102.0,0.0,4287.307617,4277.563965,4280.384766,4261.666504,4228.461426,4231.025879,4170.769043,4260.769043,4244.102539,4229.743652,4492.05127,4522.179688,4351.025879,4423.077148,0.0,0.0,11.0,,,,0.0,4.0,4.0,4.0,4.0,4.0,4.0,4.0,4.0,4.0,4.0,4.0,4.0,4.0,4.0,100.0,,,,,,,,,,,,,,,,,,,,,,,,,,,,,,,,,,,,,,,,,,,,,,,,,,,,,,,,,,,,,,,,,,,,,,,,,,,,,,,,,,,,,,,,,,,,,,,,,,,,,,,,,,,,,,,,,,,,,,,,,,,,,,,,,,,
1725717326.280095,1725717326.281062,103.0,0.0,4296.666504,4289.230957,4292.692383,4273.205078,4237.692383,4236.410156,4176.922852,4266.794922,4253.333496,4241.794922,4502.820313,4538.333496,4363.461426,4435.769043,0.0,0.0,11.0,,,,0.0,4.0,4.0,4.0,4.0,4.0,4.0,4.0,4.0,4.0,4.0,4.0,4.0,4.0,4.0,100.0,,,,,,,,,,,,,,,,,,,,,,,,,,,,,,,,,,,,,,,,,,,,,,,,,,,,,,,,,,,,,,,,,,,,,,,,,,,,,,,,,,,,,,,,,,,,,,,,,,,,,,,,,,,,,,,,,,,,,,,,,,,,,,,,,,,
1725717326.283999,1725717326.284966,104.0,0.0,4304.743652,4299.230957,4302.05127,4281.666504,4244.358887,4237.94873,4183.077148,4269.358887,4261.153809,4250.512695,4514.358887,4549.358887,4372.307617,4444.358887,0.0,0.0,11.0,,,,0.0,4.0,4.0,4.0,4.0,4.0,4.0,4.0,4.0,4.0,4.0,4.0,4.0,4.0,4.0,100.0,,,,,,,,,,,,,,,,,,,,,,,,,,,,,,,,,,,,,,,,,,,,,,,,,,,,,,,,,,,,,,,,,,,,,,,,,,,,,,,,,,,,,,,,,,,,,,,,,,,,,,,,,,,,,,,,,,,,,,,,,,,,,,,,,,,
1725717326.287903,1725717326.28897,105.0,0.0,4310.0,4305.0,4305.897461,4284.871582,4247.563965,4236.282227,4187.05127,4268.333496,4264.102539,4254.358887,4523.205078,4552.307617,4377.307617,4448.077148,0.0,0.0,11.0,,,,0.0,4.0,4.0,4.0,4.0,4.0,4.0,4.0,4.0,4.0,4.0,4.0,4.0,4.0,4.0,100.0,,,,,,,,,,,,,,,,,,,,,,,,,,,,,,,,,,,,,,,,,,,,,,,,,,,,,,,,,,,,,,,,,,,,,,,,,,,,,,,,,,,,,,,,,,,,,,,,,,,,,,,,,,,,,,,,,,,,,,,,,,,,,,,,,,,
1725717326.291807,1725717326.292874,106.0,0.0,4311.794922,4306.410156,4305.128418,4283.846191,4247.94873,4233.333496,4187.692383,4264.743652,4261.410156,4253.333496,4525.897461,4549.230957,4379.615234,4448.461426,0.0,0.0,11.0,,,,0.0,4.0,4.0,4.0,4.0,4.0,4.0,4.0,4.0,4.0,4.0,4.0,4.0,4.0,4.0,100.0,,,,,,,,,,,,,,,,,,,,,,,,,,,,,,,,,,,,,,,,,,,,,,,,,,,,,,,,,,,,,,,,,,,,,,,,,,,,,,,,,,,,,,,,,,,,,,,,,,,,,,,,,,,,,,,,,,,,,,,,,,,,,,,,,,,
1725717326.295711,1725717326.296778,107.0,0.0,4310.769043,4305.769043,4302.692383,4281.410156,4246.410156,4231.666504,4186.282227,4260.897461,4255.128418,4249.871582,4522.307617,4545.128418,4381.025879,4448.205078,0.0,0.0,11.0,,,,0.0,4.0,4.0,4.0,4.0,4.0,4.0,4.0,4.0,4.0,4.0,4.0,4.0,4.0,4.0,100.0,,,,,,,,,,,,,,,,,,,,,,,,,,,,,,,,,,,,,,,,,,,,,,,,,,,,,,,,,,,,,,,,,,,,,,,,,,,,,,,,,,,,,,,,,,,,,,,,,,,,,,,,,,,,,,,,,,,,,,,,,,,,,,,,,,,
1725717326.299615,1725717326.300683,108.0,0.0,4308.846191,4305.512695,4302.436035,4280.0,4244.230957,4231.922852,4185.512695,4260.0,4249.487305,4247.179688,4516.922852,4544.871582,4382.563965,4449.102539,0.0,0.0,11.0,,,,0.0,4.0,4.0,4.0,4.0,4.0,4.0,4.0,4.0,4.0,4.0,4.0,4.0,4.0,4.0,100.0,,,,,,,,,,,,,,,,,,,,,,,,,,,,,,,,,,,,,,,,,,,,,,,,,,,,,,,,0.0,0.0,1.0,0.0,1.0,0.0,,,,,,,,,,,,,,,,,,,,,,,,,,,,,,,,,,,,,,,,,,,,,,,,,,,,,,,,,,,,,,,,,,,,,,
1725717326.303519,1725717326.304687,109.0,0.0,4307.94873,4306.153809,4305.512695,4280.897461,4242.563965,4233.077148,4186.538574,4263.846191,4247.436035,4246.922852,4514.358887,4550.256348,4384.358887,4451.153809,0.0,0.0,11.0,,,,0.0,4.0,4.0,4.0,4.0,4.0,4.0,4.0,4.0,4.0,4.0,4.0,4.0,4.0,4.0,100.0,,,,,,,,,,,,,,,,,,,,,,,,,,,,,,,,,,,,,,,,,,,,,,,,,,,,,,,,,,,,,,,,,,,,,,,,,,,,,,,,,,,,,,,,,,,,,,,,,,,,,,,,,,,,,,,,,,,,,,,,,,,,,,,,,,,
1725717326.307423,1725717326.308591,110.0,0.0,4308.717773,4306.410156,4310.384766,4283.333496,4242.307617,4233.846191,4187.820313,4270.897461,4248.974121,4248.205078,4516.282227,4557.692383,4385.0,4453.077148,0.0,0.0,11.0,,,,0.0,4.0,4.0,4.0,4.0,4.0,4.0,4.0,4.0,4.0,4.0,4.0,4.0,4.0,4.0,100.0,,,,,,,,,,,,,,,,,,,,,,,,,,,,,,,,,,,,,,,,,,,,,,,,,,,,,,,,,,,,,,,,,,,,,,,,,,,,,,,,,,,,,,,,,,,,,,,,,,,,,,,,,,,,,,,,,,,,,,,,,,,,,,,,,,,
1725717326.311327,1725717326.312495,111.0,0.0,4310.384766,4304.871582,4313.077148,4285.641113,4243.333496,4233.717773,4186.666504,4276.538574,4251.794922,4248.846191,4519.871582,4561.922852,4383.461426,4452.820313,0.0,0.0,11.0,,,,0.0,4.0,4.0,4.0,4.0,4.0,4.0,4.0,4.0,4.0,4.0,4.0,4.0,4.0,4.0,100.0,,,,,,,,,,,,,,,,,,,,,,,,,,,,,,,,,,,,,,,,,,,,,,,,,,,,,,,,,,,,,,,,,,,,,,,,,,,,,,,,,,,,,,,,,,,,,,,,,,,,,,,,,,,,,,,,,,,,,,,,,,,,,,,,,,,
1725717326.315231,1725717326.316399,112.0,0.0,4311.666504,4302.307617,4311.282227,4286.153809,4244.871582,4233.077148,4181.794922,4277.05127,4253.717773,4247.179688,4520.897461,4559.358887,4379.615234,4450.384766,0.0,0.0,11.0,,,,0.0,4.0,4.0,4.0,4.0,4.0,4.0,4.0,4.0,4.0,4.0,4.0,4.0,4.0,4.0,100.0,,,,,,,,,,,,,,,,,,,,,,,,,,,,,,,,,,,,,,,,,,,,,,,,,,,,,,,,,,,,,,,,,,,,,,,,,,,,,,,,,,,,,,,,,,,,,,,,,,,,,,,,,,,,,,,,,,,,,,,,,,,,,,,,,,,
1725717326.319136,1725717326.320403,113.0,0.0,4311.538574,4300.256348,4305.512695,4284.615234,4245.769043,4232.436035,4174.871582,4272.820313,4253.717773,4243.589844,4517.307617,4551.794922,4375.384766,4446.666504,0.0,0.0,11.0,,,,0.0,4.0,4.0,4.0,4.0,4.0,4.0,4.0,4.0,4.0,4.0,4.0,4.0,4.0,4.0,100.0,,,,,,,,,,,,,,,,,,,,,,,,,,,,,,,,,,,,,,,,,,,,,,,,,,,,,,,,,,,,,,,,,,,,,,,,,,,,,,,,,,,,,,,,,,,,,,,,,,,,,,,,,,,,,,,,,,,,,,,,,,,,,,,,,,,
1725717326.32304,1725717326.324307,114.0,0.0,4309.743652,4299.615234,4298.846191,4282.94873,4245.897461,4232.307617,4168.974121,4267.307617,4251.922852,4238.974121,4510.641113,4544.487305,4372.692383,4443.333496,0.0,0.0,11.0,,,,0.0,4.0,4.0,4.0,4.0,4.0,4.0,4.0,4.0,4.0,4.0,4.0,4.0,4.0,4.0,100.0,,,,,,,,,,,,,,,,,,,,,,,,,,,,,,,,,,,,,,,,,,,,,,,,,,,,,,,,,,,,,,,,,,,,,,,,,,,,,,,,,,,,,,,,,,,,,,,,,,,,,,,,,,,,,,,,,,,,,,,,,,,,,,,,,,,
1725717326.326944,1725717326.328211,115.0,0.0,4307.179688,4300.256348,4295.384766,4282.820313,4245.769043,4232.563965,4166.282227,4263.846191,4249.615234,4234.487305,4504.102539,4541.538574,4372.307617,4441.922852,0.0,0.0,11.0,,,,0.0,4.0,4.0,4.0,4.0,4.0,4.0,4.0,4.0,4.0,4.0,4.0,4.0,4.0,4.0,100.0,,,,,,,,,,,,,,,,,,,,,,,,,,,,,,,,,,,,,,,,,,,,,,,,,,,,,,,,,,,,,,,,,,,,,,,,,,,,,,,,,,,,,,,,,,,,,,,,,,,,,,,,,,,,,,,,,,,,,,,,,,,,,,,,,,,
1725717326.330848,1725717326.332115,116.0,0.0,4305.641113,4301.538574,4296.410156,4284.871582,4246.410156,4232.94873,4166.666504,4262.563965,4247.692383,4231.410156,4500.512695,4543.333496,4373.077148,4442.307617,0.0,0.0,11.0,,,,0.0,4.0,4.0,4.0,4.0,4.0,4.0,4.0,4.0,4.0,4.0,4.0,4.0,4.0,4.0,100.0,,,,,,,,,,,,,,,,,1.0,0.0,0.0,,,,,,,,,,,,,,,,,,,,,,,,,,,,,,,,,,,,,0.0,0.0,1.0,0.0,2048.0,0.0,2.032012,0.713045,1.049644,0.488037,0.065265,1.59321,0.696872,0.858668,0.423967,0.057507,1.733566,0.553089,1.137583,0.344038,0.072609,0.630924,0.395636,0.710365,0.225001,0.112894,0.625647,0.68992,0.298448,0.196386,0.074999,0.525411,0.317718,0.284274,0.056314,0.046906,0.575884,0.258129,0.231789,0.112555,0.058,1.259989,2.203878,1.051989,0.390305,0.208189,1.575147,0.868589,0.746405,0.308867,0.103539,2.661471,0.897635,1.797527,0.395559,0.237257,3.333363,1.245917,2.22663,0.624231,0.391216,4.617836,1.444831,1.685719,0.709213,0.195587,4.436488,1.378955,1.430271,0.767525,0.257566,3.523611,0.606667,1.187747,0.449035,0.133199
1725717326.334752,1725717326.335919,117.0,0.0,4306.410156,4302.94873,4300.256348,4287.563965,4247.179688,4233.717773,4168.077148,4261.666504,4247.179688,4231.538574,4500.512695,4546.538574,4373.717773,4443.974121,0.0,0.0,11.0,,,,0.0,4.0,4.0,4.0,4.0,4.0,4.0,4.0,4.0,4.0,4.0,4.0,4.0,4.0,4.0,100.0,,,,,,,,,,,,,,,,,,,,,,,,,,,,,,,,,,,,,,,,,,,,,,,,,,,,,,,,,,,,,,,,,,,,,,,,,,,,,,,,,,,,,,,,,,,,,,,,,,,,,,,,,,,,,,,,,,,,,,,,,,,,,,,,,,,
1725717326.338656,1725717326.339824,118.0,0.0,4308.846191,4303.974121,4303.461426,4288.589844,4247.05127,4234.487305,4168.205078,4259.102539,4247.820313,4235.512695,4503.333496,4547.820313,4373.974121,4445.641113,0.0,0.0,11.0,,,,0.0,4.0,4.0,4.0,4.0,4.0,4.0,4.0,4.0,4.0,4.0,4.0,4.0,4.0,4.0,100.0,,,,,,,,,,,,,,,,,,,,,,,,,,,,,,,,,,,,,,,,,,,,,,,,,,,,,,,,,,,,,,,,,,,,,,,,,,,,,,,,,,,,,,,,,,,,,,,,,,,,,,,,,,,,,,,,,,,,,,,,,,,,,,,,,,,
1725717326.34256,1725717326.343728,119.0,0.0,4311.666504,4305.0,4303.589844,4287.05127,4245.384766,4235.0,4166.794922,4255.384766,4248.974121,4241.666504,4506.922852,4545.641113,4374.487305,4446.666504,0.0,0.0,11.0,,,,0.0,4.0,4.0,4.0,4.0,4.0,4.0,4.0,4.0,4.0,4.0,4.0,4.0,4.0,4.0,100.0,,,,,,,,,,,,,,,,,,,,,,,,,,,,,,,,,,,,,,,,,,,,,,,,,,,,,,,,,,,,,,,,,,,,,,,,,,,,,,,,,,,,,,,,,,,,,,,,,,,,,,,,,,,,,,,,,,,,,,,,,,,,,,,,,,,
1725717326.346464,1725717326.347632,120.0,0.0,4313.077148,4306.666504,4300.641113,4283.717773,4243.077148,4234.615234,4165.384766,4252.436035,4249.487305,4246.922852,4510.128418,4541.410156,4375.769043,4446.666504,0.0,0.0,11.0,,,,0.0,4.0,4.0,4.0,4.0,4.0,4.0,4.0,4.0,4.0,4.0,4.0,4.0,4.0,4.0,100.0,,,,,,,,,,,,,,,,,,,,,,,,,,,,,,,,,,,,,,,,,,,,,,,,,,,,,,,,,,,,,,,,,,,,,,,,,,,,,,,,,,,,,,,,,,,,,,,,,,,,,,,,,,,,,,,,,,,,,,,,,,,,,,,,,,,
1725717326.350368,1725717326.351536,121.0,0.0,4311.666504,4308.974121,4296.922852,4280.256348,4241.794922,4233.461426,4165.256348,4252.05127,4248.974121,4248.461426,4512.179688,4537.307617,4377.179688,4445.512695,0.0,0.0,11.0,,,,0.0,4.0,4.0,4.0,4.0,4.0,4.0,4.0,4.0,4.0,4.0,4.0,4.0,4.0,4.0,100.0,,,,,,,,,,,,,,,,,,,,,,,,,,,,,,,,,,,,,,,,,,,,,,,,,,,,,,,,,,,,,,,,,,,,,,,,,,,,,,,,,,,,,,,,,,,,,,,,,,,,,,,,,,,,,,,,,,,,,,,,,,,,,,,,,,,
1725717326.354272,1725717326.35534,122.0,0.0,4307.94873,4310.769043,4294.615234,4278.333496,4242.436035,4232.05127,4166.794922,4254.102539,4247.307617,4245.512695,4512.563965,4534.871582,4377.05127,4443.846191,0.0,0.0,11.0,,,,0.0,4.0,4.0,4.0,4.0,4.0,4.0,4.0,4.0,4.0,4.0,4.0,4.0,4.0,4.0,100.0,,,,,,,,,,,,,,,,,,,,,,,,,,,,,,,,,,,,,,,,,,,,,,,,,,,,,,,,,,,,,,,,,,,,,,,,,,,,,,,,,,,,,,,,,,,,,,,,,,,,,,,,,,,,,,,,,,,,,,,,,,,,,,,,,,,
1725717326.358176,1725717326.359244,123.0,0.0,4302.692383,4310.384766,4294.615234,4278.846191,4243.846191,4231.153809,4168.205078,4256.922852,4245.0,4240.0,4510.512695,4533.717773,4375.128418,4442.307617,0.0,0.0,11.0,,,,0.0,4.0,4.0,4.0,4.0,4.0,4.0,4.0,4.0,4.0,4.0,4.0,4.0,4.0,4.0,100.0,,,,,,,,,,,,,,,,,,,,,,,,,,,,,,,,,,,,,,,,,,,,,,,,,,,,,,,,,,,,,,,,,,,,,,,,,,,,,,,,,,,,,,,,,,,,,,,,,,,,,,,,,,,,,,,,,,,,,,,,,,,,,,,,,,,
1725717326.36208,1725717326.363148,124.0,0.0,4297.820313,4307.05127,4295.384766,4280.769043,4244.358887,4231.282227,4167.820313,4257.94873,4243.077148,4234.871582,4506.153809,4532.436035,4372.820313,4441.538574,0.0,0.0,11.0,,,,0.0,4.0,4.0,4.0,4.0,4.0,4.0,4.0,4.0,4.0,4.0,4.0,4.0,4.0,4.0,100.0,,,,,,,,,,,,,,,,,,,,,,,,,,,,,,,,,,,,,,,,,,,,,,,,,,,,,,,,0.0,0.0,1.0,0.0,2048.0,0.0,,,,,,,,,,,,,,,,,,,,,,,,,,,,,,,,,,,,,,,,,,,,,,,,,,,,,,,,,,,,,,,,,,,,,,
1725717326.365985,1725717326.366952,125.0,0.0,4294.615234,4301.794922,4295.769043,4282.692383,4243.077148,4232.179688,4165.128418,4256.538574,4242.820313,4232.436035,4501.666504,4530.384766,4372.05127,4441.538574,0.0,0.0,11.0,,,,0.0,4.0,4.0,4.0,4.0,4.0,4.0,4.0,4.0,4.0,4.0,4.0,4.0,4.0,4.0,100.0,,,,,,,,,,,,,,,,,,,,,,,,,,,,,,,,,,,,,,,,,,,,,,,,,,,,,,,,,,,,,,,,,,,,,,,,,,,,,,,,,,,,,,,,,,,,,,,,,,,,,,,,,,,,,,,,,,,,,,,,,,,,,,,,,,,
1725717326.369889,1725717326.370857,126.0,0.0,4294.102539,4297.436035,4295.128418,4282.820313,4240.641113,4233.205078,4161.282227,4253.461426,4243.974121,4233.205078,4500.512695,4527.820313,4373.333496,4441.922852,0.0,0.0,11.0,,,,0.0,4.0,4.0,4.0,4.0,4.0,4.0,4.0,4.0,4.0,4.0,4.0,4.0,4.0,4.0,100.0,,,,,,,,,,,,,,,,,,,,,,,,,,,,,,,,,,,,,,,,,,,,,,,,,,,,,,,,,,,,,,,,,,,,,,,,,,,,,,,,,,,,,,,,,,,,,,,,,,,,,,,,,,,,,,,,,,,,,,,,,,,,,,,,,,,
1725717326.373793,1725717326.374761,127.0,0.0,4295.512695,4295.769043,4294.487305,4280.897461,4238.846191,4233.461426,4158.077148,4251.282227,4245.769043,4235.512695,4503.461426,4525.641113,4374.230957,4441.922852,0.0,0.0,11.0,,,,0.0,4.0,4.0,4.0,4.0,4.0,4.0,4.0,4.0,4.0,4.0,4.0,4.0,4.0,4.0,100.0,,,,,,,,,,,,,,,,,,,,,,,,,,,,,,,,,,,,,,,,,,,,,,,,,,,,,,,,,,,,,,,,,,,,,,,,,,,,,,,,,,,,,,,,,,,,,,,,,,,,,,,,,,,,,,,,,,,,,,,,,,,,,,,,,,,
1725717326.377697,1725717326.378665,128.0,0.0,4297.307617,4296.666504,4294.615234,4278.589844,4239.230957,4233.077148,4155.512695,4251.282227,4246.538574,4237.436035,4507.179688,4525.128418,4371.922852,4440.897461,2695.0,0.0,11.0,,,,0.0,4.0,4.0,4.0,4.0,4.0,4.0,4.0,4.0,4.0,4.0,4.0,4.0,4.0,4.0,100.0,,,,,,,,,,,,,,,,,,,,,,,,,,,,,,,,,,,,,,,,,,,,,,,,,,,,,,,,,,,,,,,,,,,,,,,,,,,,,,,,,,,,,,,,,,,,,,,,,,,,,,,,,,,,,,,,,,,,,,,,,,,,,,,,,,,
1725717326.381601,1725717326.382469,129.0,0.0,4298.077148,4298.077148,4295.384766,4278.077148,4241.922852,4232.307617,4152.436035,4252.563965,4245.641113,4237.436035,4506.922852,4526.282227,4365.897461,4438.717773,2580.0,0.0,11.0,,,,0.0,4.0,4.0,4.0,4.0,4.0,4.0,4.0,4.0,4.0,4.0,4.0,4.0,4.0,4.0,100.0,,,,,,,,,,,,,,,,,,,,,,,,,,,,,,,,,,,,,,,,,,,,,,,,,,,,,,,,,,,,,,,,,,,,,,,,,,,,,,,,,,,,,,,,,,,,,,,,,,,,,,,,,,,,,,,,,,,,,,,,,,,,,,,,,,,
1725717326.385505,1725717326.386373,130.0,0.0,4297.436035,4298.333496,4296.282227,4280.512695,4245.128418,4231.666504,4147.820313,4253.717773,4244.102539,4235.769043,4501.666504,4527.307617,4358.589844,4435.641113,2515.0,0.0,11.0,,,,0.0,4.0,4.0,4.0,4.0,4.0,4.0,4.0,4.0,4.0,4.0,4.0,4.0,4.0,4.0,100.0,,,,,,,,,,,,,,,,,,,,,,,,,,,,,,,,,,,,,,,,,,,,,,,,,,,,,,,,,,,,,,,,,,,,,,,,,,,,,,,,,,,,,,,,,,,,,,,,,,,,,,,,,,,,,,,,,,,,,,,,,,,,,,,,,,,
1725717326.389409,1725717326.390277,131.0,0.0,4295.897461,4297.692383,4296.282227,4285.256348,4247.05127,4231.538574,4141.666504,4254.615234,4243.077148,4233.589844,4495.641113,4526.538574,4354.358887,4432.94873,2471.0,0.0,11.0,,,,0.0,4.0,4.0,4.0,4.0,4.0,4.0,4.0,4.0,4.0,4.0,4.0,4.0,4.0,4.0,100.0,,,,,,,,,,,,,,,,,,,,,,,,,,,,,,,,,,,,,,,,,,,,,,,,,,,,,,,,,,,,,,,,,,,,,,,,,,,,,,,,,,,,,,,,,,,,,,,,,,,,,,,,,,,,,,,,,,,,,,,,,,,,,,,,,,,
1725717326.393313,1725717326.394281,132.0,0.0,4294.615234,4297.307617,4295.512695,4290.0,4247.05127,4231.666504,4135.512695,4255.897461,4243.589844,4232.563965,4494.102539,4524.102539,4355.769043,4432.307617,2441.0,0.0,11.0,,,,0.0,4.0,4.0,4.0,4.0,4.0,4.0,4.0,4.0,4.0,4.0,4.0,4.0,4.0,4.0,100.0,,,,,,,,,,,,,,,,,,,,,,,,,,,,,,,,,,,,,,,,,,,,,,,,,,,,,,,,0.0,0.0,1.0,0.0,2048.0,0.0,,,,,,,,,,,,,,,,,,,,,,,,,,,,,,,,,,,,,,,,,,,,,,,,,,,,,,,,,,,,,,,,,,,,,,
1725717326.397217,1725717326.398185,133.0,0.0,4294.487305,4298.589844,4295.0,4292.563965,4245.897461,4231.794922,4130.384766,4257.820313,4245.384766,4232.692383,4498.589844,4522.307617,4361.794922,4434.487305,2394.0,0.0,11.0,,,,0.0,4.0,4.0,4.0,4.0,4.0,4.0,4.0,4.0,4.0,4.0,4.0,4.0,4.0,4.0,100.0,,,,,,,,,,,,,,,,,,,,,,,,,,,,,,,,,,,,,,,,,,,,,,,,,,,,,,,,,,,,,,,,,,,,,,,,,,,,,,,,,,,,,,,,,,,,,,,,,,,,,,,,,,,,,,,,,,,,,,,,,,,,,,,,,,,
1725717326.401122,1725717326.402089,134.0,0.0,4295.641113,4301.410156,4294.871582,4291.410156,4245.0,4231.666504,4126.282227,4259.358887,4246.922852,4233.333496,4505.0,4523.205078,4368.461426,4438.589844,2441.0,0.0,11.0,,,,0.0,4.0,4.0,4.0,4.0,4.0,4.0,4.0,4.0,4.0,4.0,4.0,4.0,4.0,4.0,100.0,,,,,,,,,,,,,,,,,,,,,,,,,,,,,,,,,,,,,,,,,,,,,,,,,,,,,,,,,,,,,,,,,,,,,,,,,,,,,,,,,,,,,,,,,,,,,,,,,,,,,,,,,,,,,,,,,,,,,,,,,,,,,,,,,,,
1725717326.405026,1725717326.406093,135.0,0.0,4297.179688,4304.743652,4294.871582,4286.666504,4245.128418,4231.410156,4122.436035,4260.0,4247.179688,4234.230957,4507.307617,4526.538574,4371.922852,4442.05127,2486.0,0.0,11.0,,,,0.0,4.0,4.0,4.0,4.0,4.0,4.0,4.0,4.0,4.0,4.0,4.0,4.0,4.0,4.0,100.0,,,,,,,,,,,,,,,,,,,,,,,,,,,,,,,,,,,,,,,,,,,,,,,,,,,,,,,,,,,,,,,,,,,,,,,,,,,,,,,,,,,,,,,,,,,,,,,,,,,,,,,,,,,,,,,,,,,,,,,,,,,,,,,,,,,
1725717326.40893,1725717326.409998,136.0,0.0,4298.205078,4307.692383,4295.0,4281.153809,4246.025879,4231.153809,4117.563965,4260.512695,4246.410156,4235.128418,4502.94873,4530.512695,4371.282227,4441.922852,2468.0,0.0,11.0,,,,0.0,4.0,4.0,4.0,4.0,4.0,4.0,4.0,4.0,4.0,4.0,4.0,4.0,4.0,4.0,100.0,,,,,,,,,,,,,,,,,,,,,,,,,,,,,,,,,,,,,,,,,,,,,,,,,,,,,,,,,,,,,,,,,,,,,,,,,,,,,,,,,,,,,,,,,,,,,,,,,,,,,,,,,,,,,,,,,,,,,,,,,,,,,,,,,,,
1725717326.412834,1725717326.413902,137.0,0.0,4297.692383,4309.358887,4294.871582,4278.205078,4247.05127,4231.153809,4111.666504,4262.692383,4245.641113,4235.512695,4494.871582,4533.077148,4368.333496,4438.205078,2561.0,0.0,11.0,,,,0.0,4.0,4.0,4.0,4.0,4.0,4.0,4.0,4.0,4.0,4.0,4.0,4.0,4.0,4.0,100.0,,,,,,,,,,,,,,,,,,,,,,,,,,,,,,,,,,,,,,,,,,,,,,,,,,,,,,,,,,,,,,,,,,,,,,,,,,,,,,,,,,,,,,,,,,,,,,,,,,,,,,,,,,,,,,,,,,,,,,,,,,,,,,,,,,,
1725717326.416738,1725717326.417806,138.0,0.0,4296.025879,4309.230957,4294.615234,4279.487305,4247.436035,4231.282227,4105.512695,4266.410156,4245.769043,4234.615234,4489.230957,4533.461426,4365.256348,4432.94873,2887.0,0.0,11.0,,,,0.0,4.0,4.0,4.0,4.0,4.0,4.0,4.0,4.0,4.0,4.0,4.0,4.0,4.0,4.0,100.0,,,,,,,,,,,,,,,,,,,,,,,,,,,,,,,,,,,,,,,,,,,,,,,,,,,,,,,,,,,,,,,,,,,,,,,,,,,,,,,,,,,,,,,,,,,,,,,,,,,,,,,,,,,,,,,,,,,,,,,,,,,,,,,,,,,
1725717326.420642,1725717326.42171,139.0,0.0,4295.0,4307.820313,4294.358887,4283.717773,4247.692383,4231.282227,4100.512695,4269.102539,4246.282227,4231.922852,4490.641113,4531.666504,4362.692383,4429.358887,3119.0,0.0,11.0,,,,0.0,4.0,4.0,4.0,4.0,4.0,4.0,4.0,4.0,4.0,4.0,4.0,4.0,4.0,4.0,100.0,,,,,,,,,,,,,,,,,,,,,,,,,,,,,,,,,,,,,,,,,,,,,,,,,,,,,,,,,,,,,,,,,,,,,,,,,,,,,,,,,,,,,,,,,,,,,,,,,,,,,,,,,,,,,,,,,,,,,,,,,,,,,,,,,,,
1725717326.424546,1725717326.425614,140.0,0.0,4296.922852,4305.256348,4294.487305,4288.077148,4248.333496,4231.282227,4097.563965,4268.077148,4246.410156,4229.102539,4498.077148,4528.846191,4360.0,4429.487305,3435.0,0.0,11.0,,,,0.0,4.0,4.0,4.0,4.0,4.0,4.0,4.0,4.0,4.0,4.0,4.0,4.0,4.0,4.0,100.0,,,,,,,,,,,,,,,,,,,,,,,,,,,,,,,,,,,,,,,,,,,,,,,,,,,,,,,,0.0,0.0,1.0,0.0,2048.0,0.0,,,,,,,,,,,,,,,,,,,,,,,,,,,,,,,,,,,,,,,,,,,,,,,,,,,,,,,,,,,,,,,,,,,,,,
1725717326.42845,1725717326.429518,141.0,0.0,4301.922852,4302.307617,4294.871582,4290.128418,4249.615234,4231.282227,4096.538574,4262.563965,4244.871582,4228.333496,4505.384766,4526.410156,4356.922852,4432.307617,3851.0,0.0,11.0,,,,0.0,4.0,4.0,4.0,4.0,4.0,4.0,4.0,4.0,4.0,4.0,4.0,4.0,4.0,4.0,100.0,,,,,,,,,,,,,,,,,,,,,,,,,,,,,,,,,,,,,,,,,,,,,,,,,,,,,,,,,,,,,,,,,,,,,,,,,,,,,,,,,,,,,,,,,,,,,,,,,,,,,,,,,,,,,,,,,,,,,,,,,,,,,,,,,,,
1725717326.432354,1725717326.433422,142.0,0.0,4307.436035,4299.487305,4295.256348,4289.615234,4251.025879,4231.282227,4096.025879,4255.0,4241.538574,4230.641113,4506.666504,4525.0,4354.487305,4434.743652,2887.0,0.0,11.0,,,,0.0,4.0,4.0,4.0,4.0,4.0,4.0,4.0,4.0,4.0,4.0,4.0,4.0,4.0,4.0,100.0,,,,,,,,,,,,,,,,,,,,,,,,,,,,,,,,,,,,,,,,,,,,,,,,,,,,,,,,,,,,,,,,,,,,,,,,,,,,,,,,,,,,,,,,,,,,,,,,,,,,,,,,,,,,,,,,,,,,,,,,,,,,,,,,,,,
1725717326.436258,1725717326.437326,143.0,0.0,4309.615234,4297.436035,4295.128418,4287.94873,4251.538574,4231.538574,4093.718018,4248.974121,4237.307617,4234.102539,4501.025879,4523.974121,4354.230957,4434.615234,3119.0,0.0,11.0,,,,0.0,4.0,4.0,4.0,4.0,4.0,4.0,4.0,4.0,4.0,4.0,4.0,4.0,4.0,4.0,100.0,,,,,,,,,,,,,,,,,,,,,,,,,,,,,,,,,,,,,,,,,,,,,,,,,,,,,,,,,,,,,,,,,,,,,,,,,,,,,,,,,,,,,,,,,,,,,,,,,,,,,,,,,,,,,,,,,,,,,,,,,,,,,,,,,,,
1725717326.440163,1725717326.44133,144.0,0.0,4307.05127,4296.922852,4294.102539,4286.794922,4251.153809,4231.538574,4089.102539,4246.410156,4233.717773,4235.897461,4493.333496,4522.692383,4356.025879,4431.538574,3435.0,0.0,11.0,,,,0.0,4.0,4.0,4.0,4.0,4.0,4.0,4.0,4.0,4.0,4.0,4.0,4.0,4.0,4.0,100.0,,,,,,,,,,,,,,,,,,,,,,,,,,,,,,,,,,,,,,,,,,,,,,,,,,,,,,,,,,,,,,,,,,,,,,,,,,,,,,,,,,,,,,,,,,,,,,,,,,,,,,,,,,,,,,,,,,,,,,,,,,,,,,,,,,,
1725717326.444067,1725717326.445234,145.0,0.0,4301.666504,4297.307617,4292.94873,4287.05127,4250.641113,4231.666504,4082.692383,4246.922852,4232.05127,4234.615234,4489.743652,4521.538574,4358.717773,4427.820313,3851.0,0.0,11.0,,,,0.0,4.0,4.0,4.0,4.0,4.0,4.0,4.0,4.0,4.0,4.0,4.0,4.0,4.0,4.0,100.0,,,,,,,,,,,,,,,,,,,,,,,,,,,,,,,,,,,,,,,,,,,,,,,,,,,,,,,,,,,,,,,,,,,,,,,,,,,,,,,,,,,,,,,,,,,,,,,,,,,,,,,,,,,,,,,,,,,,,,,,,,,,,,,,,,,
1725717326.447971,1725717326.449138,146.0,0.0,4297.307617,4297.820313,4292.563965,4288.205078,4250.641113,4231.538574,4076.538574,4248.717773,4232.563965,4231.153809,4491.794922,4521.025879,4360.512695,4426.282227,2887.0,0.0,11.0,,,,0.0,4.0,4.0,4.0,4.0,4.0,4.0,4.0,4.0,4.0,4.0,4.0,4.0,4.0,4.0,100.0,,,,,,,,,,,,,,,,,,,,,,,,,,,,,,,,,,,,,,,,,,,,,,,,,,,,,,,,,,,,,,,,,,,,,,,,,,,,,,,,,,,,,,,,,,,,,,,,,,,,,,,,,,,,,,,,,,,,,,,,,,,,,,,,,,,
1725717326.451875,1725717326.453043,147.0,0.0,4296.282227,4297.563965,4292.94873,4289.358887,4251.282227,4230.897461,4071.410156,4249.487305,4234.230957,4227.820313,4495.897461,4521.922852,4360.641113,4427.436035,3119.0,0.0,11.0,,,,0.0,4.0,4.0,4.0,4.0,4.0,4.0,4.0,4.0,4.0,4.0,4.0,4.0,4.0,4.0,100.0,,,,,,,,,,,,,,,,,,,,,,,,,,,,,,,,,,,,,,,,,,,,,,,,,,,,,,,,,,,,,,,,,,,,,,,,,,,,,,,,,,,,,,,,,,,,,,,,,,,,,,,,,,,,,,,,,,,,,,,,,,,,,,,,,,,
1725717326.455779,1725717326.456847,148.0,0.0,4297.820313,4296.794922,4293.589844,4289.743652,4252.179688,4229.871582,4067.435791,4248.589844,4235.641113,4227.05127,4498.333496,4523.461426,4359.487305,4429.615234,3435.0,0.0,11.0,,,,0.0,4.0,4.0,4.0,4.0,4.0,4.0,4.0,4.0,4.0,4.0,4.0,4.0,4.0,4.0,100.0,,,,,,,,,,,,,,,,,1.0,0.0,0.0,,,,,,,,,,,,,,,,,,,,,,,,,,,,,,,,,,,,,0.0,0.0,1.0,0.0,2048.0,0.0,1.984101,0.804135,1.072308,0.487047,0.067502,1.424665,0.777706,0.869594,0.427715,0.06218,1.746405,0.549524,1.133044,0.344255,0.080517,0.545657,0.358004,0.695823,0.202097,0.101384,0.571416,0.688859,0.312751,0.199838,0.077084,0.555341,0.34781,0.29325,0.054468,0.045694,0.705162,0.267044,0.241919,0.140158,0.060443,1.135067,1.826921,1.02047,0.405361,0.191959,1.409368,0.798176,0.698452,0.296121,0.099601,2.555373,0.862391,1.747185,0.402079,0.25795,3.235022,1.231467,2.197972,0.641087,0.396017,4.886947,1.5269,1.640294,0.710256,0.199871,4.401063,1.372439,1.424298,0.757869,0.25364,3.680731,0.658845,1.168628,0.452757,0.117891
1725717326.459683,1725717326.460751,149.0,0.0,4299.743652,4296.794922,4294.102539,4289.358887,4252.820313,4229.743652,4063.974365,4246.794922,4235.897461,4228.846191,4499.871582,4524.358887,4358.333496,4430.256348,3851.0,0.0,11.0,,,,0.0,4.0,4.0,4.0,4.0,4.0,4.0,4.0,4.0,4.0,4.0,4.0,4.0,4.0,4.0,100.0,,,,,,,,,,,,,,,,,,,,,,,,,,,,,,,,,,,,,,,,,,,,,,,,,,,,,,,,,,,,,,,,,,,,,,,,,,,,,,,,,,,,,,,,,,,,,,,,,,,,,,,,,,,,,,,,,,,,,,,,,,,,,,,,,,,
1725717326.463587,1725717326.464655,150.0,0.0,4299.871582,4298.717773,4294.487305,4288.333496,4252.563965,4231.025879,4060.769287,4245.641113,4234.743652,4231.922852,4502.94873,4523.717773,4358.333496,4429.102539,2887.0,0.0,11.0,,,,0.0,4.0,4.0,4.0,4.0,4.0,4.0,4.0,4.0,4.0,4.0,4.0,4.0,4.0,4.0,100.0,,,,,,,,,,,,,,,,,,,,,,,,,,,,,,,,,,,,,,,,,,,,,,,,,,,,,,,,,,,,,,,,,,,,,,,,,,,,,,,,,,,,,,,,,,,,,,,,,,,,,,,,,,,,,,,,,,,,,,,,,,,,,,,,,,,
1725717326.467491,1725717326.468559,151.0,0.0,4298.717773,4302.05127,4294.871582,4287.179688,4251.794922,4232.692383,4057.435791,4245.897461,4233.461426,4234.230957,4507.692383,4522.563965,4359.358887,4427.436035,3119.0,0.0,11.0,,,,0.0,4.0,4.0,4.0,4.0,4.0,4.0,4.0,4.0,4.0,4.0,4.0,4.0,4.0,4.0,100.0,,,,,,,,,,,,,,,,,,,,,,,,,,,,,,,,,,,,,,,,,,,,,,,,,,,,,,,,,,,,,,,,,,,,,,,,,,,,,,,,,,,,,,,,,,,,,,,,,,,,,,,,,,,,,,,,,,,,,,,,,,,,,,,,,,,
1725717326.471395,1725717326.472363,152.0,0.0,4297.94873,4304.743652,4295.512695,4286.410156,4250.769043,4232.563965,4053.461426,4246.922852,4232.692383,4234.615234,4509.230957,4522.563965,4359.871582,4427.05127,3435.0,0.0,11.0,,,,0.0,4.0,4.0,4.0,4.0,4.0,4.0,4.0,4.0,4.0,4.0,4.0,4.0,4.0,4.0,100.0,,,,,,,,,,,,,,,,,,,,,,,,,,,,,,,,,,,,,,,,,,,,,,,,,,,,,,,,,,,,,,,,,,,,,,,,,,,,,,,,,,,,,,,,,,,,,,,,,,,,,,,,,,,,,,,,,,,,,,,,,,,,,,,,,,,
1725717326.475299,1725717326.476267,153.0,0.0,4298.717773,4304.871582,4296.025879,4286.538574,4249.743652,4229.615234,4048.589844,4247.307617,4232.94873,4233.461426,4503.205078,4524.358887,4358.461426,4428.077148,3851.0,0.0,11.0,,,,0.0,4.0,4.0,4.0,4.0,4.0,4.0,4.0,4.0,4.0,4.0,4.0,4.0,4.0,4.0,100.0,,,,,,,,,,,,,,,,,,,,,,,,,,,,,,,,,,,,,,,,,,,,,,,,,,,,,,,,,,,,,,,,,,,,,,,,,,,,,,,,,,,,,,,,,,,,,,,,,,,,,,,,,,,,,,,,,,,,,,,,,,,,,,,,,,,
1725717326.479204,1725717326.480171,154.0,0.0,4300.256348,4301.922852,4295.641113,4287.307617,4249.102539,4224.871582,4043.589844,4246.922852,4234.102539,4232.179688,4490.641113,4526.282227,4355.128418,4429.230957,2887.0,0.0,11.0,,,,0.0,4.0,4.0,4.0,4.0,4.0,4.0,4.0,4.0,4.0,4.0,4.0,4.0,4.0,4.0,100.0,,,,,,,,,,,,,,,,,,,,,,,,,,,,,,,,,,,,,,,,,,,,,,,,,,,,,,,,,,,,,,,,,,,,,,,,,,,,,,,,,,,,,,,,,,,,,,,,,,,,,,,,,,,,,,,,,,,,,,,,,,,,,,,,,,,
1725717326.483108,1725717326.484076,155.0,0.0,4300.641113,4297.307617,4294.487305,4288.333496,4248.589844,4221.025879,4039.487061,4247.179688,4235.384766,4231.538574,4479.358887,4526.538574,4351.153809,4429.230957,3119.0,0.0,11.0,,,,0.0,4.0,4.0,4.0,4.0,4.0,4.0,4.0,4.0,4.0,4.0,4.0,4.0,4.0,4.0,100.0,,,,,,,,,,,,,,,,,,,,,,,,,,,,,,,,,,,,,,,,,,,,,,,,,,,,,,,,,,,,,,,,,,,,,,,,,,,,,,,,,,,,,,,,,,,,,,,,,,,,,,,,,,,,,,,,,,,,,,,,,,,,,,,,,,,
1725717326.487012,1725717326.48788,156.0,0.0,4298.974121,4293.333496,4293.077148,4288.846191,4248.205078,4219.871582,4036.666748,4250.0,4236.282227,4231.410156,4477.05127,4525.128418,4349.102539,4428.205078,3435.0,0.0,11.0,,,,0.0,4.0,4.0,4.0,4.0,4.0,4.0,4.0,4.0,4.0,4.0,4.0,4.0,4.0,4.0,100.0,,,,,,,,,,,,,,,,,,,,,,,,,,,,,,,,,,,,,,,,,,,,,,,,,,,,,,,,0.0,0.0,1.0,0.0,2048.0,0.0,,,,,,,,,,,,,,,,,,,,,,,,,,,,,,,,,,,,,,,,,,,,,,,,,,,,,,,,,,,,,,,,,,,,,,
1725717326.490916,1725717326.491784,157.0,0.0,4296.794922,4291.666504,4292.307617,4287.820313,4247.820313,4221.666504,4034.743652,4255.256348,4236.666504,4231.794922,4485.769043,4524.102539,4350.897461,4427.563965,3851.0,0.0,11.0,,,,0.0,4.0,4.0,4.0,4.0,4.0,4.0,4.0,4.0,4.0,4.0,4.0,4.0,4.0,4.0,100.0,,,,,,,,,,,,,,,,,,,,,,,,,,,,,,,,,,,,,,,,,,,,,,,,,,,,,,,,,,,,,,,,,,,,,,,,,,,,,,,,,,,,,,,,,,,,,,,,,,,,,,,,,,,,,,,,,,,,,,,,,,,,,,,,,,,
1725717326.49482,1725717326.495688,158.0,0.0,4296.538574,4292.307617,4293.077148,4285.384766,4247.179688,4224.871582,4033.333252,4260.641113,4236.538574,4232.307617,4499.871582,4525.897461,4356.282227,4428.461426,2887.0,0.0,11.0,,,,0.0,4.0,4.0,4.0,4.0,4.0,4.0,4.0,4.0,4.0,4.0,4.0,4.0,4.0,4.0,100.0,,,,,,,,,,,,,,,,,,,,,,,,,,,,,,,,,,,,,,,,,,,,,,,,,,,,,,,,,,,,,,,,,,,,,,,,,,,,,,,,,,,,,,,,,,,,,,,,,,,,,,,,,,,,,,,,,,,,,,,,,,,,,,,,,,,
1725717326.498724,1725717326.499692,159.0,0.0,4298.974121,4293.589844,4295.384766,4282.563965,4246.666504,4227.563965,4032.05127,4263.077148,4236.025879,4232.307617,4511.282227,4530.256348,4362.820313,4430.641113,3119.0,0.0,11.0,,,,0.0,4.0,4.0,4.0,4.0,4.0,4.0,4.0,4.0,4.0,4.0,4.0,4.0,4.0,4.0,100.0,,,,,,,,,,,,,,,,,,,,,,,,,,,,,,,,,,,,,,,,,,,,,,,,,,,,,,,,,,,,,,,,,,,,,,,,,,,,,,,,,,,,,,,,,,,,,,,,,,,,,,,,,,,,,,,,,,,,,,,,,,,,,,,,,,,
1725717326.502628,1725717326.503596,160.0,0.0,4302.05127,4294.615234,4297.436035,4280.769043,4246.794922,4228.846191,4031.410156,4260.641113,4235.0,4230.641113,4514.871582,4534.615234,4367.563965,4432.94873,3435.0,0.0,11.0,,,,0.0,4.0,4.0,4.0,4.0,4.0,4.0,4.0,4.0,4.0,4.0,4.0,4.0,4.0,4.0,100.0,,,,,,,,,,,,,,,,,,,,,,,,,,,,,,,,,,,,,,,,,,,,,,,,,,,,,,,,,,,,,,,,,,,,,,,,,,,,,,,,,,,,,,,,,,,,,,,,,,,,,,,,,,,,,,,,,,,,,,,,,,,,,,,,,,,
1725717326.506532,1725717326.5075,161.0,0.0,4303.077148,4294.743652,4297.563965,4280.769043,4246.922852,4228.846191,4031.281982,4254.743652,4233.589844,4226.666504,4511.282227,4535.512695,4368.333496,4433.846191,3851.0,0.0,11.0,,,,0.0,4.0,4.0,4.0,4.0,4.0,4.0,4.0,4.0,4.0,4.0,4.0,4.0,4.0,4.0,100.0,,,,,,,,,,,,,,,,,,,,,,,,,,,,,,,,,,,,,,,,,,,,,,,,,,,,,,,,,,,,,,,,,,,,,,,,,,,,,,,,,,,,,,,,,,,,,,,,,,,,,,,,,,,,,,,,,,,,,,,,,,,,,,,,,,,
1725717326.510436,1725717326.511504,162.0,0.0,4300.769043,4294.358887,4295.512695,4281.922852,4246.410156,4228.974121,4031.025635,4249.230957,4232.436035,4221.153809,4505.0,4532.179688,4365.256348,4432.563965,2887.0,0.0,11.0,,,,0.0,4.0,4.0,4.0,4.0,4.0,4.0,4.0,4.0,4.0,4.0,4.0,4.0,4.0,4.0,100.0,,,,,,,,,,,,,,,,,,,,,,,,,,,,,,,,,,,,,,,,,,,,,,,,,,,,,,,,,,,,,,,,,,,,,,,,,,,,,,,,,,,,,,,,,,,,,,,,,,,,,,,,,,,,,,,,,,,,,,,,,,,,,,,,,,,
1725717326.51434,1725717326.515408,163.0,0.0,4297.307617,4293.461426,4292.436035,4282.436035,4245.128418,4230.0,4029.871826,4247.94873,4232.179688,4217.179688,4500.512695,4526.025879,4360.384766,4429.871582,3119.0,0.0,11.0,,,,0.0,4.0,4.0,4.0,4.0,4.0,4.0,4.0,4.0,4.0,4.0,4.0,4.0,4.0,4.0,100.0,,,,,,,,,,,,,,,,,,,,,,,,,,,,,,,,,,,,,,,,,,,,,,,,,,,,,,,,,,,,,,,,,,,,,,,,,,,,,,,,,,,,,,,,,,,,,,,,,,,,,,,,,,,,,,,,,,,,,,,,,,,,,,,,,,,
1725717326.518244,1725717326.519312,164.0,0.0,4294.615234,4291.153809,4289.743652,4280.512695,4242.820313,4231.538574,4027.307617,4251.666504,4233.077148,4217.820313,4498.846191,4520.641113,4356.666504,4427.179688,3435.0,0.0,11.0,,,,0.0,4.0,4.0,4.0,4.0,4.0,4.0,4.0,4.0,4.0,4.0,4.0,4.0,4.0,4.0,100.0,,,,,,,,,,,,,,,,,,,,,,,,,,,,,,,,,,,,,,,,,,,,,,,,,,,,,,,,0.0,0.0,1.0,0.0,2048.0,0.0,,,,,,,,,,,,,,,,,,,,,,,,,,,,,,,,,,,,,,,,,,,,,,,,,,,,,,,,,,,,,,,,,,,,,,
1725717326.522148,1725717326.523217,165.0,0.0,4294.102539,4287.05127,4288.717773,4277.05127,4240.128418,4232.179688,4023.718018,4256.922852,4234.230957,4223.461426,4498.205078,4518.589844,4355.897461,4425.769043,3851.0,0.0,11.0,,,,0.0,4.0,4.0,4.0,4.0,4.0,4.0,4.0,4.0,4.0,4.0,4.0,4.0,4.0,4.0,100.0,,,,,,,,,,,,,,,,,,,,,,,,,,,,,,,,,,,,,,,,,,,,,,,,,,,,,,,,,,,,,,,,,,,,,,,,,,,,,,,,,,,,,,,,,,,,,,,,,,,,,,,,,,,,,,,,,,,,,,,,,,,,,,,,,,,
1725717326.526053,1725717326.527121,166.0,0.0,4294.871582,4282.563965,4288.974121,4275.0,4238.589844,4231.666504,4020.384521,4259.615234,4234.615234,4231.025879,4495.897461,4519.743652,4357.820313,4425.769043,2887.0,0.0,11.0,,,,0.0,4.0,4.0,4.0,4.0,4.0,4.0,4.0,4.0,4.0,4.0,4.0,4.0,4.0,4.0,100.0,,,,,,,,,,,,,,,,,,,,,,,,,,,,,,,,,,,,,,,,,,,,,,,,,,,,,,,,,,,,,,,,,,,,,,,,,,,,,,,,,,,,,,,,,,,,,,,,,,,,,,,,,,,,,,,,,,,,,,,,,,,,,,,,,,,
1725717326.529957,1725717326.530925,167.0,0.0,4295.769043,4280.256348,4290.128418,4276.538574,4239.230957,4230.512695,4018.333252,4257.94873,4233.846191,4235.769043,4491.794922,4522.436035,4359.871582,4426.410156,3119.0,0.0,11.0,,,,0.0,4.0,4.0,4.0,4.0,4.0,4.0,4.0,4.0,4.0,4.0,4.0,4.0,4.0,4.0,100.0,,,,,,,,,,,,,,,,,,,,,,,,,,,,,,,,,,,,,,,,,,,,,,,,,,,,,,,,,,,,,,,,,,,,,,,,,,,,,,,,,,,,,,,,,,,,,,,,,,,,,,,,,,,,,,,,,,,,,,,,,,,,,,,,,,,
1725717326.533861,1725717326.534829,168.0,0.0,4296.666504,4282.563965,4291.666504,4281.025879,4242.436035,4230.128418,4018.333252,4253.461426,4232.307617,4235.256348,4488.333496,4524.615234,4360.0,4426.922852,3435.0,0.0,11.0,,,,0.0,4.0,4.0,4.0,4.0,4.0,4.0,4.0,4.0,4.0,4.0,4.0,4.0,4.0,4.0,100.0,,,,,,,,,,,,,,,,,,,,,,,,,,,,,,,,,,,,,,,,,,,,,,,,,,,,,,,,,,,,,,,,,,,,,,,,,,,,,,,,,,,,,,,,,,,,,,,,,,,,,,,,,,,,,,,,,,,,,,,,,,,,,,,,,,,
1725717326.537765,1725717326.538733,169.0,0.0,4298.205078,4288.974121,4293.461426,4285.769043,4246.410156,4231.025879,4020.0,4250.0,4231.282227,4231.282227,4487.94873,4525.512695,4357.307617,4427.05127,3851.0,0.0,11.0,,,,0.0,4.0,4.0,4.0,4.0,4.0,4.0,4.0,4.0,4.0,4.0,4.0,4.0,4.0,4.0,100.0,,,,,,,,,,,,,,,,,,,,,,,,,,,,,,,,,,,,,,,,,,,,,,,,,,,,,,,,,,,,,,,,,,,,,,,,,,,,,,,,,,,,,,,,,,,,,,,,,,,,,,,,,,,,,,,,,,,,,,,,,,,,,,,,,,,
1725717326.541669,1725717326.542637,170.0,0.0,4300.897461,4296.666504,4295.384766,4287.692383,4248.974121,4232.436035,4022.435791,4249.487305,4231.538574,4227.692383,4490.641113,4525.256348,4353.077148,4426.922852,2887.0,0.0,11.0,,,,0.0,4.0,4.0,4.0,4.0,4.0,4.0,4.0,4.0,4.0,4.0,4.0,4.0,4.0,4.0,100.0,,,,,,,,,,,,,,,,,,,,,,,,,,,,,,,,,,,,,,,,,,,,,,,,,,,,,,,,,,,,,,,,,,,,,,,,,,,,,,,,,,,,,,,,,,,,,,,,,,,,,,,,,,,,,,,,,,,,,,,,,,,,,,,,,,,
1725717326.545573,1725717326.546441,171.0,0.0,4304.102539,4301.794922,4296.666504,4286.410156,4247.820313,4232.820313,4023.846191,4250.512695,4232.94873,4227.692383,4493.717773,4524.615234,4349.615234,4427.05127,3119.0,0.0,11.0,,,,0.0,4.0,4.0,4.0,4.0,4.0,4.0,4.0,4.0,4.0,4.0,4.0,4.0,4.0,4.0,100.0,,,,,,,,,,,,,,,,,,,,,,,,,,,,,,,,,,,,,,,,,,,,,,,,,,,,,,,,,,,,,,,,,,,,,,,,,,,,,,,,,,,,,,,,,,,,,,,,,,,,,,,,,,,,,,,,,,,,,,,,,,,,,,,,,,,
1725717326.549477,1725717326.550345,172.0,0.0,4306.666504,4302.563965,4297.05127,4283.846191,4243.077148,4231.922852,4023.205078,4250.769043,4234.102539,4231.025879,4494.102539,4523.717773,4348.846191,4427.307617,3435.0,0.0,11.0,,,,0.0,4.0,4.0,4.0,4.0,4.0,4.0,4.0,4.0,4.0,4.0,4.0,4.0,4.0,4.0,100.0,,,,,,,,,,,,,,,,,,,,,,,,,,,,,,,,,,,,,,,,,,,,,,,,,,,,,,,,0.0,0.0,1.0,0.0,2048.0,0.0,,,,,,,,,,,,,,,,,,,,,,,,,,,,,,,,,,,,,,,,,,,,,,,,,,,,,,,,,,,,,,,,,,,,,,
1725717326.553381,1725717326.55425,173.0,0.0,4307.563965,4299.487305,4296.153809,4282.436035,4237.179688,4230.512695,4020.384521,4248.589844,4234.358887,4234.743652,4491.666504,4522.692383,4351.153809,4427.563965,3851.0,0.0,11.0,,,,0.0,4.0,4.0,4.0,4.0,4.0,4.0,4.0,4.0,4.0,4.0,4.0,4.0,4.0,4.0,100.0,,,,,,,,,,,,,,,,,,,,,,,,,,,,,,,,,,,,,,,,,,,,,,,,,,,,,,,,,,,,,,,,,,,,,,,,,,,,,,,,,,,,,,,,,,,,,,,,,,,,,,,,,,,,,,,,,,,,,,,,,,,,,,,,,,,
1725717326.557285,1725717326.558154,174.0,0.0,4306.922852,4295.128418,4294.743652,4283.333496,4233.205078,4229.487305,4016.410156,4245.512695,4233.974121,4236.025879,4488.717773,4521.922852,4355.0,4428.077148,2887.0,0.0,11.0,,,,0.0,4.0,4.0,4.0,4.0,4.0,4.0,4.0,4.0,4.0,4.0,4.0,4.0,4.0,4.0,100.0,,,,,,,,,,,,,,,,,,,,,,,,,,,,,,,,,,,,,,,,,,,,,,,,,,,,,,,,,,,,,,,,,,,,,,,,,,,,,,,,,,,,,,,,,,,,,,,,,,,,,,,,,,,,,,,,,,,,,,,,,,,,,,,,,,,
1725717326.56119,1725717326.561958,175.0,0.0,4305.384766,4292.436035,4293.974121,4285.256348,4232.692383,4228.846191,4012.307617,4244.358887,4234.743652,4234.102539,4488.077148,4521.794922,4358.333496,4428.717773,3119.0,0.0,11.0,,,,0.0,4.0,4.0,4.0,4.0,4.0,4.0,4.0,4.0,4.0,4.0,4.0,4.0,4.0,4.0,100.0,,,,,,,,,,,,,,,,,,,,,,,,,,,,,,,,,,,,,,,,,,,,,,,,,,,,,,,,,,,,,,,,,,,,,,,,,,,,,,,,,,,,,,,,,,,,,,,,,,,,,,,,,,,,,,,,,,,,,,,,,,,,,,,,,,,
1725717326.565094,1725717326.565862,176.0,0.0,4304.230957,4292.179688,4294.615234,4286.538574,4234.487305,4228.461426,4008.846191,4247.05127,4237.436035,4231.282227,4490.897461,4522.820313,4359.743652,4429.358887,3435.0,0.0,11.0,,,,0.0,4.0,4.0,4.0,4.0,4.0,4.0,4.0,4.0,4.0,4.0,4.0,4.0,4.0,4.0,100.0,,,,,,,,,,,,,,,,,,,,,,,,,,,,,,,,,,,,,,,,,,,,,,,,,,,,,,,,,,,,,,,,,,,,,,,,,,,,,,,,,,,,,,,,,,,,,,,,,,,,,,,,,,,,,,,,,,,,,,,,,,,,,,,,,,,
1725717326.568998,1725717326.569766,177.0,0.0,4302.94873,4293.589844,4296.282227,4285.769043,4236.153809,4228.077148,4006.666748,4252.94873,4241.538574,4230.0,4496.153809,4524.230957,4358.846191,4429.487305,3851.0,0.0,11.0,,,,0.0,4.0,4.0,4.0,4.0,4.0,4.0,4.0,4.0,4.0,4.0,4.0,4.0,4.0,4.0,100.0,,,,,,,,,,,,,,,,,,,,,,,,,,,,,,,,,,,,,,,,,,,,,,,,,,,,,,,,,,,,,,,,,,,,,,,,,,,,,,,,,,,,,,,,,,,,,,,,,,,,,,,,,,,,,,,,,,,,,,,,,,,,,,,,,,,
1725717326.572902,1725717326.57367,178.0,0.0,4301.153809,4295.0,4297.94873,4283.333496,4236.538574,4228.077148,4005.769287,4259.487305,4245.256348,4231.410156,4501.410156,4524.871582,4356.538574,4428.846191,2887.0,0.0,11.0,,,,0.0,4.0,4.0,4.0,4.0,4.0,4.0,4.0,4.0,4.0,4.0,4.0,4.0,4.0,4.0,100.0,,,,,,,,,,,,,,,,,,,,,,,,,,,,,,,,,,,,,,,,,,,,,,,,,,,,,,,,,,,,,,,,,,,,,,,,,,,,,,,,,,,,,,,,,,,,,,,,,,,,,,,,,,,,,,,,,,,,,,,,,,,,,,,,,,,
1725717326.576806,1725717326.577474,179.0,0.0,4298.461426,4295.897461,4298.077148,4280.897461,4236.153809,4228.717773,4006.025635,4263.589844,4247.436035,4233.846191,4503.974121,4524.358887,4354.102539,4427.820313,3119.0,0.0,11.0,,,,0.0,4.0,4.0,4.0,4.0,4.0,4.0,4.0,4.0,4.0,4.0,4.0,4.0,4.0,4.0,100.0,,,,,,,,,,,,,,,,,,,,,,,,,,,,,,,,,,,,,,,,,,,,,,,,,,,,,,,,,,,,,,,,,,,,,,,,,,,,,,,,,,,,,,,,,,,,,,,,,,,,,,,,,,,,,,,,,,,,,,,,,,,,,,,,,,,
1725717326.58071,1725717326.581379,180.0,0.0,4296.282227,4296.410156,4297.179688,4280.256348,4236.282227,4230.0,4006.281982,4263.589844,4247.820313,4235.512695,4503.077148,4523.461426,4352.94873,4427.05127,3435.0,0.0,11.0,,,,0.0,4.0,4.0,4.0,4.0,4.0,4.0,4.0,4.0,4.0,4.0,4.0,4.0,4.0,4.0,100.0,1.0,50.0,4.0,4.0,4.0,4.0,4.0,1.0,1.0,4.0,4.0,4.0,4.0,4.0,4.0,4.0,1.0,0.0,0.0,,,,,,,,,,,,,,,,,,,,,,,,,,,,,,,,,,,,,0.0,0.0,1.0,0.0,2048.0,0.0,1.801988,0.905438,1.014829,0.434722,0.071044,1.212337,0.905038,0.811215,0.381565,0.072799,1.633805,0.562164,1.008618,0.31875,0.094516,0.506444,0.350208,0.629221,0.172559,0.08786,0.505409,0.638987,0.312129,0.187701,0.075121,0.537866,0.355063,0.28211,0.05391,0.045678,0.88185,0.276015,0.252254,0.167874,0.061676,0.960323,1.483111,0.960532,0.407753,0.176015,1.163123,0.726112,0.58323,0.275581,0.096384,2.254188,0.828524,1.528669,0.38555,0.281837,2.860803,1.274085,2.019388,0.674776,0.415297,4.721888,1.583557,1.430595,0.674688,0.213901,4.081409,1.361622,1.335006,0.672748,0.246954,3.58137,0.771927,1.052924,0.425809,0.112339
1725717326.584614,1725717326.585283,181.0,0.0,4295.769043,4297.692383,4296.666504,4282.05127,4238.333496,4231.025879,4005.641113,4261.153809,4247.563965,4235.641113,4500.641113,4522.94873,4354.102539,4427.05127,3851.0,0.0,11.0,,,,0.0,4.0,4.0,4.0,4.0,4.0,4.0,4.0,4.0,4.0,4.0,4.0,4.0,4.0,4.0,100.0,,,,,,,,,,,,,,,,,,,,,,,,,,,,,,,,,,,,,,,,,,,,,,,,,,,,,,,,,,,,,,,,,,,,,,,,,,,,,,,,,,,,,,,,,,,,,,,,,,,,,,,,,,,,,,,,,,,,,,,,,,,,,,,,,,,
1725717326.588518,1725717326.589187,182.0,0.0,4297.436035,4299.743652,4297.94873,4286.025879,4242.436035,4231.410156,4003.974365,4258.974121,4247.179688,4235.0,4500.0,4523.333496,4357.05127,4427.94873,2887.0,0.0,11.0,,,,0.0,4.0,4.0,4.0,4.0,4.0,4.0,4.0,4.0,4.0,4.0,4.0,4.0,4.0,4.0,100.0,,,,,,,,,,,,,,,,,,,,,,,,,,,,,,,,,,,,,,,,,,,,,,,,,,,,,,,,,,,,,,,,,,,,,,,,,,,,,,,,,,,,,,,,,,,,,,,,,,,,,,,,,,,,,,,,,,,,,,,,,,,,,,,,,,,
1725717326.592422,1725717326.592991,183.0,0.0,4300.256348,4301.922852,4301.282227,4290.897461,4246.666504,4231.538574,4002.179443,4258.077148,4246.410156,4234.487305,4502.563965,4524.102539,4360.512695,4429.615234,3119.0,0.0,11.0,,,,0.0,4.0,4.0,4.0,4.0,4.0,4.0,4.0,4.0,4.0,4.0,4.0,4.0,4.0,4.0,100.0,,,,,,,,,,,,,,,,,,,,,,,,,,,,,,,,,,,,,,,,,,,,,,,,,,,,,,,,,,,,,,,,,,,,,,,,,,,,,,,,,,,,,,,,,,,,,,,,,,,,,,,,,,,,,,,,,,,,,,,,,,,,,,,,,,,
1725717326.596326,1725717326.596895,184.0,0.0,4303.205078,4303.589844,4305.0,4295.256348,4249.230957,4232.436035,4001.025635,4258.205078,4244.102539,4233.846191,4506.282227,4524.615234,4362.307617,4431.153809,3435.0,0.0,11.0,,,,0.0,4.0,4.0,4.0,4.0,4.0,4.0,4.0,4.0,4.0,4.0,4.0,4.0,4.0,4.0,100.0,,,,,,,,,,,,,,,,,,,,,,,,,,,,,,,,,,,,,,,,,,,,,,,,,,,,,,,,,,,,,,,,,,,,,,,,,,,,,,,,,,,,,,,,,,,,,,,,,,,,,,,,,,,,,,,,,,,,,,,,,,,,,,,,,,,
1725717326.600231,1725717326.600799,185.0,0.0,4305.256348,4304.871582,4307.692383,4298.077148,4248.974121,4234.743652,4001.153809,4258.077148,4239.615234,4233.077148,4507.692383,4524.743652,4361.922852,4432.05127,3851.0,0.0,11.0,,,,0.0,4.0,4.0,4.0,4.0,4.0,4.0,4.0,4.0,4.0,4.0,4.0,4.0,4.0,4.0,100.0,,,,,,,,,,,,,,,,,,,,,,,,,,,,,,,,,,,,,,,,,,,,,,,,,,,,,,,,,,,,,,,,,,,,,,,,,,,,,,,,,,,,,,,,,,,,,,,,,,,,,,,,,,,,,,,,,,,,,,,,,,,,,,,,,,,
1725717326.604135,1725717326.604803,186.0,0.0,4306.538574,4305.512695,4308.717773,4298.717773,4246.922852,4237.436035,4002.435791,4257.436035,4234.487305,4231.666504,4504.487305,4525.128418,4359.743652,4431.666504,2887.0,0.0,11.0,,,,0.0,4.0,4.0,4.0,4.0,4.0,4.0,4.0,4.0,4.0,4.0,4.0,4.0,4.0,4.0,100.0,,,,,,,,,,,,,,,,,,,,,,,,,,,,,,,,,,,,,,,,,,,,,,,,,,,,,,,,,,,,,,,,,,,,,,,,,,,,,,,,,,,,,,,,,,,,,,,,,,,,,,,,,,,,,,,,,,,,,,,,,,,,,,,,,,,
1725717326.608039,1725717326.608707,187.0,0.0,4307.05127,4305.256348,4308.589844,4297.179688,4245.384766,4239.487305,4004.102539,4256.282227,4230.897461,4230.897461,4498.333496,4525.897461,4357.307617,4430.256348,3119.0,0.0,11.0,,,,0.0,4.0,4.0,4.0,4.0,4.0,4.0,4.0,4.0,4.0,4.0,4.0,4.0,4.0,4.0,100.0,,,,,,,,,,,,,,,,,,,,,,,,,,,,,,,,,,,,,,,,,,,,,,,,,,,,,,,,,,,,,,,,,,,,,,,,,,,,,,,,,,,,,,,,,,,,,,,,,,,,,,,,,,,,,,,,,,,,,,,,,,,,,,,,,,,
1725717326.611943,1725717326.612611,188.0,0.0,4306.666504,4303.461426,4308.205078,4294.487305,4245.641113,4240.128418,4005.512939,4254.102539,4230.384766,4231.153809,4493.589844,4526.410156,4356.153809,4428.717773,3435.0,0.0,11.0,,,,0.0,4.0,4.0,4.0,4.0,4.0,4.0,4.0,4.0,4.0,4.0,4.0,4.0,4.0,4.0,100.0,,,,,,,,,,,,,,,,,,,,,,,,,,,,,,,,,,,,,,,,,,,,,,,,,,,,,,,,0.0,0.0,1.0,0.0,2048.0,0.0,,,,,,,,,,,,,,,,,,,,,,,,,,,,,,,,,,,,,,,,,,,,,,,,,,,,,,,,,,,,,,,,,,,,,,
1725717326.615847,1725717326.616615,189.0,0.0,4305.897461,4300.256348,4307.94873,4292.94873,4247.563965,4240.128418,4006.538574,4250.769043,4232.307617,4232.179688,4494.487305,4525.769043,4357.05127,4427.820313,3851.0,0.0,11.0,,,,0.0,4.0,4.0,4.0,4.0,4.0,4.0,4.0,4.0,4.0,4.0,4.0,4.0,4.0,4.0,100.0,,,,,,,,,,,,,,,,,,,,,,,,,,,,,,,,,,,,,,,,,,,,,,,,,,,,,,,,,,,,,,,,,,,,,,,,,,,,,,,,,,,,,,,,,,,,,,,,,,,,,,,,,,,,,,,,,,,,,,,,,,,,,,,,,,,
1725717326.619751,1725717326.620519,190.0,0.0,4304.871582,4296.666504,4307.94873,4294.102539,4250.0,4240.384766,4007.435791,4247.307617,4234.102539,4232.307617,4501.025879,4523.974121,4359.358887,4428.077148,2887.0,0.0,11.0,,,,0.0,4.0,4.0,4.0,4.0,4.0,4.0,4.0,4.0,4.0,4.0,4.0,4.0,4.0,4.0,100.0,,,,,,,,,,,,,,,,,,,,,,,,,,,,,,,,,,,,,,,,,,,,,,,,,,,,,,,,,,,,,,,,,,,,,,,,,,,,,,,,,,,,,,,,,,,,,,,,,,,,,,,,,,,,,,,,,,,,,,,,,,,,,,,,,,,
1725717326.623655,1725717326.624424,191.0,0.0,4303.717773,4294.102539,4308.077148,4297.307617,4251.410156,4241.538574,4007.820557,4245.897461,4234.358887,4230.512695,4508.333496,4522.563965,4361.410156,4428.974121,3119.0,0.0,11.0,,,,0.0,4.0,4.0,4.0,4.0,4.0,4.0,4.0,4.0,4.0,4.0,4.0,4.0,4.0,4.0,100.0,,,,,,,,,,,,,,,,,,,,,,,,,,,,,,,,,,,,,,,,,,,,,,,,,,,,,,,,,,,,,,,,,,,,,,,,,,,,,,,,,,,,,,,,,,,,,,,,,,,,,,,,,,,,,,,,,,,,,,,,,,,,,,,,,,,
1725717326.627559,1725717326.628328,192.0,0.0,4302.563965,4293.077148,4308.333496,4300.0,4251.025879,4243.846191,4007.307617,4248.333496,4233.333496,4227.820313,4510.256348,4523.461426,4361.794922,4429.743652,3435.0,0.0,11.0,,,,0.0,4.0,4.0,4.0,4.0,4.0,4.0,4.0,4.0,4.0,4.0,4.0,4.0,4.0,4.0,100.0,,,,,,,,,,,,,,,,,,,,,,,,,,,,,,,,,,,,,,,,,,,,,,,,,,,,,,,,,,,,,,,,,,,,,,,,,,,,,,,,,,,,,,,,,,,,,,,,,,,,,,,,,,,,,,,,,,,,,,,,,,,,,,,,,,,
1725717326.631463,1725717326.632232,193.0,0.0,4301.922852,4293.333496,4309.102539,4300.128418,4249.102539,4246.153809,4005.769287,4254.102539,4233.205078,4227.179688,4504.615234,4527.820313,4360.0,4430.256348,3851.0,0.0,11.0,,,,0.0,4.0,4.0,4.0,4.0,4.0,4.0,4.0,4.0,4.0,4.0,4.0,4.0,4.0,4.0,100.0,,,,,,,,,,,,,,,,,,,,,,,,,,,,,,,,,,,,,,,,,,,,,,,,,,,,,,,,,,,,,,,,,,,,,,,,,,,,,,,,,,,,,,,,,,,,,,,,,,,,,,,,,,,,,,,,,,,,,,,,,,,,,,,,,,,
1725717326.635368,1725717326.636036,194.0,0.0,4302.05127,4293.717773,4309.871582,4297.692383,4246.410156,4247.179688,4003.974365,4260.384766,4236.282227,4230.897461,4495.0,4534.358887,4357.692383,4430.769043,2887.0,0.0,11.0,,,,0.0,4.0,4.0,4.0,4.0,4.0,4.0,4.0,4.0,4.0,4.0,4.0,4.0,4.0,4.0,100.0,,,,,,,,,,,,,,,,,,,,,,,,,,,,,,,,,,,,,,,,,,,,,,,,,,,,,,,,,,,,,,,,,,,,,,,,,,,,,,,,,,,,,,,,,,,,,,,,,,,,,,,,,,,,,,,,,,,,,,,,,,,,,,,,,,,
1725717326.639272,1725717326.63994,195.0,0.0,4303.461426,4293.846191,4309.743652,4294.743652,4243.846191,4246.410156,4002.692383,4263.205078,4241.794922,4238.846191,4488.077148,4540.641113,4356.794922,4431.794922,3119.0,0.0,11.0,,,,0.0,4.0,4.0,4.0,4.0,4.0,4.0,4.0,4.0,4.0,4.0,4.0,4.0,4.0,4.0,100.0,,,,,,,,,,,,,,,,,,,,,,,,,,,,,,,,,,,,,,,,,,,,,,,,,,,,,,,,,,,,,,,,,,,,,,,,,,,,,,,,,,,,,,,,,,,,,,,,,,,,,,,,,,,,,,,,,,,,,,,,,,,,,,,,,,,
1725717326.643176,1725717326.643844,196.0,0.0,4306.282227,4293.461426,4307.94873,4293.205078,4242.307617,4243.974121,4002.435791,4261.025879,4247.179688,4247.05127,4488.205078,4543.846191,4357.94873,4432.94873,3435.0,0.0,11.0,,,,0.0,4.0,4.0,4.0,4.0,4.0,4.0,4.0,4.0,4.0,4.0,4.0,4.0,4.0,4.0,100.0,,,,,,,,,,,,,,,,,,,,,,,,,,,,,,,,,,,,,,,,,,,,,,,,,,,,,,,,0.0,0.0,1.0,0.0,2048.0,0.0,,,,,,,,,,,,,,,,,,,,,,,,,,,,,,,,,,,,,,,,,,,,,,,,,,,,,,,,,,,,,,,,,,,,,,
1725717326.64708,1725717326.647748,197.0,0.0,4309.615234,4293.205078,4304.871582,4293.846191,4242.820313,4240.897461,4003.076904,4255.641113,4249.871582,4251.153809,4495.128418,4542.820313,4359.743652,4433.589844,3851.0,0.0,11.0,,,,0.0,4.0,4.0,4.0,4.0,4.0,4.0,4.0,4.0,4.0,4.0,4.0,4.0,4.0,4.0,100.0,,,,,,,,,,,,,,,,,,,,,,,,,,,,,,,,,,,,,,,,,,,,,,,,,,,,,,,,,,,,,,,,,,,,,,,,,,,,,,,,,,,,,,,,,,,,,,,,,,,,,,,,,,,,,,,,,,,,,,,,,,,,,,,,,,,
1725717326.650984,1725717326.651552,198.0,0.0,4311.538574,4293.461426,4302.179688,4295.512695,4244.743652,4238.205078,4004.230713,4250.897461,4249.102539,4249.102539,4505.0,4539.102539,4360.128418,4433.205078,2887.0,0.0,11.0,,,,0.0,4.0,4.0,4.0,4.0,4.0,4.0,4.0,4.0,4.0,4.0,4.0,4.0,4.0,4.0,100.0,,,,,,,,,,,,,,,,,,,,,,,,,,,,,,,,,,,,,,,,,,,,,,,,,,,,,,,,,,,,,,,,,,,,,,,,,,,,,,,,,,,,,,,,,,,,,,,,,,,,,,,,,,,,,,,,,,,,,,,,,,,,,,,,,,,
1725717326.654888,1725717326.655457,199.0,0.0,4310.641113,4293.846191,4301.666504,4296.794922,4246.922852,4236.282227,4005.512939,4249.871582,4246.666504,4243.077148,4512.820313,4536.153809,4358.461426,4431.666504,3119.0,0.0,11.0,,,,0.0,4.0,4.0,4.0,4.0,4.0,4.0,4.0,4.0,4.0,4.0,4.0,4.0,4.0,4.0,100.0,,,,,,,,,,,,,,,,,,,,,,,,,,,,,,,,,,,,,,,,,,,,,,,,,,,,,,,,,,,,,,,,,,,,,,,,,,,,,,,,,,,,,,,,,,,,,,,,,,,,,,,,,,,,,,,,,,,,,,,,,,,,,,,,,,,
1725717326.658792,1725717326.659361,200.0,0.0,4306.666504,4293.333496,4303.077148,4296.538574,4247.179688,4235.0,4006.410156,4252.307617,4244.743652,4238.077148,4515.384766,4536.153809,4356.153809,4429.871582,3435.0,0.0,11.0,,,,0.0,4.0,4.0,4.0,4.0,4.0,4.0,4.0,4.0,4.0,4.0,4.0,4.0,4.0,4.0,100.0,,,,,,,,,,,,,,,,,,,,,,,,,,,,,,,,,,,,,,,,,,,,,,,,,,,,,,,,,,,,,,,,,,,,,,,,,,,,,,,,,,,,,,,,,,,,,,,,,,,,,,,,,,,,,,,,,,,,,,,,,,,,,,,,,,,
1725717326.662696,1725717326.663265,201.0,0.0,4301.538574,4291.538574,4304.487305,4294.871582,4244.871582,4234.487305,4006.666748,4255.897461,4244.487305,4238.077148,4513.333496,4538.333496,4355.769043,4428.846191,3851.0,0.0,11.0,,,,0.0,4.0,4.0,4.0,4.0,4.0,4.0,4.0,4.0,4.0,4.0,4.0,4.0,4.0,4.0,100.0,,,,,,,,,,,,,,,,,,,,,,,,,,,,,,,,,,,,,,,,,,,,,,,,,,,,,,,,,,,,,,,,,,,,,,,,,,,,,,,,,,,,,,,,,,,,,,,,,,,,,,,,,,,,,,,,,,,,,,,,,,,,,,,,,,,
1725717326.6666,1725717326.667069,202.0,0.0,4297.307617,4288.974121,4303.974121,4293.077148,4240.384766,4234.871582,4006.410156,4257.692383,4245.384766,4243.077148,4509.487305,4540.0,4358.077148,4428.974121,2887.0,0.0,11.0,,,,0.0,4.0,4.0,4.0,4.0,4.0,4.0,4.0,4.0,4.0,4.0,4.0,4.0,4.0,4.0,100.0,,,,,,,,,,,,,,,,,,,,,,,,,,,,,,,,,,,,,,,,,,,,,,,,,,,,,,,,,,,,,,,,,,,,,,,,,,,,,,,,,,,,,,,,,,,,,,,,,,,,,,,,,,,,,,,,,,,,,,,,,,,,,,,,,,,
1725717326.670504,1725717326.670973,203.0,0.0,4295.641113,4287.307617,4301.538574,4292.179688,4235.641113,4235.641113,4006.153809,4256.538574,4246.153809,4248.589844,4506.666504,4539.358887,4362.692383,4430.0,3119.0,0.0,11.0,,,,0.0,4.0,4.0,4.0,4.0,4.0,4.0,4.0,4.0,4.0,4.0,4.0,4.0,4.0,4.0,100.0,,,,,,,,,,,,,,,,,,,,,,,,,,,,,,,,,,,,,,,,,,,,,,,,,,,,,,,,,,,,,,,,,,,,,,,,,,,,,,,,,,,,,,,,,,,,,,,,,,,,,,,,,,,,,,,,,,,,,,,,,,,,,,,,,,,
1725717326.674408,1725717326.674877,204.0,0.0,4296.153809,4287.94873,4299.102539,4292.820313,4232.436035,4235.897461,4006.025635,4253.205078,4245.384766,4249.615234,4505.897461,4536.282227,4367.307617,4431.153809,3435.0,0.0,11.0,,,,0.0,4.0,4.0,4.0,4.0,4.0,4.0,4.0,4.0,4.0,4.0,4.0,4.0,4.0,4.0,100.0,,,,,,,,,,,,,,,,,,,,,,,,,,,,,,,,,,,,,,,,,,,,,,,,,,,,,,,,0.0,0.0,1.0,0.0,2048.0,0.0,,,,,,,,,,,,,,,,,,,,,,,,,,,,,,,,,,,,,,,,,,,,,,,,,,,,,,,,,,,,,,,,,,,,,,
1725717326.678312,1725717326.678781,205.0,0.0,4297.563965,4290.256348,4298.205078,4294.230957,4232.05127,4234.487305,4005.769287,4249.615234,4243.333496,4244.615234,4506.794922,4532.692383,4369.743652,4431.282227,3851.0,0.0,11.0,,,,0.0,4.0,4.0,4.0,4.0,4.0,4.0,4.0,4.0,4.0,4.0,4.0,4.0,4.0,4.0,100.0,,,,,,,,,,,,,,,,,,,,,,,,,,,,,,,,,,,,,,,,,,,,,,,,,,,,,,,,,,,,,,,,,,,,,,,,,,,,,,,,,,,,,,,,,,,,,,,,,,,,,,,,,,,,,,,,,,,,,,,,,,,,,,,,,,,
1725717326.682217,1725717326.682586,206.0,0.0,4298.589844,4292.820313,4299.487305,4295.512695,4233.846191,4232.94873,4005.641113,4247.436035,4241.794922,4236.794922,4507.94873,4530.769043,4369.871582,4430.384766,2887.0,0.0,11.0,,,,0.0,4.0,4.0,4.0,4.0,4.0,4.0,4.0,4.0,4.0,4.0,4.0,4.0,4.0,4.0,100.0,,,,,,,,,,,,,,,,,,,,,,,,,,,,,,,,,,,,,,,,,,,,,,,,,,,,,,,,,,,,,,,,,,,,,,,,,,,,,,,,,,,,,,,,,,,,,,,,,,,,,,,,,,,,,,,,,,,,,,,,,,,,,,,,,,,
1725717326.686121,1725717326.68649,207.0,0.0,4299.487305,4294.358887,4302.436035,4296.025879,4236.410156,4233.333496,4005.641113,4247.436035,4242.307617,4231.666504,4508.205078,4531.666504,4368.461426,4429.230957,3119.0,0.0,11.0,,,,0.0,4.0,4.0,4.0,4.0,4.0,4.0,4.0,4.0,4.0,4.0,4.0,4.0,4.0,4.0,100.0,,,,,,,,,,,,,,,,,,,,,,,,,,,,,,,,,,,,,,,,,,,,,,,,,,,,,,,,,,,,,,,,,,,,,,,,,,,,,,,,,,,,,,,,,,,,,,,,,,,,,,,,,,,,,,,,,,,,,,,,,,,,,,,,,,,
1725717326.690025,1725717326.690394,208.0,0.0,4300.769043,4294.743652,4305.641113,4295.897461,4237.820313,4236.922852,4006.025635,4249.487305,4244.615234,4232.692383,4507.692383,4534.487305,4367.05127,4428.846191,3435.0,0.0,11.0,,,,0.0,4.0,4.0,4.0,4.0,4.0,4.0,4.0,4.0,4.0,4.0,4.0,4.0,4.0,4.0,100.0,,,,,,,,,,,,,,,,,,,,,,,,,,,,,,,,,,,,,,,,,,,,,,,,,,,,,,,,,,,,,,,,,,,,,,,,,,,,,,,,,,,,,,,,,,,,,,,,,,,,,,,,,,,,,,,,,,,,,,,,,,,,,,,,,,,
1725717326.693929,1725717326.694398,209.0,0.0,4302.563965,4294.871582,4307.820313,4295.512695,4237.692383,4242.307617,4006.666748,4252.94873,4247.436035,4238.205078,4506.282227,4537.820313,4366.153809,4429.358887,3851.0,0.0,11.0,,,,0.0,4.0,4.0,4.0,4.0,4.0,4.0,4.0,4.0,4.0,4.0,4.0,4.0,4.0,4.0,100.0,,,,,,,,,,,,,,,,,,,,,,,,,,,,,,,,,,,,,,,,,,,,,,,,,,,,,,,,,,,,,,,,,,,,,,,,,,,,,,,,,,,,,,,,,,,,,,,,,,,,,,,,,,,,,,,,,,,,,,,,,,,,,,,,,,,
1725717326.697833,1725717326.698302,210.0,0.0,4303.846191,4295.256348,4308.205078,4295.256348,4236.538574,4246.922852,4006.153809,4256.922852,4249.102539,4243.717773,4503.333496,4539.871582,4364.871582,4430.256348,2887.0,0.0,11.0,,,,0.0,4.0,4.0,4.0,4.0,4.0,4.0,4.0,4.0,4.0,4.0,4.0,4.0,4.0,4.0,100.0,,,,,,,,,,,,,,,,,,,,,,,,,,,,,,,,,,,,,,,,,,,,,,,,,,,,,,,,,,,,,,,,,,,,,,,,,,,,,,,,,,,,,,,,,,,,,,,,,,,,,,,,,,,,,,,,,,,,,,,,,,,,,,,,,,,
1725717326.701737,1725717326.702206,211.0,0.0,4303.205078,4294.743652,4306.410156,4295.128418,4235.512695,4249.102539,4003.846191,4259.743652,4249.230957,4245.128418,4498.974121,4539.230957,4362.307617,4430.256348,3119.0,0.0,11.0,,,,0.0,4.0,4.0,4.0,4.0,4.0,4.0,4.0,4.0,4.0,4.0,4.0,4.0,4.0,4.0,100.0,,,,,,,,,,,,,,,,,,,,,,,,,,,,,,,,,,,,,,,,,,,,,,,,,,,,,,,,,,,,,,,,,,,,,,,,,,,,,,,,,,,,,,,,,,,,,,,,,,,,,,,,,,,,,,,,,,,,,,,,,,,,,,,,,,,
1725717326.705641,1725717326.70611,212.0,0.0,4300.128418,4292.692383,4303.461426,4294.871582,4235.256348,4248.589844,3999.487061,4259.358887,4248.205078,4241.922852,4494.358887,4534.871582,4358.461426,4429.230957,3435.0,0.0,11.0,,,,0.0,4.0,4.0,4.0,4.0,4.0,4.0,4.0,4.0,4.0,4.0,4.0,4.0,4.0,4.0,100.0,,,,,,,,,,,,,,,,,1.0,0.0,0.0,,,,,,,,,,,,,,,,,,,,,,,,,,,,,,,,,,,,,0.0,0.0,1.0,0.0,128.0,0.0,1.517601,1.039858,0.938922,0.353935,0.076751,1.041984,1.104731,0.743536,0.312902,0.087785,1.443387,0.63504,0.833436,0.286331,0.113285,0.547752,0.396166,0.555782,0.152571,0.077984,0.451576,0.570198,0.313965,0.168606,0.071378,0.477674,0.355771,0.261279,0.05802,0.04798,1.141747,0.303861,0.297985,0.191978,0.061866,0.79216,1.286304,0.870565,0.405296,0.163538,0.877541,0.669224,0.449667,0.266088,0.095109,1.841642,0.821093,1.245978,0.361518,0.305667,2.357727,1.456962,1.825823,0.733132,0.438338,4.234283,1.680494,1.150655,0.636329,0.235475,3.644759,1.432811,1.27969,0.55691,0.238697,3.295293,0.998019,0.928184,0.391541,0.116871
1725717326.709545,1725717326.710114,213.0,0.0,4296.153809,4289.102539,4300.512695,4294.487305,4235.384766,4246.922852,3995.256348,4255.641113,4246.666504,4236.666504,4491.538574,4527.820313,4355.256348,4427.692383,3851.0,0.0,11.0,,,,0.0,4.0,4.0,4.0,4.0,4.0,4.0,4.0,4.0,4.0,4.0,4.0,4.0,4.0,4.0,100.0,,,,,,,,,,,,,,,,,,,,,,,,,,,,,,,,,,,,,,,,,,,,,,,,,,,,,,,,,,,,,,,,,,,,,,,,,,,,,,,,,,,,,,,,,,,,,,,,,,,,,,,,,,,,,,,,,,,,,,,,,,,,,,,,,,,
1725717326.713449,1725717326.714018,214.0,0.0,4293.461426,4286.922852,4299.102539,4294.102539,4235.641113,4246.153809,3993.974365,4250.641113,4245.128418,4232.94873,4491.666504,4521.410156,4354.487305,4426.410156,2887.0,0.0,11.0,,,,0.0,4.0,4.0,4.0,4.0,4.0,4.0,4.0,4.0,4.0,4.0,4.0,4.0,4.0,4.0,100.0,,,,,,,,,,,,,,,,,,,,,,,,,,,,,,,,,,,,,,,,,,,,,,,,,,,,,,,,,,,,,,,,,,,,,,,,,,,,,,,,,,,,,,,,,,,,,,,,,,,,,,,,,,,,,,,,,,,,,,,,,,,,,,,,,,,
1725717326.717353,1725717326.717922,215.0,0.0,4293.974121,4288.589844,4299.871582,4294.230957,4235.897461,4247.307617,3996.923096,4248.589844,4244.102539,4232.436035,4493.461426,4519.358887,4356.794922,4426.025879,3119.0,0.0,11.0,,,,0.0,4.0,4.0,4.0,4.0,4.0,4.0,4.0,4.0,4.0,4.0,4.0,4.0,4.0,4.0,100.0,,,,,,,,,,,,,,,,,,,,,,,,,,,,,,,,,,,,,,,,,,,,,,,,,,,,,,,,,,,,,,,,,,,,,,,,,,,,,,,,,,,,,,,,,,,,,,,,,,,,,,,,,,,,,,,,,,,,,,,,,,,,,,,,,,,
1725717326.721258,1725717326.721926,216.0,0.0,4296.922852,4294.102539,4302.179688,4295.128418,4235.897461,4249.743652,4001.923096,4252.05127,4244.230957,4234.102539,4494.743652,4523.717773,4360.128418,4426.666504,3435.0,0.0,11.0,,,,0.0,4.0,4.0,4.0,4.0,4.0,4.0,4.0,4.0,4.0,4.0,4.0,4.0,4.0,4.0,100.0,,,,,,,,,,,,,,,,,,,,,,,,,,,,,,,,,,,,,,,,,,,,,,,,,,,,,,,,,,,,,,,,,,,,,,,,,,,,,,,,,,,,,,,,,,,,,,,,,,,,,,,,,,,,,,,,,,,,,,,,,,,,,,,,,,,
1725717326.725162,1725717326.72583,217.0,0.0,4300.128418,4299.487305,4304.615234,4296.282227,4235.641113,4250.897461,4005.512939,4259.743652,4246.025879,4235.769043,4494.487305,4532.563965,4361.538574,4428.333496,3851.0,0.0,11.0,,,,0.0,4.0,4.0,4.0,4.0,4.0,4.0,4.0,4.0,4.0,4.0,4.0,4.0,4.0,4.0,100.0,,,,,,,,,,,,,,,,,,,,,,,,,,,,,,,,,,,,,,,,,,,,,,,,,,,,,,,,,,,,,,,,,,,,,,,,,,,,,,,,,,,,,,,,,,,,,,,,,,,,,,,,,,,,,,,,,,,,,,,,,,,,,,,,,,,
1725717326.729066,1725717326.729734,218.0,0.0,4301.025879,4299.487305,4305.0,4296.666504,4234.871582,4248.589844,4005.0,4266.794922,4248.974121,4236.282227,4493.589844,4541.282227,4359.743652,4430.0,2887.0,0.0,11.0,,,,0.0,4.0,4.0,4.0,4.0,4.0,4.0,4.0,4.0,4.0,4.0,4.0,4.0,4.0,4.0,100.0,,,,,,,,,,,,,,,,,,,,,,,,,,,,,,,,,,,,,,,,,,,,,,,,,,,,,,,,,,,,,,,,,,,,,,,,,,,,,,,,,,,,,,,,,,,,,,,,,,,,,,,,,,,,,,,,,,,,,,,,,,,,,,,,,,,
1725717326.73297,1725717326.733639,219.0,0.0,4298.846191,4292.563965,4302.436035,4295.512695,4233.461426,4243.205078,4000.512939,4268.461426,4251.410156,4235.897461,4493.974121,4544.487305,4356.282227,4430.384766,3119.0,0.0,11.0,,,,0.0,4.0,4.0,4.0,4.0,4.0,4.0,4.0,4.0,4.0,4.0,4.0,4.0,4.0,4.0,100.0,,,,,,,,,,,,,,,,,,,,,,,,,,,,,,,,,,,,,,,,,,,,,,,,,,,,,,,,,,,,,,,,,,,,,,,,,,,,,,,,,,,,,,,,,,,,,,,,,,,,,,,,,,,,,,,,,,,,,,,,,,,,,,,,,,,
1725717326.736874,1725717326.737543,220.0,0.0,4295.384766,4282.692383,4297.820313,4293.717773,4232.179688,4237.436035,3994.743652,4263.846191,4251.153809,4235.769043,4495.384766,4539.230957,4353.461426,4428.717773,3435.0,0.0,11.0,,,,0.0,4.0,4.0,4.0,4.0,4.0,4.0,4.0,4.0,4.0,4.0,4.0,4.0,4.0,4.0,100.0,,,,,,,,,,,,,,,,,,,,,,,,,,,,,,,,,,,,,,,,,,,,,,,,,,,,,,,,0.0,0.0,1.0,0.0,128.0,0.0,,,,,,,,,,,,,,,,,,,,,,,,,,,,,,,,,,,,,,,,,,,,,,,,,,,,,,,,,,,,,,,,,,,,,,
1725717326.740778,1725717326.741347,221.0,0.0,4292.820313,4277.307617,4294.230957,4292.307617,4231.666504,4233.974121,3991.281982,4255.512695,4247.436035,4235.769043,4495.769043,4528.205078,4352.692383,4425.897461,3851.0,0.0,11.0,,,,0.0,4.0,4.0,4.0,4.0,4.0,4.0,4.0,4.0,4.0,4.0,4.0,4.0,4.0,4.0,100.0,,,,,,,,,,,,,,,,,,,,,,,,,,,,,,,,,,,,,,,,,,,,,,,,,,,,,,,,,,,,,,,,,,,,,,,,,,,,,,,,,,,,,,,,,,,,,,,,,,,,,,,,,,,,,,,,,,,,,,,,,,,,,,,,,,,
1725717326.744682,1725717326.745251,222.0,0.0,4292.436035,4280.769043,4293.589844,4292.05127,4232.179688,4233.589844,3991.923096,4247.820313,4240.897461,4235.0,4493.974121,4517.820313,4353.589844,4423.589844,2887.0,0.0,11.0,,,,0.0,4.0,4.0,4.0,4.0,4.0,4.0,4.0,4.0,4.0,4.0,4.0,4.0,4.0,4.0,100.0,,,,,,,,,,,,,,,,,,,,,,,,,,,,,,,,,,,,,,,,,,,,,,,,,,,,,,,,,,,,,,,,,,,,,,,,,,,,,,,,,,,,,,,,,,,,,,,,,,,,,,,,,,,,,,,,,,,,,,,,,,,,,,,,,,,
1725717326.748586,1725717326.749155,223.0,0.0,4294.743652,4291.410156,4296.410156,4292.563965,4233.333496,4234.615234,3995.897461,4243.717773,4234.358887,4232.94873,4490.769043,4515.128418,4355.256348,4423.077148,3119.0,0.0,11.0,,,,0.0,4.0,4.0,4.0,4.0,4.0,4.0,4.0,4.0,4.0,4.0,4.0,4.0,4.0,4.0,100.0,,,,,,,,,,,,,,,,,,,,,,,,,,,,,,,,,,,,,,,,,,,,,,,,,,,,,,,,,,,,,,,,,,,,,,,,,,,,,,,,,,,,,,,,,,,,,,,,,,,,,,,,,,,,,,,,,,,,,,,,,,,,,,,,,,,
1725717326.75249,1725717326.753059,224.0,0.0,4298.846191,4302.563965,4300.897461,4293.717773,4234.615234,4235.384766,4000.512939,4243.974121,4230.256348,4230.384766,4489.102539,4521.282227,4357.05127,4424.871582,3435.0,0.0,11.0,,,,0.0,4.0,4.0,4.0,4.0,4.0,4.0,4.0,4.0,4.0,4.0,4.0,4.0,4.0,4.0,100.0,,,,,,,,,,,,,,,,,,,,,,,,,,,,,,,,,,,,,,,,,,,,,,,,,,,,,,,,,,,,,,,,,,,,,,,,,,,,,,,,,,,,,,,,,,,,,,,,,,,,,,,,,,,,,,,,,,,,,,,,,,,,,,,,,,,
1725717326.756395,1725717326.756863,225.0,0.0,4303.205078,4307.94873,4305.256348,4295.128418,4235.256348,4235.256348,4003.076904,4246.794922,4230.0,4229.487305,4491.153809,4531.794922,4359.230957,4427.820313,3851.0,0.0,11.0,,,,0.0,4.0,4.0,4.0,4.0,4.0,4.0,4.0,4.0,4.0,4.0,4.0,4.0,4.0,4.0,100.0,,,,,,,,,,,,,,,,,,,,,,,,,,,,,,,,,,,,,,,,,,,,,,,,,,,,,,,,,,,,,,,,,,,,,,,,,,,,,,,,,,,,,,,,,,,,,,,,,,,,,,,,,,,,,,,,,,,,,,,,,,,,,,,,,,,
1725717326.760299,1725717326.760768,226.0,0.0,4305.897461,4305.897461,4308.205078,4297.179688,4235.641113,4234.615234,4002.564209,4249.871582,4232.436035,4230.897461,4496.794922,4539.230957,4361.922852,4430.769043,2887.0,0.0,11.0,,,,0.0,4.0,4.0,4.0,4.0,4.0,4.0,4.0,4.0,4.0,4.0,4.0,4.0,4.0,4.0,100.0,,,,,,,,,,,,,,,,,,,,,,,,,,,,,,,,,,,,,,,,,,,,,,,,,,,,,,,,,,,,,,,,,,,,,,,,,,,,,,,,,,,,,,,,,,,,,,,,,,,,,,,,,,,,,,,,,,,,,,,,,,,,,,,,,,,
1725717326.764203,1725717326.764672,227.0,0.0,4306.153809,4300.128418,4309.615234,4299.358887,4235.512695,4234.102539,3999.743652,4251.153809,4235.256348,4233.333496,4503.589844,4539.743652,4364.358887,4432.436035,3119.0,0.0,11.0,,,,0.0,4.0,4.0,4.0,4.0,4.0,4.0,4.0,4.0,4.0,4.0,4.0,4.0,4.0,4.0,100.0,,,,,,,,,,,,,,,,,,,,,,,,,,,,,,,,,,,,,,,,,,,,,,,,,,,,,,,,,,,,,,,,,,,,,,,,,,,,,,,,,,,,,,,,,,,,,,,,,,,,,,,,,,,,,,,,,,,,,,,,,,,,,,,,,,,
1725717326.768107,1725717326.768576,228.0,0.0,4303.974121,4295.512695,4309.487305,4301.410156,4235.384766,4233.589844,3996.153809,4250.384766,4236.410156,4235.0,4508.589844,4534.358887,4365.641113,4432.563965,3435.0,0.0,11.0,,,,0.0,4.0,4.0,4.0,4.0,4.0,4.0,4.0,4.0,4.0,4.0,4.0,4.0,4.0,4.0,100.0,,,,,,,,,,,,,,,,,,,,,,,,,,,,,,,,,,,,,,,,,,,,,,,,,,,,,,,,0.0,0.0,1.0,0.0,128.0,0.0,,,,,,,,,,,,,,,,,,,,,,,,,,,,,,,,,,,,,,,,,,,,,,,,,,,,,,,,,,,,,,,,,,,,,,
1725717326.772011,1725717326.77238,229.0,0.0,4300.769043,4294.358887,4307.820313,4302.307617,4235.256348,4233.333496,3992.94873,4248.461426,4235.384766,4235.384766,4510.128418,4527.563965,4365.897461,4431.410156,3851.0,0.0,11.0,,,,0.0,4.0,4.0,4.0,4.0,4.0,4.0,4.0,4.0,4.0,4.0,4.0,4.0,4.0,4.0,100.0,,,,,,,,,,,,,,,,,,,,,,,,,,,,,,,,,,,,,,,,,,,,,,,,,,,,,,,,,,,,,,,,,,,,,,,,,,,,,,,,,,,,,,,,,,,,,,,,,,,,,,,,,,,,,,,,,,,,,,,,,,,,,,,,,,,
1725717326.775915,1725717326.776284,230.0,0.0,4297.820313,4295.897461,4304.487305,4301.538574,4234.871582,4233.589844,3990.769287,4247.436035,4233.461426,4235.256348,4507.820313,4523.333496,4365.769043,4429.743652,2887.0,0.0,11.0,,,,0.0,4.0,4.0,4.0,4.0,4.0,4.0,4.0,4.0,4.0,4.0,4.0,4.0,4.0,4.0,100.0,,,,,,,,,,,,,,,,,,,,,,,,,,,,,,,,,,,,,,,,,,,,,,,,,,,,,,,,,,,,,,,,,,,,,,,,,,,,,,,,,,,,,,,,,,,,,,,,,,,,,,,,,,,,,,,,,,,,,,,,,,,,,,,,,,,
1725717326.779819,1725717326.780188,231.0,0.0,4296.025879,4297.307617,4300.384766,4299.358887,4234.358887,4234.230957,3989.230713,4248.205078,4232.179688,4235.769043,4503.589844,4522.563965,4366.153809,4428.205078,3119.0,0.0,11.0,,,,0.0,4.0,4.0,4.0,4.0,4.0,4.0,4.0,4.0,4.0,4.0,4.0,4.0,4.0,4.0,100.0,,,,,,,,,,,,,,,,,,,,,,,,,,,,,,,,,,,,,,,,,,,,,,,,,,,,,,,,,,,,,,,,,,,,,,,,,,,,,,,,,,,,,,,,,,,,,,,,,,,,,,,,,,,,,,,,,,,,,,,,,,,,,,,,,,,
1725717326.783723,1725717326.784092,232.0,0.0,4295.512695,4297.179688,4296.922852,4296.794922,4233.846191,4235.0,3988.205078,4249.487305,4231.922852,4237.179688,4499.871582,4523.846191,4367.05127,4427.307617,3435.0,0.0,11.0,,,,0.0,4.0,4.0,4.0,4.0,4.0,4.0,4.0,4.0,4.0,4.0,4.0,4.0,4.0,4.0,100.0,,,,,,,,,,,,,,,,,,,,,,,,,,,,,,,,,,,,,,,,,,,,,,,,,,,,,,,,,,,,,,,,,,,,,,,,,,,,,,,,,,,,,,,,,,,,,,,,,,,,,,,,,,,,,,,,,,,,,,,,,,,,,,,,,,,
1725717326.787627,1725717326.787896,233.0,0.0,4296.282227,4295.769043,4295.769043,4295.128418,4233.589844,4235.0,3987.564209,4249.871582,4232.436035,4238.461426,4498.589844,4525.256348,4366.666504,4426.794922,3851.0,0.0,11.0,,,,0.0,4.0,4.0,4.0,4.0,4.0,4.0,4.0,4.0,4.0,4.0,4.0,4.0,4.0,4.0,100.0,,,,,,,,,,,,,,,,,,,,,,,,,,,,,,,,,,,,,,,,,,,,,,,,,,,,,,,,,,,,,,,,,,,,,,,,,,,,,,,,,,,,,,,,,,,,,,,,,,,,,,,,,,,,,,,,,,,,,,,,,,,,,,,,,,,
1725717326.791531,1725717326.791801,234.0,0.0,4297.436035,4294.102539,4297.563965,4294.615234,4233.205078,4234.358887,3987.179443,4249.230957,4233.333496,4238.333496,4498.846191,4526.410156,4363.461426,4426.794922,2887.0,0.0,11.0,,,,0.0,4.0,4.0,4.0,4.0,4.0,4.0,4.0,4.0,4.0,4.0,4.0,4.0,4.0,4.0,100.0,,,,,,,,,,,,,,,,,,,,,,,,,,,,,,,,,,,,,,,,,,,,,,,,,,,,,,,,,,,,,,,,,,,,,,,,,,,,,,,,,,,,,,,,,,,,,,,,,,,,,,,,,,,,,,,,,,,,,,,,,,,,,,,,,,,
1725717326.795436,1725717326.795705,235.0,0.0,4298.205078,4292.94873,4301.153809,4295.0,4232.820313,4233.974121,3986.794922,4249.487305,4234.102539,4236.153809,4498.205078,4528.589844,4357.563965,4427.179688,3119.0,0.0,11.0,,,,0.0,4.0,4.0,4.0,4.0,4.0,4.0,4.0,4.0,4.0,4.0,4.0,4.0,4.0,4.0,100.0,,,,,,,,,,,,,,,,,,,,,,,,,,,,,,,,,,,,,,,,,,,,,,,,,,,,,,,,,,,,,,,,,,,,,,,,,,,,,,,,,,,,,,,,,,,,,,,,,,,,,,,,,,,,,,,,,,,,,,,,,,,,,,,,,,,
1725717326.79934,1725717326.799709,236.0,0.0,4298.333496,4292.820313,4304.230957,4295.512695,4232.692383,4235.128418,3986.538574,4252.692383,4234.487305,4232.94873,4495.512695,4532.820313,4351.538574,4427.820313,3435.0,0.0,11.0,,,,0.0,4.0,4.0,4.0,4.0,4.0,4.0,4.0,4.0,4.0,4.0,4.0,4.0,4.0,4.0,100.0,,,,,,,,,,,,,,,,,,,,,,,,,,,,,,,,,,,,,,,,,,,,,,,,,,,,,,,,0.0,0.0,1.0,0.0,128.0,0.0,,,,,,,,,,,,,,,,,,,,,,,,,,,,,,,,,,,,,,,,,,,,,,,,,,,,,,,,,,,,,,,,,,,,,,
1725717326.803244,1725717326.803613,237.0,0.0,4298.077148,4293.333496,4305.0,4295.641113,4232.94873,4237.94873,3986.666748,4258.461426,4234.487305,4230.769043,4491.666504,4538.077148,4349.487305,4428.589844,3851.0,0.0,11.0,,,,0.0,4.0,4.0,4.0,4.0,4.0,4.0,4.0,4.0,4.0,4.0,4.0,4.0,4.0,4.0,100.0,,,,,,,,,,,,,,,,,,,,,,,,,,,,,,,,,,,,,,,,,,,,,,,,,,,,,,,,,,,,,,,,,,,,,,,,,,,,,,,,,,,,,,,,,,,,,,,,,,,,,,,,,,,,,,,,,,,,,,,,,,,,,,,,,,,
1725717326.807148,1725717326.807517,238.0,0.0,4298.077148,4293.974121,4303.077148,4295.641113,4233.974121,4241.794922,3987.692383,4263.589844,4234.102539,4230.769043,4490.0,4541.922852,4353.077148,4429.102539,2887.0,0.0,11.0,,,,0.0,4.0,4.0,4.0,4.0,4.0,4.0,4.0,4.0,4.0,4.0,4.0,4.0,4.0,4.0,100.0,,,,,,,,,,,,,,,,,,,,,,,,,,,,,,,,,,,,,,,,,,,,,,,,,,,,,,,,,,,,,,,,,,,,,,,,,,,,,,,,,,,,,,,,,,,,,,,,,,,,,,,,,,,,,,,,,,,,,,,,,,,,,,,,,,,
1725717326.811052,1725717326.811421,239.0,0.0,4298.205078,4293.717773,4299.743652,4295.769043,4234.871582,4244.615234,3989.102539,4265.0,4233.589844,4232.692383,4492.94873,4541.922852,4360.256348,4429.615234,3119.0,0.0,11.0,,,,0.0,4.0,4.0,4.0,4.0,4.0,4.0,4.0,4.0,4.0,4.0,4.0,4.0,4.0,4.0,100.0,,,,,,,,,,,,,,,,,,,,,,,,,,,,,,,,,,,,,,,,,,,,,,,,,,,,,,,,,,,,,,,,,,,,,,,,,,,,,,,,,,,,,,,,,,,,,,,,,,,,,,,,,,,,,,,,,,,,,,,,,,,,,,,,,,,
1725717326.814956,1725717326.815425,240.0,0.0,4297.820313,4291.666504,4296.410156,4296.025879,4234.871582,4244.487305,3990.0,4261.410156,4233.333496,4234.871582,4499.102539,4537.94873,4365.641113,4430.128418,3435.0,0.0,11.0,,,,0.0,4.0,4.0,4.0,4.0,4.0,4.0,4.0,4.0,4.0,4.0,4.0,4.0,4.0,4.0,100.0,,,,,,,,,,,,,,,,,,,,,,,,,,,,,,,,,,,,,,,,,,,,,,,,,,,,,,,,,,,,,,,,,,,,,,,,,,,,,,,,,,,,,,,,,,,,,,,,,,,,,,,,,,,,,,,,,,,,,,,,,,,,,,,,,,,
1725717326.81886,1725717326.819329,241.0,0.0,4296.922852,4287.692383,4294.358887,4295.384766,4233.461426,4240.897461,3990.256348,4254.743652,4233.717773,4235.641113,4504.615234,4531.538574,4366.025879,4430.769043,3851.0,0.0,11.0,,,,0.0,4.0,4.0,4.0,4.0,4.0,4.0,4.0,4.0,4.0,4.0,4.0,4.0,4.0,4.0,100.0,,,,,,,,,,,,,,,,,,,,,,,,,,,,,,,,,,,,,,,,,,,,,,,,,,,,,,,,,,,,,,,,,,,,,,,,,,,,,,,,,,,,,,,,,,,,,,,,,,,,,,,,,,,,,,,,,,,,,,,,,,,,,,,,,,,
1725717326.822764,1725717326.823233,242.0,0.0,4295.897461,4283.077148,4293.974121,4293.333496,4231.410156,4235.512695,3990.0,4248.717773,4234.487305,4234.615234,4505.384766,4525.897461,4362.179688,4431.282227,2887.0,0.0,11.0,,,,0.0,4.0,4.0,4.0,4.0,4.0,4.0,4.0,4.0,4.0,4.0,4.0,4.0,4.0,4.0,100.0,,,,,,,,,,,,,,,,,,,,,,,,,,,,,,,,,,,,,,,,,,,,,,,,,,,,,,,,,,,,,,,,,,,,,,,,,,,,,,,,,,,,,,,,,,,,,,,,,,,,,,,,,,,,,,,,,,,,,,,,,,,,,,,,,,,
1725717326.826668,1725717326.827237,243.0,0.0,4295.0,4279.487305,4294.743652,4290.512695,4229.743652,4231.025879,3990.256348,4246.025879,4235.641113,4232.692383,4500.897461,4522.307617,4357.563965,4430.769043,3119.0,0.0,11.0,,,,0.0,4.0,4.0,4.0,4.0,4.0,4.0,4.0,4.0,4.0,4.0,4.0,4.0,4.0,4.0,100.0,,,,,,,,,,,,,,,,,,,,,,,,,,,,,,,,,,,,,,,,,,,,,,,,,,,,,,,,,,,,,,,,,,,,,,,,,,,,,,,,,,,,,,,,,,,,,,,,,,,,,,,,,,,,,,,,,,,,,,,,,,,,,,,,,,,
