Timestamp,OriginalTimestamp,EEG.Counter,EEG.Interpolated,EEG.AF3,EEG.F7,EEG.F3,EEG.FC5,EEG.T7,EEG.P7,EEG.O1,EEG.O2,EEG.P8,EEG.T8,EEG.FC6,EEG.F4,EEG.F8,EEG.AF4,EEG.RawCq,EEG.Battery,EEG.BatteryPercent,MarkerIndex,MarkerType,MarkerValueInt,EEG.MarkerHardware,CQ.AF3,CQ.F7,CQ.F3,CQ.FC5,CQ.T7,CQ.P7,CQ.O1,CQ.O2,CQ.P8,CQ.T8,CQ.FC6,CQ.F4,CQ.F8,CQ.AF4,CQ.Overall,EQ.SampleRateQuality,EQ.OVERALL,EQ.AF3,EQ.F7,EQ.F3,EQ.FC5,EQ.T7,EQ.P7,EQ.O1,EQ.O2,EQ.P8,EQ.T8,EQ.FC6,EQ.F4,EQ.F8,EQ.AF4,MC.Action,MC.ActionPower,MC.IsActive,PM.Attention.IsActive,PM.Attention.Scaled,PM.Attention.Raw,PM.Attention.Min,PM.Attention.Max,PM.Engagement.IsActive,PM.Engagement.Scaled,PM.Engagement.Raw,PM.Engagement.Min,PM.Engagement.Max,PM.Excitement.IsActive,PM.Excitement.Scaled,PM.Excitement.Raw,PM.Excitement.Min,PM.Excitement.Max,PM.LongTermExcitement,PM.Stress.IsActive,PM.Stress.Scaled,PM.Stress.Raw,PM.Stress.Min,PM.Stress.Max,PM.Relaxation.IsActive,PM.Relaxation.Scaled,PM.Relaxation.Raw,PM.Relaxation.Min,PM.Relaxation.Max,PM.Interest.IsActive,PM.Interest.Scaled,PM.Interest.Raw,PM.Interest.Min,PM.Interest.Max,PM.Focus.IsActive,PM.Focus.Scaled,PM.Focus.Raw,PM.Focus.Min,PM.Focus.Max,FE.BlinkWink,FE.HorizontalEyesDirection,FE.UpperFaceAction,FE.UpperFaceActionPower,FE.LowerFaceAction,FE.LowerFaceActionPower,POW.AF3.Theta,POW.AF3.Alpha,POW.AF3.BetaL,POW.AF3.BetaH,POW.AF3.Gamma,POW.F7.Theta,POW.F7.Alpha,POW.F7.BetaL,POW.F7.BetaH,POW.F7.Gamma,POW.F3.Theta,POW.F3.Alpha,POW.F3.BetaL,POW.F3.BetaH,POW.F3.Gamma,POW.FC5.Theta,POW.FC5.Alpha,POW.FC5.BetaL,POW.FC5.BetaH,POW.FC5.Gamma,POW.T7.Theta,POW.T7.Alpha,POW.T7.BetaL,POW.T7.BetaH,POW.T7.Gamma,POW.P7.Theta,POW.P7.Alpha,POW.P7.BetaL,POW.P7.BetaH,POW.P7.Gamma,POW.O1.Theta,POW.O1.Alpha,POW.O1.BetaL,POW.O1.BetaH,POW.O1.Gamma,POW.O2.Theta,POW.O2.Alpha,POW.O2.BetaL,POW.O2.BetaH,POW.O2.Gamma,POW.P8.Theta,POW.P8.Alpha,POW.P8.BetaL,POW.P8.BetaH,POW.P8.Gamma,POW.T8.Theta,POW.T8.Alpha,POW.T8.BetaL,POW.T8.BetaH,POW.T8.Gamma,POW.FC6.Theta,POW.FC6.Alpha,POW.FC6.BetaL,POW.FC6.BetaH,POW.FC6.Gamma,POW.F4.Theta,POW.F4.Alpha,POW.F4.BetaL,POW.F4.BetaH,POW.F4.Gamma,POW.F8.Theta,POW.F8.Alpha,POW.F8.BetaL,POW.F8.BetaH,POW.F8.Gamma,POW.AF4.Theta,POW.AF4.Alpha,POW.AF4.BetaL,POW.AF4.BetaH,POW.AF4.Gamma
1725618185.158717,1725618185.158173,33.0,0.0,4245.897461,4246.922852,4273.205078,4276.282227,4220.769043,4218.717773,4232.94873,4200.0,4216.538574,4201.922852,4521.282227,4504.358887,4369.102539,4441.153809,0.0,2.0,36.0,1.0,1.0,1.0,0.0,4.0,4.0,4.0,4.0,4.0,4.0,4.0,4.0,4.0,4.0,4.0,4.0,4.0,4.0,100.0,,,,,,,,,,,,,,,,,,,,,,,,,,,,,,,,,,,,,,,,,,,,,,,,,,,,,,,,,,,,,,,,,,,,,,,,,,,,,,,,,,,,,,,,,,,,,,,,,,,,,,,,,,,,,,,,,,,,,,,,,,,,,,,,,,,
1725618185.162621,1725618185.162077,34.0,0.0,4246.922852,4244.871582,4274.871582,4277.94873,4220.384766,4218.846191,4232.05127,4200.769043,4216.922852,4200.641113,4519.358887,4505.897461,4366.538574,4440.256348,0.0,2.0,36.0,,,,0.0,4.0,4.0,4.0,4.0,4.0,4.0,4.0,4.0,4.0,4.0,4.0,4.0,4.0,4.0,100.0,,,,,,,,,,,,,,,,,1.0,0.0,0.0,,,,,,,,,,,,,,,,,,,,,,,,,,,,,,,,,,,,,0.0,0.0,1.0,0.0,1.0,0.0,1.783874,1.716267,0.929772,0.64114,0.127498,2.698925,2.090309,0.745865,0.433617,0.166705,1.742983,0.835229,0.676583,0.44445,0.12197,2.088046,1.388381,0.503065,0.46732,0.096823,0.40176,0.610961,0.237006,0.168696,0.040879,0.56977,0.256635,0.373766,0.264689,0.062088,0.434188,0.605746,0.250839,0.148987,0.058522,1.175387,2.020297,1.761894,0.805219,0.574243,0.809732,1.5018,0.963093,0.38778,0.134096,1.711565,1.104235,1.136347,0.721631,0.11277,1.696424,1.897524,1.359273,0.86521,0.250975,2.026103,1.951903,1.901477,1.010436,0.206805,2.115645,2.051499,1.193907,0.490377,0.207883,1.314753,1.602193,1.032976,0.635051,0.150231
1725618185.166525,1725618185.166081,35.0,0.0,4250.769043,4244.487305,4277.94873,4282.436035,4220.256348,4218.974121,4232.307617,4205.128418,4218.205078,4201.410156,4521.153809,4511.794922,4368.077148,4441.025879,0.0,2.0,36.0,,,,0.0,4.0,4.0,4.0,4.0,4.0,4.0,4.0,4.0,4.0,4.0,4.0,4.0,4.0,4.0,100.0,,,,,,,,,,,,,,,,,,,,,,,,,,,,,,,,,,,,,,,,,,,,,,,,,,,,,,,,,,,,,,,,,,,,,,,,,,,,,,,,,,,,,,,,,,,,,,,,,,,,,,,,,,,,,,,,,,,,,,,,,,,,,,,,,,,
1725618185.170429,1725618185.169985,36.0,0.0,4255.641113,4246.410156,4280.769043,4286.666504,4220.384766,4218.589844,4233.461426,4211.153809,4218.846191,4204.743652,4525.897461,4519.102539,4372.563965,4442.820313,0.0,2.0,36.0,,,,0.0,4.0,4.0,4.0,4.0,4.0,4.0,4.0,4.0,4.0,4.0,4.0,4.0,4.0,4.0,100.0,,,,,,,,,,,,,,,,,,,,,,,,,,,,,,,,,,,,,,,,,,,,,,,,,,,,,,,,,,,,,,,,,,,,,,,,,,,,,,,,,,,,,,,,,,,,,,,,,,,,,,,,,,,,,,,,,,,,,,,,,,,,,,,,,,,
1725618185.174333,1725618185.173889,37.0,0.0,4259.230957,4249.358887,4281.794922,4288.205078,4220.897461,4217.692383,4234.615234,4216.153809,4218.077148,4208.846191,4531.025879,4524.358887,4376.538574,4444.615234,0.0,2.0,36.0,,,,0.0,4.0,4.0,4.0,4.0,4.0,4.0,4.0,4.0,4.0,4.0,4.0,4.0,4.0,4.0,100.0,,,,,,,,,,,,,,,,,,,,,,,,,,,,,,,,,,,,,,,,,,,,,,,,,,,,,,,,,,,,,,,,,,,,,,,,,,,,,,,,,,,,,,,,,,,,,,,,,,,,,,,,,,,,,,,,,,,,,,,,,,,,,,,,,,,
1725618185.178237,1725618185.177893,38.0,0.0,4260.384766,4251.538574,4280.897461,4287.563965,4221.410156,4216.794922,4235.0,4218.589844,4216.922852,4212.307617,4534.615234,4525.897461,4377.820313,4445.128418,0.0,2.0,36.0,,,,0.0,4.0,4.0,4.0,4.0,4.0,4.0,4.0,4.0,4.0,4.0,4.0,4.0,4.0,4.0,100.0,,,,,,,,,,,,,,,,,,,,,,,,,,,,,,,,,,,,,,,,,,,,,,,,,,,,,,,,,,,,,,,,,,,,,,,,,,,,,,,,,,,,,,,,,,,,,,,,,,,,,,,,,,,,,,,,,,,,,,,,,,,,,,,,,,,
1725618185.182141,1725618185.181797,39.0,0.0,4259.487305,4252.179688,4279.743652,4287.05127,4221.538574,4216.410156,4233.974121,4218.589844,4217.436035,4214.487305,4536.153809,4524.743652,4377.05127,4444.487305,0.0,2.0,36.0,,,,0.0,4.0,4.0,4.0,4.0,4.0,4.0,4.0,4.0,4.0,4.0,4.0,4.0,4.0,4.0,100.0,,,,,,,,,,,,,,,,,,,,,,,,,,,,,,,,,,,,,,,,,,,,,,,,,,,,,,,,,,,,,,,,,,,,,,,,,,,,,,,,,,,,,,,,,,,,,,,,,,,,,,,,,,,,,,,,,,,,,,,,,,,,,,,,,,,
1725618185.186046,1725618185.185701,40.0,0.0,4258.461426,4251.282227,4279.743652,4288.333496,4221.282227,4216.794922,4232.436035,4217.307617,4220.256348,4215.641113,4537.179688,4523.717773,4376.410156,4443.717773,0.0,2.0,36.0,,,,0.0,4.0,4.0,4.0,4.0,4.0,4.0,4.0,4.0,4.0,4.0,4.0,4.0,4.0,4.0,100.0,,,,,,,,,,,,,,,,,,,,,,,,,,,,,,,,,,,,,,,,,,,,,,,,,,,,,,,,,,,,,,,,,,,,,,,,,,,,,,,,,,,,,,,,,,,,,,,,,,,,,,,,,,,,,,,,,,,,,,,,,,,,,,,,,,,
1725618185.18995,1725618185.189606,41.0,0.0,4259.102539,4249.871582,4281.025879,4291.025879,4220.512695,4217.692383,4231.282227,4216.410156,4224.358887,4216.794922,4538.717773,4524.358887,4377.307617,4443.846191,0.0,2.0,36.0,,,,0.0,4.0,4.0,4.0,4.0,4.0,4.0,4.0,4.0,4.0,4.0,4.0,4.0,4.0,4.0,100.0,,,,,,,,,,,,,,,,,,,,,,,,,,,,,,,,,,,,,,,,,,,,,,,,,,,,,,,,,,,,,,,,,,,,,,,,,,,,,,,,,,,,,,,,,,,,,,,,,,,,,,,,,,,,,,,,,,,,,,,,,,,,,,,,,,,
1725618185.193854,1725618185.19351,42.0,0.0,4261.922852,4248.846191,4282.692383,4292.94873,4219.230957,4218.077148,4231.410156,4216.922852,4227.179688,4217.692383,4540.0,4526.282227,4378.589844,4445.128418,0.0,2.0,36.0,,,,0.0,4.0,4.0,4.0,4.0,4.0,4.0,4.0,4.0,4.0,4.0,4.0,4.0,4.0,4.0,100.0,,,,,,,,,,,,,,,,,,,,,,,,,,,,,,,,,,,,,,,,,,,,,,,,,,,,,,,,0.0,0.0,1.0,0.0,1.0,0.0,,,,,,,,,,,,,,,,,,,,,,,,,,,,,,,,,,,,,,,,,,,,,,,,,,,,,,,,,,,,,,,,,,,,,,
1725618185.197758,1725618185.197414,43.0,0.0,4265.0,4248.461426,4283.077148,4292.05127,4217.820313,4217.692383,4232.179688,4218.077148,4226.410156,4216.922852,4539.487305,4527.692383,4378.205078,4446.282227,0.0,2.0,36.0,,,,0.0,4.0,4.0,4.0,4.0,4.0,4.0,4.0,4.0,4.0,4.0,4.0,4.0,4.0,4.0,100.0,,,,,,,,,,,,,,,,,,,,,,,,,,,,,,,,,,,,,,,,,,,,,,,,,,,,,,,,,,,,,,,,,,,,,,,,,,,,,,,,,,,,,,,,,,,,,,,,,,,,,,,,,,,,,,,,,,,,,,,,,,,,,,,,,,,
1725618185.201662,1725618185.201218,44.0,0.0,4265.769043,4248.846191,4281.794922,4287.563965,4216.410156,4216.794922,4232.563965,4218.461426,4222.436035,4213.077148,4536.666504,4526.922852,4375.384766,4446.025879,0.0,2.0,36.0,,,,0.0,4.0,4.0,4.0,4.0,4.0,4.0,4.0,4.0,4.0,4.0,4.0,4.0,4.0,4.0,100.0,,,,,,,,,,,,,,,,,,,,,,,,,,,,,,,,,,,,,,,,,,,,,,,,,,,,,,,,,,,,,,,,,,,,,,,,,,,,,,,,,,,,,,,,,,,,,,,,,,,,,,,,,,,,,,,,,,,,,,,,,,,,,,,,,,,
1725618185.205566,1725618185.205122,45.0,0.0,4262.563965,4249.102539,4279.871582,4281.153809,4215.769043,4216.282227,4231.922852,4217.436035,4217.563965,4206.538574,4533.077148,4524.487305,4371.538574,4444.871582,0.0,2.0,36.0,,,,0.0,4.0,4.0,4.0,4.0,4.0,4.0,4.0,4.0,4.0,4.0,4.0,4.0,4.0,4.0,100.0,,,,,,,,,,,,,,,,,,,,,,,,,,,,,,,,,,,,,,,,,,,,,,,,,,,,,,,,,,,,,,,,,,,,,,,,,,,,,,,,,,,,,,,,,,,,,,,,,,,,,,,,,,,,,,,,,,,,,,,,,,,,,,,,,,,
1725618185.20947,1725618185.209026,46.0,0.0,4257.179688,4248.717773,4278.846191,4276.666504,4216.153809,4216.794922,4230.769043,4215.769043,4215.0,4200.769043,4530.641113,4522.563965,4369.102539,4443.974121,0.0,2.0,36.0,,,,0.0,4.0,4.0,4.0,4.0,4.0,4.0,4.0,4.0,4.0,4.0,4.0,4.0,4.0,4.0,100.0,,,,,,,,,,,,,,,,,,,,,,,,,,,,,,,,,,,,,,,,,,,,,,,,,,,,,,,,,,,,,,,,,,,,,,,,,,,,,,,,,,,,,,,,,,,,,,,,,,,,,,,,,,,,,,,,,,,,,,,,,,,,,,,,,,,
1725618185.213374,1725618185.21303,47.0,0.0,4252.692383,4246.666504,4279.487305,4276.666504,4216.922852,4218.077148,4230.641113,4215.384766,4215.512695,4198.974121,4531.153809,4522.820313,4370.128418,4444.871582,0.0,2.0,36.0,,,,0.0,4.0,4.0,4.0,4.0,4.0,4.0,4.0,4.0,4.0,4.0,4.0,4.0,4.0,4.0,100.0,,,,,,,,,,,,,,,,,,,,,,,,,,,,,,,,,,,,,,,,,,,,,,,,,,,,,,,,,,,,,,,,,,,,,,,,,,,,,,,,,,,,,,,,,,,,,,,,,,,,,,,,,,,,,,,,,,,,,,,,,,,,,,,,,,,
1725618185.217278,1725618185.216934,48.0,0.0,4251.538574,4242.692383,4281.025879,4280.897461,4217.820313,4219.487305,4231.794922,4216.666504,4218.077148,4201.922852,4533.974121,4525.0,4373.333496,4446.666504,0.0,2.0,36.0,,,,0.0,4.0,4.0,4.0,4.0,4.0,4.0,4.0,4.0,4.0,4.0,4.0,4.0,4.0,4.0,100.0,,,,,,,,,,,,,,,,,,,,,,,,,,,,,,,,,,,,,,,,,,,,,,,,,,,,,,,,,,,,,,,,,,,,,,,,,,,,,,,,,,,,,,,,,,,,,,,,,,,,,,,,,,,,,,,,,,,,,,,,,,,,,,,,,,,
1725618185.221182,1725618185.220838,49.0,0.0,4253.205078,4237.179688,4282.05127,4286.153809,4218.205078,4220.128418,4232.94873,4218.205078,4220.384766,4206.538574,4536.666504,4526.794922,4375.512695,4447.94873,0.0,2.0,36.0,,,,0.0,4.0,4.0,4.0,4.0,4.0,4.0,4.0,4.0,4.0,4.0,4.0,4.0,4.0,4.0,100.0,,,,,,,,,,,,,,,,,,,,,,,,,,,,,,,,,,,,,,,,,,,,,,,,,,,,,,,,,,,,,,,,,,,,,,,,,,,,,,,,,,,,,,,,,,,,,,,,,,,,,,,,,,,,,,,,,,,,,,,,,,,,,,,,,,,
1725618185.225087,1725618185.224742,50.0,0.0,4254.487305,4231.410156,4281.794922,4288.589844,4217.94873,4219.358887,4232.563965,4218.205078,4220.641113,4208.205078,4535.512695,4525.769043,4374.102539,4447.307617,0.0,2.0,36.0,,,,0.0,4.0,4.0,4.0,4.0,4.0,4.0,4.0,4.0,4.0,4.0,4.0,4.0,4.0,4.0,100.0,,,,,,,,,,,,,,,,,,,,,,,,,,,,,,,,,,,,,,,,,,,,,,,,,,,,,,,,0.0,0.0,1.0,0.0,1.0,0.0,,,,,,,,,,,,,,,,,,,,,,,,,,,,,,,,,,,,,,,,,,,,,,,,,,,,,,,,,,,,,,,,,,,,,,
1725618185.228991,1725618185.228746,51.0,0.0,4252.820313,4227.436035,4280.256348,4286.282227,4217.307617,4217.05127,4230.128418,4216.153809,4218.717773,4205.128418,4529.358887,4521.794922,4369.102539,4445.128418,0.0,2.0,36.0,,,,0.0,4.0,4.0,4.0,4.0,4.0,4.0,4.0,4.0,4.0,4.0,4.0,4.0,4.0,4.0,100.0,,,,,,,,,,,,,,,,,,,,,,,,,,,,,,,,,,,,,,,,,,,,,,,,,,,,,,,,,,,,,,,,,,,,,,,,,,,,,,,,,,,,,,,,,,,,,,,,,,,,,,,,,,,,,,,,,,,,,,,,,,,,,,,,,,,
1725618185.232895,1725618185.232651,52.0,0.0,4248.974121,4226.794922,4278.717773,4280.769043,4216.538574,4214.487305,4226.666504,4213.589844,4215.897461,4200.0,4520.897461,4517.820313,4363.846191,4442.820313,0.0,2.0,36.0,,,,0.0,4.0,4.0,4.0,4.0,4.0,4.0,4.0,4.0,4.0,4.0,4.0,4.0,4.0,4.0,100.0,,,,,,,,,,,,,,,,,,,,,,,,,,,,,,,,,,,,,,,,,,,,,,,,,,,,,,,,,,,,,,,,,,,,,,,,,,,,,,,,,,,,,,,,,,,,,,,,,,,,,,,,,,,,,,,,,,,,,,,,,,,,,,,,,,,
1725618185.236799,1725618185.236555,53.0,0.0,4246.794922,4230.0,4278.077148,4275.641113,4216.153809,4213.717773,4224.230957,4212.436035,4214.487305,4197.820313,4515.769043,4516.410156,4361.538574,4442.05127,0.0,2.0,36.0,,,,0.0,4.0,4.0,4.0,4.0,4.0,4.0,4.0,4.0,4.0,4.0,4.0,4.0,4.0,4.0,100.0,,,,,,,,,,,,,,,,,,,,,,,,,,,,,,,,,,,,,,,,,,,,,,,,,,,,,,,,,,,,,,,,,,,,,,,,,,,,,,,,,,,,,,,,,,,,,,,,,,,,,,,,,,,,,,,,,,,,,,,,,,,,,,,,,,,
1725618185.240703,1725618185.240459,54.0,0.0,4249.230957,4236.153809,4278.974121,4274.102539,4216.666504,4216.153809,4224.487305,4213.333496,4215.641113,4201.794922,4517.692383,4518.205078,4363.589844,4442.94873,0.0,2.0,36.0,,,,0.0,4.0,4.0,4.0,4.0,4.0,4.0,4.0,4.0,4.0,4.0,4.0,4.0,4.0,4.0,100.0,,,,,,,,,,,,,,,,,,,,,,,,,,,,,,,,,,,,,,,,,,,,,,,,,,,,,,,,,,,,,,,,,,,,,,,,,,,,,,,,,,,,,,,,,,,,,,,,,,,,,,,,,,,,,,,,,,,,,,,,,,,,,,,,,,,
1725618185.244607,1725618185.244263,55.0,0.0,4255.128418,4243.205078,4281.282227,4276.538574,4217.820313,4221.282227,4227.436035,4215.641113,4218.589844,4210.256348,4525.0,4521.538574,4367.692383,4444.871582,0.0,2.0,36.0,,,,0.0,4.0,4.0,4.0,4.0,4.0,4.0,4.0,4.0,4.0,4.0,4.0,4.0,4.0,4.0,100.0,,,,,,,,,,,,,,,,,,,,,,,,,,,,,,,,,,,,,,,,,,,,,,,,,,,,,,,,,,,,,,,,,,,,,,,,,,,,,,,,,,,,,,,,,,,,,,,,,,,,,,,,,,,,,,,,,,,,,,,,,,,,,,,,,,,
1725618185.248511,1725618185.248167,56.0,0.0,4260.512695,4248.846191,4283.974121,4280.641113,4218.589844,4227.563965,4231.153809,4217.436035,4221.410156,4218.333496,4531.794922,4524.230957,4371.025879,4446.538574,0.0,2.0,36.0,,,,0.0,4.0,4.0,4.0,4.0,4.0,4.0,4.0,4.0,4.0,4.0,4.0,4.0,4.0,4.0,100.0,,,,,,,,,,,,,,,,,,,,,,,,,,,,,,,,,,,,,,,,,,,,,,,,,,,,,,,,,,,,,,,,,,,,,,,,,,,,,,,,,,,,,,,,,,,,,,,,,,,,,,,,,,,,,,,,,,,,,,,,,,,,,,,,,,,
1725618185.252415,1725618185.252071,57.0,0.0,4262.05127,4251.282227,4285.641113,4283.974121,4218.589844,4232.563965,4233.461426,4217.436035,4223.077148,4221.922852,4533.077148,4525.512695,4372.307617,4447.307617,0.0,2.0,36.0,,,,0.0,4.0,4.0,4.0,4.0,4.0,4.0,4.0,4.0,4.0,4.0,4.0,4.0,4.0,4.0,100.0,,,,,,,,,,,,,,,,,,,,,,,,,,,,,,,,,,,,,,,,,,,,,,,,,,,,,,,,,,,,,,,,,,,,,,,,,,,,,,,,,,,,,,,,,,,,,,,,,,,,,,,,,,,,,,,,,,,,,,,,,,,,,,,,,,,
1725618185.256319,1725618185.256075,58.0,0.0,4259.230957,4249.743652,4285.512695,4285.0,4217.563965,4233.589844,4232.563965,4216.025879,4223.077148,4220.641113,4528.589844,4525.641113,4372.05127,4446.410156,0.0,2.0,36.0,,,,0.0,4.0,4.0,4.0,4.0,4.0,4.0,4.0,4.0,4.0,4.0,4.0,4.0,4.0,4.0,100.0,,,,,,,,,,,,,,,,,,,,,,,,,,,,,,,,,,,,,,,,,,,,,,,,,,,,,,,,0.0,0.0,1.0,0.0,1.0,0.0,,,,,,,,,,,,,,,,,,,,,,,,,,,,,,,,,,,,,,,,,,,,,,,,,,,,,,,,,,,,,,,,,,,,,,
1725618185.260224,1725618185.259979,59.0,0.0,4255.0,4244.743652,4283.461426,4283.974121,4216.282227,4229.615234,4228.846191,4213.974121,4221.538574,4217.05127,4522.307617,4524.487305,4372.05127,4444.230957,0.0,2.0,36.0,,,,0.0,4.0,4.0,4.0,4.0,4.0,4.0,4.0,4.0,4.0,4.0,4.0,4.0,4.0,4.0,100.0,,,,,,,,,,,,,,,,,,,,,,,,,,,,,,,,,,,,,,,,,,,,,,,,,,,,,,,,,,,,,,,,,,,,,,,,,,,,,,,,,,,,,,,,,,,,,,,,,,,,,,,,,,,,,,,,,,,,,,,,,,,,,,,,,,,
1725618185.264128,1725618185.263883,60.0,0.0,4253.205078,4239.358887,4281.282227,4282.05127,4215.512695,4222.94873,4224.487305,4212.692383,4219.615234,4214.358887,4520.0,4522.563965,4372.94873,4442.05127,0.0,2.0,36.0,,,,0.0,4.0,4.0,4.0,4.0,4.0,4.0,4.0,4.0,4.0,4.0,4.0,4.0,4.0,4.0,100.0,,,,,,,,,,,,,,,,,,,,,,,,,,,,,,,,,,,,,,,,,,,,,,,,,,,,,,,,,,,,,,,,,,,,,,,,,,,,,,,,,,,,,,,,,,,,,,,,,,,,,,,,,,,,,,,,,,,,,,,,,,,,,,,,,,,
1725618185.268032,1725618185.267788,61.0,0.0,4255.769043,4236.794922,4281.025879,4280.897461,4215.512695,4217.692383,4222.436035,4213.461426,4219.487305,4214.230957,4524.358887,4521.153809,4375.128418,4442.179688,0.0,2.0,36.0,,,,0.0,4.0,4.0,4.0,4.0,4.0,4.0,4.0,4.0,4.0,4.0,4.0,4.0,4.0,4.0,100.0,,,,,,,,,,,,,,,,,,,,,,,,,,,,,,,,,,,,,,,,,,,,,,,,,,,,,,,,,,,,,,,,,,,,,,,,,,,,,,,,,,,,,,,,,,,,,,,,,,,,,,,,,,,,,,,,,,,,,,,,,,,,,,,,,,,
1725618185.271936,1725618185.271792,62.0,0.0,4261.538574,4239.102539,4283.974121,4281.153809,4216.410156,4217.692383,4224.230957,4217.179688,4222.94873,4216.410156,4533.461426,4521.794922,4378.333496,4445.897461,0.0,2.0,36.0,,,,0.0,4.0,4.0,4.0,4.0,4.0,4.0,4.0,4.0,4.0,4.0,4.0,4.0,4.0,4.0,100.0,,,,,,,,,,,,,,,,,,,,,,,,,,,,,,,,,,,,,,,,,,,,,,,,,,,,,,,,,,,,,,,,,,,,,,,,,,,,,,,,,,,,,,,,,,,,,,,,,,,,,,,,,,,,,,,,,,,,,,,,,,,,,,,,,,,
1725618185.27584,1725618185.275696,63.0,0.0,4266.666504,4244.743652,4289.358887,4282.307617,4217.563965,4222.94873,4228.333496,4222.05127,4228.846191,4219.230957,4541.794922,4525.0,4381.794922,4452.307617,0.0,2.0,36.0,,,,0.0,4.0,4.0,4.0,4.0,4.0,4.0,4.0,4.0,4.0,4.0,4.0,4.0,4.0,4.0,100.0,,,,,,,,,,,,,,,,,,,,,,,,,,,,,,,,,,,,,,,,,,,,,,,,,,,,,,,,,,,,,,,,,,,,,,,,,,,,,,,,,,,,,,,,,,,,,,,,,,,,,,,,,,,,,,,,,,,,,,,,,,,,,,,,,,,
1725618185.279744,1725618185.2796,64.0,0.0,4267.820313,4249.615234,4294.102539,4282.94873,4218.461426,4229.487305,4231.153809,4224.743652,4234.230957,4220.512695,4544.102539,4528.974121,4384.230957,4457.94873,0.0,2.0,36.0,,,,0.0,4.0,4.0,4.0,4.0,4.0,4.0,4.0,4.0,4.0,4.0,4.0,4.0,4.0,4.0,100.0,,,,,,,,,,,,,,,,,,,,,,,,,,,,,,,,,,,,,,,,,,,,,,,,,,,,,,,,,,,,,,,,,,,,,,,,,,,,,,,,,,,,,,,,,,,,,,,,,,,,,,,,,,,,,,,,,,,,,,,,,,,,,,,,,,,
1725618185.283648,1725618185.283604,65.0,0.0,4264.743652,4249.615234,4295.384766,4282.307617,4218.205078,4232.307617,4230.128418,4222.307617,4235.641113,4219.615234,4538.717773,4530.641113,4383.974121,4459.743652,0.0,2.0,36.0,,,,0.0,4.0,4.0,4.0,4.0,4.0,4.0,4.0,4.0,4.0,4.0,4.0,4.0,4.0,4.0,100.0,,,,,,,,,,,,,,,,,,,,,,,,,,,,,,,,,,,,,,,,,,,,,,,,,,,,,,,,,,,,,,,,,,,,,,,,,,,,,,,,,,,,,,,,,,,,,,,,,,,,,,,,,,,,,,,,,,,,,,,,,,,,,,,,,,,
1725618185.287552,1725618185.287508,66.0,0.0,4259.102539,4243.846191,4292.307617,4280.641113,4217.05127,4229.102539,4225.769043,4215.641113,4232.179688,4217.179688,4528.974121,4528.717773,4380.512695,4456.666504,0.0,2.0,36.0,,,,0.0,4.0,4.0,4.0,4.0,4.0,4.0,4.0,4.0,4.0,4.0,4.0,4.0,4.0,4.0,100.0,1.0,100.0,4.0,4.0,4.0,4.0,4.0,4.0,4.0,4.0,4.0,4.0,4.0,4.0,4.0,4.0,1.0,0.0,0.0,,,,,,,,,,,,,,,,,,,,,,,,,,,,,,,,,,,,,0.0,0.0,1.0,0.0,1.0,0.0,1.629668,1.665359,0.815712,0.630589,0.120513,2.633269,2.042246,0.66082,0.426831,0.150723,1.596922,1.00106,0.56638,0.453705,0.116715,1.988956,1.421505,0.423132,0.463656,0.098175,0.466701,0.640152,0.2276,0.166374,0.040571,0.546561,0.30575,0.34121,0.244063,0.058354,0.452907,0.580987,0.219031,0.135927,0.054468,1.00618,2.429347,1.801037,0.725096,0.570803,0.913641,1.599027,0.950603,0.377183,0.135078,1.607665,1.27393,1.168935,0.649359,0.125575,1.506777,2.163285,1.180832,0.838134,0.223718,1.705015,2.262264,1.824656,1.021885,0.18675,1.93955,2.045763,1.122456,0.511649,0.183342,1.06711,1.902877,0.894674,0.629347,0.143667
1725618185.291456,1725618185.291412,67.0,0.0,4253.717773,4235.641113,4286.538574,4278.846191,4215.512695,4221.666504,4221.153809,4209.230957,4226.025879,4214.871582,4521.153809,4524.743652,4375.256348,4450.641113,0.0,2.0,36.0,,,,0.0,4.0,4.0,4.0,4.0,4.0,4.0,4.0,4.0,4.0,4.0,4.0,4.0,4.0,4.0,100.0,,,,,,,,,,,,,,,,,,,,,,,,,,,,,,,,,,,,,,,,,,,,,,,,,,,,,,,,,,,,,,,,,,,,,,,,,,,,,,,,,,,,,,,,,,,,,,,,,,,,,,,,,,,,,,,,,,,,,,,,,,,,,,,,,,,
1725618185.29536,1725618185.295316,68.0,0.0,4250.256348,4229.487305,4280.769043,4277.692383,4214.615234,4214.615234,4219.102539,4207.563965,4220.384766,4213.717773,4519.487305,4521.410156,4370.128418,4445.384766,0.0,2.0,36.0,,,,0.0,4.0,4.0,4.0,4.0,4.0,4.0,4.0,4.0,4.0,4.0,4.0,4.0,4.0,4.0,100.0,,,,,,,,,,,,,,,,,,,,,,,,,,,,,,,,,,,,,,,,,,,,,,,,,,,,,,,,,,,,,,,,,,,,,,,,,,,,,,,,,,,,,,,,,,,,,,,,,,,,,,,,,,,,,,,,,,,,,,,,,,,,,,,,,,,
1725618185.299265,1725618185.29922,69.0,0.0,4249.102539,4228.461426,4277.692383,4277.563965,4214.743652,4211.794922,4220.897461,4211.025879,4217.820313,4213.974121,4522.563965,4520.256348,4366.794922,4443.589844,0.0,2.0,36.0,,,,0.0,4.0,4.0,4.0,4.0,4.0,4.0,4.0,4.0,4.0,4.0,4.0,4.0,4.0,4.0,100.0,,,,,,,,,,,,,,,,,,,,,,,,,,,,,,,,,,,,,,,,,,,,,,,,,,,,,,,,,,,,,,,,,,,,,,,,,,,,,,,,,,,,,,,,,,,,,,,,,,,,,,,,,,,,,,,,,,,,,,,,,,,,,,,,,,,
1725618185.303169,1725618185.303224,70.0,0.0,4249.230957,4231.282227,4277.563965,4277.94873,4215.512695,4213.461426,4225.641113,4215.769043,4218.077148,4214.871582,4525.384766,4520.512695,4365.641113,4445.0,0.0,2.0,36.0,,,,0.0,4.0,4.0,4.0,4.0,4.0,4.0,4.0,4.0,4.0,4.0,4.0,4.0,4.0,4.0,100.0,,,,,,,,,,,,,,,,,,,,,,,,,,,,,,,,,,,,,,,,,,,,,,,,,,,,,,,,,,,,,,,,,,,,,,,,,,,,,,,,,,,,,,,,,,,,,,,,,,,,,,,,,,,,,,,,,,,,,,,,,,,,,,,,,,,
1725618185.307073,1725618185.307128,71.0,0.0,4249.487305,4234.358887,4278.717773,4278.461426,4216.153809,4217.179688,4230.0,4216.538574,4219.358887,4215.256348,4524.487305,4520.128418,4366.153809,4447.307617,0.0,2.0,36.0,,,,0.0,4.0,4.0,4.0,4.0,4.0,4.0,4.0,4.0,4.0,4.0,4.0,4.0,4.0,4.0,100.0,,,,,,,,,,,,,,,,,,,,,,,,,,,,,,,,,,,,,,,,,,,,,,,,,,,,,,,,,,,,,,,,,,,,,,,,,,,,,,,,,,,,,,,,,,,,,,,,,,,,,,,,,,,,,,,,,,,,,,,,,,,,,,,,,,,
1725618185.310977,1725618185.311032,72.0,0.0,4249.230957,4234.615234,4278.717773,4278.077148,4216.153809,4219.615234,4231.538574,4210.897461,4219.743652,4213.846191,4519.871582,4516.794922,4367.05127,4447.563965,0.0,2.0,36.0,,,,0.0,4.0,4.0,4.0,4.0,4.0,4.0,4.0,4.0,4.0,4.0,4.0,4.0,4.0,4.0,100.0,,,,,,,,,,,,,,,,,,,,,,,,,,,,,,,,,,,,,,,,,,,,,,,,,,,,,,,,,,,,,,,,,,,,,,,,,,,,,,,,,,,,,,,,,,,,,,,,,,,,,,,,,,,,,,,,,,,,,,,,,,,,,,,,,,,
1725618185.314881,1725618185.314936,73.0,0.0,4248.333496,4231.794922,4276.538574,4276.922852,4215.897461,4218.846191,4229.871582,4201.538574,4218.589844,4209.487305,4514.615234,4510.769043,4367.307617,4445.128418,0.0,2.0,36.0,,,,0.0,4.0,4.0,4.0,4.0,4.0,4.0,4.0,4.0,4.0,4.0,4.0,4.0,4.0,4.0,100.0,,,,,,,,,,,,,,,,,,,,,,,,,,,,,,,,,,,,,,,,,,,,,,,,,,,,,,,,,,,,,,,,,,,,,,,,,,,,,,,,,,,,,,,,,,,,,,,,,,,,,,,,,,,,,,,,,,,,,,,,,,,,,,,,,,,
1725618185.318785,1725618185.318741,74.0,0.0,4246.922852,4228.333496,4272.820313,4275.769043,4215.512695,4215.769043,4227.05127,4193.846191,4216.794922,4203.077148,4510.641113,4504.230957,4366.666504,4441.282227,0.0,2.0,36.0,,,,0.0,4.0,4.0,4.0,4.0,4.0,4.0,4.0,4.0,4.0,4.0,4.0,4.0,4.0,4.0,100.0,,,,,,,,,,,,,,,,,,,,,,,,,,,,,,,,,,,,,,,,,,,,,,,,,,,,,,,,0.0,0.0,1.0,0.0,1.0,0.0,,,,,,,,,,,,,,,,,,,,,,,,,,,,,,,,,,,,,,,,,,,,,,,,,,,,,,,,,,,,,,,,,,,,,,
1725618185.322689,1725618185.322645,75.0,0.0,4245.641113,4226.922852,4269.871582,4275.384766,4215.512695,4212.692383,4225.641113,4192.436035,4215.512695,4197.692383,4508.974121,4500.512695,4365.769043,4438.461426,0.0,2.0,36.0,,,,0.0,4.0,4.0,4.0,4.0,4.0,4.0,4.0,4.0,4.0,4.0,4.0,4.0,4.0,4.0,100.0,,,,,,,,,,,,,,,,,,,,,,,,,,,,,,,,,,,,,,,,,,,,,,,,,,,,,,,,,,,,,,,,,,,,,,,,,,,,,,,,,,,,,,,,,,,,,,,,,,,,,,,,,,,,,,,,,,,,,,,,,,,,,,,,,,,
1725618185.326593,1725618185.326549,76.0,0.0,4244.743652,4228.077148,4269.487305,4275.641113,4215.897461,4211.794922,4226.666504,4197.307617,4215.512695,4196.153809,4509.358887,4501.282227,4365.256348,4438.077148,0.0,2.0,36.0,,,,0.0,4.0,4.0,4.0,4.0,4.0,4.0,4.0,4.0,4.0,4.0,4.0,4.0,4.0,4.0,100.0,,,,,,,,,,,,,,,,,,,,,,,,,,,,,,,,,,,,,,,,,,,,,,,,,,,,,,,,,,,,,,,,,,,,,,,,,,,,,,,,,,,,,,,,,,,,,,,,,,,,,,,,,,,,,,,,,,,,,,,,,,,,,,,,,,,
1725618185.330497,1725618185.330453,77.0,0.0,4245.128418,4230.0,4271.666504,4276.538574,4216.794922,4213.589844,4229.230957,4204.230957,4216.794922,4199.230957,4511.025879,4505.512695,4365.128418,4439.615234,0.0,2.0,36.0,,,,0.0,4.0,4.0,4.0,4.0,4.0,4.0,4.0,4.0,4.0,4.0,4.0,4.0,4.0,4.0,100.0,,,,,,,,,,,,,,,,,,,,,,,,,,,,,,,,,,,,,,,,,,,,,,,,,,,,,,,,,,,,,,,,,,,,,,,,,,,,,,,,,,,,,,,,,,,,,,,,,,,,,,,,,,,,,,,,,,,,,,,,,,,,,,,,,,,
1725618185.334401,1725618185.334257,78.0,0.0,4246.538574,4230.641113,4275.256348,4277.307617,4217.820313,4216.666504,4231.538574,4207.820313,4217.820313,4204.358887,4512.820313,4510.641113,4365.0,4441.153809,0.0,2.0,36.0,,,,0.0,4.0,4.0,4.0,4.0,4.0,4.0,4.0,4.0,4.0,4.0,4.0,4.0,4.0,4.0,100.0,,,,,,,,,,,,,,,,,,,,,,,,,,,,,,,,,,,,,,,,,,,,,,,,,,,,,,,,,,,,,,,,,,,,,,,,,,,,,,,,,,,,,,,,,,,,,,,,,,,,,,,,,,,,,,,,,,,,,,,,,,,,,,,,,,,
1725618185.338306,1725618185.338161,79.0,0.0,4248.077148,4229.615234,4278.589844,4277.820313,4218.589844,4219.230957,4232.179688,4206.025879,4217.563965,4207.820313,4514.230957,4514.358887,4364.743652,4441.538574,0.0,2.0,36.0,,,,0.0,4.0,4.0,4.0,4.0,4.0,4.0,4.0,4.0,4.0,4.0,4.0,4.0,4.0,4.0,100.0,,,,,,,,,,,,,,,,,,,,,,,,,,,,,,,,,,,,,,,,,,,,,,,,,,,,,,,,,,,,,,,,,,,,,,,,,,,,,,,,,,,,,,,,,,,,,,,,,,,,,,,,,,,,,,,,,,,,,,,,,,,,,,,,,,,
1725618185.34221,1725618185.342065,80.0,0.0,4248.589844,4228.461426,4280.897461,4278.077148,4218.461426,4220.641113,4231.282227,4201.666504,4216.282227,4207.563965,4515.769043,4516.282227,4365.0,4441.538574,0.0,2.0,36.0,,,,0.0,4.0,4.0,4.0,4.0,4.0,4.0,4.0,4.0,4.0,4.0,4.0,4.0,4.0,4.0,100.0,,,,,,,,,,,,,,,,,,,,,,,,,,,,,,,,,,,,,,,,,,,,,,,,,,,,,,,,,,,,,,,,,,,,,,,,,,,,,,,,,,,,,,,,,,,,,,,,,,,,,,,,,,,,,,,,,,,,,,,,,,,,,,,,,,,
1725618185.346114,1725618185.345969,81.0,0.0,4248.077148,4229.102539,4282.436035,4278.461426,4217.563965,4221.153809,4229.871582,4199.487305,4215.256348,4204.871582,4518.717773,4517.820313,4367.179688,4442.94873,0.0,2.0,36.0,,,,0.0,4.0,4.0,4.0,4.0,4.0,4.0,4.0,4.0,4.0,4.0,4.0,4.0,4.0,4.0,100.0,,,,,,,,,,,,,,,,,,,,,,,,,,,,,,,,,,,,,,,,,,,,,,,,,,,,,,,,,,,,,,,,,,,,,,,,,,,,,,,,,,,,,,,,,,,,,,,,,,,,,,,,,,,,,,,,,,,,,,,,,,,,,,,,,,,
1725618185.350018,1725618185.349774,82.0,0.0,4247.820313,4231.538574,4284.102539,4279.102539,4216.410156,4220.769043,4228.974121,4202.05127,4215.897461,4202.820313,4523.077148,4519.358887,4371.410156,4446.538574,0.0,2.0,36.0,,,,0.0,4.0,4.0,4.0,4.0,4.0,4.0,4.0,4.0,4.0,4.0,4.0,4.0,4.0,4.0,100.0,,,,,,,,,,,,,,,,,,,,,,,,,,,,,,,,,,,,,,,,,,,,,,,,,,,,,,,,0.0,0.0,1.0,0.0,1.0,0.0,,,,,,,,,,,,,,,,,,,,,,,,,,,,,,,,,,,,,,,,,,,,,,,,,,,,,,,,,,,,,,,,,,,,,,
1725618185.353922,1725618185.353678,83.0,0.0,4248.846191,4234.358887,4286.153809,4279.615234,4215.384766,4219.615234,4228.589844,4207.436035,4217.94873,4203.974121,4527.820313,4520.897461,4376.794922,4451.282227,0.0,2.0,36.0,,,,0.0,4.0,4.0,4.0,4.0,4.0,4.0,4.0,4.0,4.0,4.0,4.0,4.0,4.0,4.0,100.0,,,,,,,,,,,,,,,,,,,,,,,,,,,,,,,,,,,,,,,,,,,,,,,,,,,,,,,,,,,,,,,,,,,,,,,,,,,,,,,,,,,,,,,,,,,,,,,,,,,,,,,,,,,,,,,,,,,,,,,,,,,,,,,,,,,
1725618185.357826,1725618185.357582,84.0,0.0,4251.538574,4235.512695,4288.205078,4279.487305,4215.0,4218.333496,4228.846191,4212.179688,4220.128418,4208.589844,4531.794922,4522.05127,4381.282227,4455.897461,0.0,2.0,36.0,,,,0.0,4.0,4.0,4.0,4.0,4.0,4.0,4.0,4.0,4.0,4.0,4.0,4.0,4.0,4.0,100.0,,,,,,,,,,,,,,,,,,,,,,,,,,,,,,,,,,,,,,,,,,,,,,,,,,,,,,,,,,,,,,,,,,,,,,,,,,,,,,,,,,,,,,,,,,,,,,,,,,,,,,,,,,,,,,,,,,,,,,,,,,,,,,,,,,,
1725618185.36173,1725618185.361586,85.0,0.0,4255.384766,4234.871582,4290.512695,4279.487305,4215.512695,4217.820313,4229.358887,4215.0,4221.410156,4214.487305,4535.641113,4523.717773,4383.846191,4458.974121,0.0,2.0,36.0,,,,0.0,4.0,4.0,4.0,4.0,4.0,4.0,4.0,4.0,4.0,4.0,4.0,4.0,4.0,4.0,100.0,,,,,,,,,,,,,,,,,,,,,,,,,,,,,,,,,,,,,,,,,,,,,,,,,,,,,,,,,,,,,,,,,,,,,,,,,,,,,,,,,,,,,,,,,,,,,,,,,,,,,,,,,,,,,,,,,,,,,,,,,,,,,,,,,,,
1725618185.365635,1725618185.36549,86.0,0.0,4258.717773,4233.717773,4292.692383,4280.256348,4216.282227,4218.333496,4229.615234,4217.05127,4221.922852,4218.717773,4539.871582,4526.410156,4385.256348,4460.512695,0.0,2.0,36.0,,,,0.0,4.0,4.0,4.0,4.0,4.0,4.0,4.0,4.0,4.0,4.0,4.0,4.0,4.0,4.0,100.0,,,,,,,,,,,,,,,,,,,,,,,,,,,,,,,,,,,,,,,,,,,,,,,,,,,,,,,,,,,,,,,,,,,,,,,,,,,,,,,,,,,,,,,,,,,,,,,,,,,,,,,,,,,,,,,,,,,,,,,,,,,,,,,,,,,
1725618185.369539,1725618185.369394,87.0,0.0,4260.256348,4233.077148,4294.487305,4282.05127,4216.794922,4218.846191,4228.333496,4218.846191,4221.666504,4219.743652,4543.461426,4529.102539,4385.641113,4460.641113,0.0,2.0,36.0,,,,0.0,4.0,4.0,4.0,4.0,4.0,4.0,4.0,4.0,4.0,4.0,4.0,4.0,4.0,4.0,100.0,,,,,,,,,,,,,,,,,,,,,,,,,,,,,,,,,,,,,,,,,,,,,,,,,,,,,,,,,,,,,,,,,,,,,,,,,,,,,,,,,,,,,,,,,,,,,,,,,,,,,,,,,,,,,,,,,,,,,,,,,,,,,,,,,,,
1725618185.373443,1725618185.373298,88.0,0.0,4260.0,4233.077148,4294.487305,4283.461426,4216.282227,4218.461426,4224.871582,4218.589844,4220.897461,4218.077148,4543.205078,4529.230957,4384.615234,4459.743652,0.0,2.0,36.0,,,,0.0,4.0,4.0,4.0,4.0,4.0,4.0,4.0,4.0,4.0,4.0,4.0,4.0,4.0,4.0,100.0,,,,,,,,,,,,,,,,,,,,,,,,,,,,,,,,,,,,,,,,,,,,,,,,,,,,,,,,,,,,,,,,,,,,,,,,,,,,,,,,,,,,,,,,,,,,,,,,,,,,,,,,,,,,,,,,,,,,,,,,,,,,,,,,,,,
1725618185.377347,1725618185.377302,89.0,0.0,4258.846191,4233.333496,4292.307617,4283.333496,4214.743652,4216.794922,4220.0,4214.230957,4220.128418,4215.897461,4537.307617,4526.282227,4381.922852,4458.333496,0.0,2.0,36.0,,,,0.0,4.0,4.0,4.0,4.0,4.0,4.0,4.0,4.0,4.0,4.0,4.0,4.0,4.0,4.0,100.0,,,,,,,,,,,,,,,,,,,,,,,,,,,,,,,,,,,,,,,,,,,,,,,,,,,,,,,,,,,,,,,,,,,,,,,,,,,,,,,,,,,,,,,,,,,,,,,,,,,,,,,,,,,,,,,,,,,,,,,,,,,,,,,,,,,
1725618185.381251,1725618185.381206,90.0,0.0,4258.717773,4234.102539,4289.358887,4281.794922,4213.333496,4214.487305,4216.538574,4206.666504,4219.743652,4215.512695,4528.333496,4522.179688,4378.974121,4457.563965,0.0,2.0,36.0,,,,0.0,4.0,4.0,4.0,4.0,4.0,4.0,4.0,4.0,4.0,4.0,4.0,4.0,4.0,4.0,100.0,,,,,,,,,,,,,,,,,,,,,,,,,,,,,,,,,,,,,,,,,,,,,,,,,,,,,,,,0.0,0.0,1.0,0.0,1.0,0.0,,,,,,,,,,,,,,,,,,,,,,,,,,,,,,,,,,,,,,,,,,,,,,,,,,,,,,,,,,,,,,,,,,,,,,
1725618185.385155,1725618185.38511,91.0,0.0,4260.641113,4235.769043,4287.05127,4280.641113,4213.333496,4213.205078,4216.538574,4199.487305,4219.871582,4217.307617,4522.563965,4519.487305,4378.333496,4457.692383,0.0,2.0,36.0,,,,0.0,4.0,4.0,4.0,4.0,4.0,4.0,4.0,4.0,4.0,4.0,4.0,4.0,4.0,4.0,100.0,,,,,,,,,,,,,,,,,,,,,,,,,,,,,,,,,,,,,,,,,,,,,,,,,,,,,,,,,,,,,,,,,,,,,,,,,,,,,,,,,,,,,,,,,,,,,,,,,,,,,,,,,,,,,,,,,,,,,,,,,,,,,,,,,,,
1725618185.389059,1725618185.389114,92.0,0.0,4263.717773,4238.589844,4286.922852,4281.153809,4214.743652,4213.461426,4220.512695,4196.153809,4219.743652,4219.871582,4524.230957,4518.974121,4381.410156,4458.717773,0.0,2.0,36.0,,,,0.0,4.0,4.0,4.0,4.0,4.0,4.0,4.0,4.0,4.0,4.0,4.0,4.0,4.0,4.0,100.0,,,,,,,,,,,,,,,,,,,,,,,,,,,,,,,,,,,,,,,,,,,,,,,,,,,,,,,,,,,,,,,,,,,,,,,,,,,,,,,,,,,,,,,,,,,,,,,,,,,,,,,,,,,,,,,,,,,,,,,,,,,,,,,,,,,
1725618185.392963,1725618185.393019,93.0,0.0,4265.897461,4241.153809,4288.461426,4283.205078,4217.05127,4215.128418,4226.666504,4197.820313,4219.358887,4221.025879,4531.666504,4519.871582,4387.436035,4459.743652,0.0,2.0,36.0,,,,0.0,4.0,4.0,4.0,4.0,4.0,4.0,4.0,4.0,4.0,4.0,4.0,4.0,4.0,4.0,100.0,,,,,,,,,,,,,,,,,,,,,,,,,,,,,,,,,,,,,,,,,,,,,,,,,,,,,,,,,,,,,,,,,,,,,,,,,,,,,,,,,,,,,,,,,,,,,,,,,,,,,,,,,,,,,,,,,,,,,,,,,,,,,,,,,,,
1725618185.396867,1725618185.396923,94.0,0.0,4265.769043,4242.05127,4290.512695,4285.641113,4218.589844,4217.179688,4231.922852,4203.077148,4219.230957,4220.128418,4538.974121,4521.922852,4392.94873,4460.256348,0.0,2.0,36.0,,,,0.0,4.0,4.0,4.0,4.0,4.0,4.0,4.0,4.0,4.0,4.0,4.0,4.0,4.0,4.0,100.0,,,,,,,,,,,,,,,,,,,,,,,,,,,,,,,,,,,,,,,,,,,,,,,,,,,,,,,,,,,,,,,,,,,,,,,,,,,,,,,,,,,,,,,,,,,,,,,,,,,,,,,,,,,,,,,,,,,,,,,,,,,,,,,,,,,
1725618185.400772,1725618185.400827,95.0,0.0,4263.846191,4240.897461,4291.794922,4286.794922,4218.717773,4218.589844,4234.102539,4208.974121,4219.487305,4217.692383,4540.384766,4525.641113,4394.230957,4459.871582,0.0,2.0,36.0,,,,0.0,4.0,4.0,4.0,4.0,4.0,4.0,4.0,4.0,4.0,4.0,4.0,4.0,4.0,4.0,100.0,,,,,,,,,,,,,,,,,,,,,,,,,,,,,,,,,,,,,,,,,,,,,,,,,,,,,,,,,,,,,,,,,,,,,,,,,,,,,,,,,,,,,,,,,,,,,,,,,,,,,,,,,,,,,,,,,,,,,,,,,,,,,,,,,,,
1725618185.404676,1725618185.404731,96.0,0.0,4261.922852,4238.717773,4292.307617,4286.025879,4217.820313,4218.717773,4232.94873,4213.077148,4220.0,4215.769043,4535.256348,4530.769043,4390.384766,4458.974121,0.0,2.0,36.0,,,,0.0,4.0,4.0,4.0,4.0,4.0,4.0,4.0,4.0,4.0,4.0,4.0,4.0,4.0,4.0,100.0,,,,,,,,,,,,,,,,,,,,,,,,,,,,,,,,,,,,,,,,,,,,,,,,,,,,,,,,,,,,,,,,,,,,,,,,,,,,,,,,,,,,,,,,,,,,,,,,,,,,,,,,,,,,,,,,,,,,,,,,,,,,,,,,,,,
1725618185.40858,1725618185.408735,97.0,0.0,4261.922852,4237.94873,4292.563965,4283.846191,4216.794922,4218.077148,4230.256348,4213.974121,4219.615234,4214.871582,4527.05127,4535.128418,4383.717773,4458.205078,0.0,2.0,36.0,,,,0.0,4.0,4.0,4.0,4.0,4.0,4.0,4.0,4.0,4.0,4.0,4.0,4.0,4.0,4.0,100.0,,,,,,,,,,,,,,,,,,,,,,,,,,,,,,,,,,,,,,,,,,,,,,,,,,,,,,,,,,,,,,,,,,,,,,,,,,,,,,,,,,,,,,,,,,,,,,,,,,,,,,,,,,,,,,,,,,,,,,,,,,,,,,,,,,,
1725618185.412484,1725618185.412639,98.0,0.0,4263.077148,4239.615234,4292.436035,4281.666504,4216.282227,4217.436035,4228.077148,4212.436035,4218.589844,4215.0,4521.410156,4535.384766,4378.461426,4457.563965,0.0,2.0,36.0,,,,0.0,4.0,4.0,4.0,4.0,4.0,4.0,4.0,4.0,4.0,4.0,4.0,4.0,4.0,4.0,100.0,,,,,,,,,,,,,,,,,1.0,0.0,0.0,,,,,,,,,,,,,,,,,,,,,,,,,,,,,,,,,,,,,0.0,0.0,1.0,0.0,1.0,0.0,1.495873,1.633341,0.699057,0.600195,0.116236,2.434525,1.876126,0.58076,0.411416,0.130059,1.505364,1.33552,0.482256,0.46468,0.108974,1.931192,1.494091,0.362918,0.465519,0.099662,0.553715,0.665094,0.25453,0.164452,0.038543,0.533738,0.405699,0.315466,0.208914,0.055054,0.448614,0.546847,0.198806,0.132235,0.050515,0.875608,3.080564,2.009878,0.609369,0.573819,1.113635,1.844008,0.942819,0.36339,0.140492,1.654232,1.633648,1.241654,0.564724,0.137051,1.449442,2.668714,1.046559,0.812201,0.210194,1.624747,2.940225,1.734825,1.018862,0.184357,1.939396,2.058089,1.058985,0.551513,0.157105,1.056577,2.410531,0.786202,0.624051,0.136421
1725618185.416388,1725618185.416543,99.0,0.0,4263.589844,4242.692383,4291.666504,4280.256348,4216.153809,4217.307617,4227.563965,4210.256348,4217.436035,4215.256348,4522.179688,4530.641113,4376.666504,4456.794922,0.0,2.0,36.0,,,,0.0,4.0,4.0,4.0,4.0,4.0,4.0,4.0,4.0,4.0,4.0,4.0,4.0,4.0,4.0,100.0,,,,,,,,,,,,,,,,,,,,,,,,,,,,,,,,,,,,,,,,,,,,,,,,,,,,,,,,,,,,,,,,,,,,,,,,,,,,,,,,,,,,,,,,,,,,,,,,,,,,,,,,,,,,,,,,,,,,,,,,,,,,,,,,,,,
1725618185.420292,1725618185.420447,100.0,0.0,4262.820313,4245.128418,4289.871582,4280.0,4216.153809,4217.179688,4228.461426,4210.128418,4218.077148,4215.384766,4529.102539,4524.358887,4378.077148,4456.153809,0.0,2.0,36.0,,,,0.0,4.0,4.0,4.0,4.0,4.0,4.0,4.0,4.0,4.0,4.0,4.0,4.0,4.0,4.0,100.0,,,,,,,,,,,,,,,,,,,,,,,,,,,,,,,,,,,,,,,,,,,,,,,,,,,,,,,,,,,,,,,,,,,,,,,,,,,,,,,,,,,,,,,,,,,,,,,,,,,,,,,,,,,,,,,,,,,,,,,,,,,,,,,,,,,
1725618185.424196,1725618185.424251,101.0,0.0,4262.05127,4245.641113,4287.563965,4280.769043,4216.538574,4217.05127,4230.0,4213.077148,4221.666504,4215.641113,4538.333496,4521.410156,4381.282227,4456.666504,0.0,2.0,36.0,,,,0.0,4.0,4.0,4.0,4.0,4.0,4.0,4.0,4.0,4.0,4.0,4.0,4.0,4.0,4.0,100.0,,,,,,,,,,,,,,,,,,,,,,,,,,,,,,,,,,,,,,,,,,,,,,,,,,,,,,,,,,,,,,,,,,,,,,,,,,,,,,,,,,,,,,,,,,,,,,,,,,,,,,,,,,,,,,,,,,,,,,,,,,,,,,,,,,,
1725618185.4281,1725618185.428155,102.0,0.0,4262.692383,4244.871582,4285.769043,4282.179688,4217.307617,4217.179688,4231.666504,4217.94873,4227.436035,4216.153809,4544.358887,4524.487305,4384.487305,4458.589844,0.0,2.0,36.0,,,,0.0,4.0,4.0,4.0,4.0,4.0,4.0,4.0,4.0,4.0,4.0,4.0,4.0,4.0,4.0,100.0,,,,,,,,,,,,,,,,,,,,,,,,,,,,,,,,,,,,,,,,,,,,,,,,,,,,,,,,,,,,,,,,,,,,,,,,,,,,,,,,,,,,,,,,,,,,,,,,,,,,,,,,,,,,,,,,,,,,,,,,,,,,,,,,,,,
1725618185.432004,1725618185.43206,103.0,0.0,4264.102539,4243.589844,4284.487305,4283.077148,4217.820313,4218.205078,4232.179688,4221.538574,4232.436035,4216.410156,4543.717773,4530.512695,4386.538574,4460.384766,0.0,2.0,36.0,,,,0.0,4.0,4.0,4.0,4.0,4.0,4.0,4.0,4.0,4.0,4.0,4.0,4.0,4.0,4.0,100.0,,,,,,,,,,,,,,,,,,,,,,,,,,,,,,,,,,,,,,,,,,,,,,,,,,,,,,,,,,,,,,,,,,,,,,,,,,,,,,,,,,,,,,,,,,,,,,,,,,,,,,,,,,,,,,,,,,,,,,,,,,,,,,,,,,,
1725618185.435908,1725618185.436064,104.0,0.0,4263.974121,4242.436035,4282.820313,4282.563965,4216.922852,4220.384766,4231.153809,4220.769043,4233.333496,4215.384766,4537.307617,4534.102539,4387.307617,4459.871582,0.0,2.0,36.0,,,,0.0,4.0,4.0,4.0,4.0,4.0,4.0,4.0,4.0,4.0,4.0,4.0,4.0,4.0,4.0,100.0,,,,,,,,,,,,,,,,,,,,,,,,,,,,,,,,,,,,,,,,,,,,,,,,,,,,,,,,,,,,,,,,,,,,,,,,,,,,,,,,,,,,,,,,,,,,,,,,,,,,,,,,,,,,,,,,,,,,,,,,,,,,,,,,,,,
1725618185.439813,1725618185.439968,105.0,0.0,4261.410156,4241.410156,4280.256348,4280.641113,4215.0,4223.717773,4229.358887,4216.153809,4230.0,4213.589844,4530.256348,4532.307617,4387.692383,4456.922852,0.0,2.0,36.0,,,,0.0,4.0,4.0,4.0,4.0,4.0,4.0,4.0,4.0,4.0,4.0,4.0,4.0,4.0,4.0,100.0,,,,,,,,,,,,,,,,,,,,,,,,,,,,,,,,,,,,,,,,,,,,,,,,,,,,,,,,,,,,,,,,,,,,,,,,,,,,,,,,,,,,,,,,,,,,,,,,,,,,,,,,,,,,,,,,,,,,,,,,,,,,,,,,,,,
1725618185.443717,1725618185.443872,106.0,0.0,4258.333496,4241.538574,4278.461426,4278.974121,4214.102539,4227.692383,4228.333496,4211.282227,4226.153809,4213.205078,4528.461426,4527.692383,4390.0,4454.743652,0.0,2.0,36.0,,,,0.0,4.0,4.0,4.0,4.0,4.0,4.0,4.0,4.0,4.0,4.0,4.0,4.0,4.0,4.0,100.0,,,,,,,,,,,,,,,,,,,,,,,,,,,,,,,,,,,,,,,,,,,,,,,,,,,,,,,,0.0,0.0,1.0,0.0,1.0,0.0,,,,,,,,,,,,,,,,,,,,,,,,,,,,,,,,,,,,,,,,,,,,,,,,,,,,,,,,,,,,,,,,,,,,,,
1725618185.447621,1725618185.447776,107.0,0.0,4257.692383,4243.717773,4279.615234,4280.0,4216.666504,4232.05127,4230.128418,4211.025879,4226.410156,4216.922852,4534.487305,4526.153809,4395.641113,4456.666504,0.0,2.0,36.0,,,,0.0,4.0,4.0,4.0,4.0,4.0,4.0,4.0,4.0,4.0,4.0,4.0,4.0,4.0,4.0,100.0,,,,,,,,,,,,,,,,,,,,,,,,,,,,,,,,,,,,,,,,,,,,,,,,,,,,,,,,,,,,,,,,,,,,,,,,,,,,,,,,,,,,,,,,,,,,,,,,,,,,,,,,,,,,,,,,,,,,,,,,,,,,,,,,,,,
1725618185.451525,1725618185.45178,108.0,0.0,4260.897461,4247.94873,4284.615234,4284.743652,4222.692383,4235.512695,4234.615234,4216.794922,4232.563965,4225.256348,4546.282227,4531.538574,4403.717773,4463.974121,0.0,2.0,36.0,,,,0.0,4.0,4.0,4.0,4.0,4.0,4.0,4.0,4.0,4.0,4.0,4.0,4.0,4.0,4.0,100.0,,,,,,,,,,,,,,,,,,,,,,,,,,,,,,,,,,,,,,,,,,,,,,,,,,,,,,,,,,,,,,,,,,,,,,,,,,,,,,,,,,,,,,,,,,,,,,,,,,,,,,,,,,,,,,,,,,,,,,,,,,,,,,,,,,,
1725618185.455429,1725618185.455684,109.0,0.0,4266.153809,4253.205078,4291.538574,4291.410156,4229.487305,4237.179688,4239.358887,4225.897461,4241.282227,4234.615234,4558.461426,4541.410156,4411.410156,4473.333496,0.0,2.0,36.0,,,,0.0,4.0,4.0,4.0,4.0,4.0,4.0,4.0,4.0,4.0,4.0,4.0,4.0,4.0,4.0,100.0,,,,,,,,,,,,,,,,,,,,,,,,,,,,,,,,,,,,,,,,,,,,,,,,,,,,,,,,,,,,,,,,,,,,,,,,,,,,,,,,,,,,,,,,,,,,,,,,,,,,,,,,,,,,,,,,,,,,,,,,,,,,,,,,,,,
1725618185.459333,1725618185.459588,110.0,0.0,4270.256348,4256.666504,4296.538574,4296.538574,4233.205078,4236.153809,4241.282227,4232.436035,4246.410156,4239.615234,4564.487305,4548.846191,4414.743652,4478.974121,0.0,2.0,36.0,,,,0.0,4.0,4.0,4.0,4.0,4.0,4.0,4.0,4.0,4.0,4.0,4.0,4.0,4.0,4.0,100.0,,,,,,,,,,,,,,,,,,,,,,,,,,,,,,,,,,,,,,,,,,,,,,,,,,,,,,,,,,,,,,,,,,,,,,,,,,,,,,,,,,,,,,,,,,,,,,,,,,,,,,,,,,,,,,,,,,,,,,,,,,,,,,,,,,,
1725618185.463237,1725618185.463492,111.0,0.0,4270.384766,4256.666504,4297.05127,4297.563965,4231.282227,4233.461426,4239.102539,4232.94873,4243.717773,4237.05127,4561.025879,4548.461426,4411.538574,4476.922852,0.0,2.0,36.0,,,,0.0,4.0,4.0,4.0,4.0,4.0,4.0,4.0,4.0,4.0,4.0,4.0,4.0,4.0,4.0,100.0,,,,,,,,,,,,,,,,,,,,,,,,,,,,,,,,,,,,,,,,,,,,,,,,,,,,,,,,,,,,,,,,,,,,,,,,,,,,,,,,,,,,,,,,,,,,,,,,,,,,,,,,,,,,,,,,,,,,,,,,,,,,,,,,,,,
1725618185.467141,1725618185.467496,112.0,0.0,4267.05127,4253.205078,4293.333496,4295.0,4224.871582,4231.025879,4234.230957,4228.205078,4234.743652,4228.077148,4550.384766,4541.410156,4403.461426,4468.461426,0.0,2.0,36.0,,,,0.0,4.0,4.0,4.0,4.0,4.0,4.0,4.0,4.0,4.0,4.0,4.0,4.0,4.0,4.0,100.0,,,,,,,,,,,,,,,,,,,,,,,,,,,,,,,,,,,,,,,,,,,,,,,,,,,,,,,,,,,,,,,,,,,,,,,,,,,,,,,,,,,,,,,,,,,,,,,,,,,,,,,,,,,,,,,,,,,,,,,,,,,,,,,,,,,
1725618185.471045,1725618185.4714,113.0,0.0,4263.461426,4248.974121,4289.102539,4291.666504,4217.563965,4230.512695,4230.0,4222.94873,4226.410156,4218.077148,4539.615234,4534.487305,4395.512695,4459.743652,0.0,2.0,36.0,,,,0.0,4.0,4.0,4.0,4.0,4.0,4.0,4.0,4.0,4.0,4.0,4.0,4.0,4.0,4.0,100.0,,,,,,,,,,,,,,,,,,,,,,,,,,,,,,,,,,,,,,,,,,,,,,,,,,,,,,,,,,,,,,,,,,,,,,,,,,,,,,,,,,,,,,,,,,,,,,,,,,,,,,,,,,,,,,,,,,,,,,,,,,,,,,,,,,,
1725618185.474949,1725618185.475304,114.0,0.0,4262.436035,4246.666504,4287.94873,4290.641113,4213.205078,4231.282227,4229.102539,4221.666504,4224.487305,4212.563965,4535.0,4533.461426,4392.307617,4456.538574,0.0,2.0,36.0,,,,0.0,4.0,4.0,4.0,4.0,4.0,4.0,4.0,4.0,4.0,4.0,4.0,4.0,4.0,4.0,100.0,,,,,,,,,,,,,,,,,,,,,,,,,,,,,,,,,,,,,,,,,,,,,,,,,,,,,,,,0.0,0.0,1.0,0.0,1.0,0.0,,,,,,,,,,,,,,,,,,,,,,,,,,,,,,,,,,,,,,,,,,,,,,,,,,,,,,,,,,,,,,,,,,,,,,
1725618185.478854,1725618185.479209,115.0,0.0,4263.333496,4246.922852,4290.384766,4291.922852,4213.461426,4231.410156,4231.153809,4223.846191,4228.717773,4213.205078,4537.307617,4536.538574,4393.846191,4459.230957,0.0,2.0,36.0,,,,0.0,4.0,4.0,4.0,4.0,4.0,4.0,4.0,4.0,4.0,4.0,4.0,4.0,4.0,4.0,100.0,,,,,,,,,,,,,,,,,,,,,,,,,,,,,,,,,,,,,,,,,,,,,,,,,,,,,,,,,,,,,,,,,,,,,,,,,,,,,,,,,,,,,,,,,,,,,,,,,,,,,,,,,,,,,,,,,,,,,,,,,,,,,,,,,,,
1725618185.482758,1725618185.483013,116.0,0.0,4263.077148,4248.461426,4292.692383,4292.820313,4216.410156,4228.461426,4233.589844,4223.717773,4233.205078,4216.922852,4541.282227,4537.436035,4396.153809,4462.820313,0.0,2.0,36.0,,,,0.0,4.0,4.0,4.0,4.0,4.0,4.0,4.0,4.0,4.0,4.0,4.0,4.0,4.0,4.0,100.0,,,,,,,,,,,,,,,,,,,,,,,,,,,,,,,,,,,,,,,,,,,,,,,,,,,,,,,,,,,,,,,,,,,,,,,,,,,,,,,,,,,,,,,,,,,,,,,,,,,,,,,,,,,,,,,,,,,,,,,,,,,,,,,,,,,
1725618185.486662,1725618185.486917,117.0,0.0,4259.871582,4249.871582,4290.769043,4290.897461,4219.358887,4222.94873,4233.717773,4216.025879,4231.922852,4218.974121,4540.641113,4531.153809,4395.0,4462.05127,0.0,2.0,36.0,,,,0.0,4.0,4.0,4.0,4.0,4.0,4.0,4.0,4.0,4.0,4.0,4.0,4.0,4.0,4.0,100.0,,,,,,,,,,,,,,,,,,,,,,,,,,,,,,,,,,,,,,,,,,,,,,,,,,,,,,,,,,,,,,,,,,,,,,,,,,,,,,,,,,,,,,,,,,,,,,,,,,,,,,,,,,,,,,,,,,,,,,,,,,,,,,,,,,,
1725618185.490566,1725618185.490821,118.0,0.0,4254.487305,4251.025879,4284.358887,4286.410156,4220.128418,4217.05127,4231.538574,4202.05127,4224.102539,4216.538574,4533.974121,4519.358887,4389.871582,4455.641113,0.0,2.0,36.0,,,,0.0,4.0,4.0,4.0,4.0,4.0,4.0,4.0,4.0,4.0,4.0,4.0,4.0,4.0,4.0,100.0,,,,,,,,,,,,,,,,,,,,,,,,,,,,,,,,,,,,,,,,,,,,,,,,,,,,,,,,,,,,,,,,,,,,,,,,,,,,,,,,,,,,,,,,,,,,,,,,,,,,,,,,,,,,,,,,,,,,,,,,,,,,,,,,,,,
1725618185.49447,1725618185.494825,119.0,0.0,4250.0,4253.333496,4277.563965,4282.94873,4218.974121,4213.461426,4228.974121,4189.743652,4215.0,4211.538574,4526.025879,4509.358887,4384.615234,4448.077148,0.0,2.0,36.0,,,,0.0,4.0,4.0,4.0,4.0,4.0,4.0,4.0,4.0,4.0,4.0,4.0,4.0,4.0,4.0,100.0,,,,,,,,,,,,,,,,,,,,,,,,,,,,,,,,,,,,,,,,,,,,,,,,,,,,,,,,,,,,,,,,,,,,,,,,,,,,,,,,,,,,,,,,,,,,,,,,,,,,,,,,,,,,,,,,,,,,,,,,,,,,,,,,,,,
1725618185.498374,1725618185.498729,120.0,0.0,4249.102539,4257.436035,4275.512695,4283.205078,4217.307617,4213.077148,4228.077148,4188.077148,4211.922852,4208.333496,4523.205078,4507.692383,4384.102539,4445.128418,0.0,2.0,36.0,,,,0.0,4.0,4.0,4.0,4.0,4.0,4.0,4.0,4.0,4.0,4.0,4.0,4.0,4.0,4.0,100.0,,,,,,,,,,,,,,,,,,,,,,,,,,,,,,,,,,,,,,,,,,,,,,,,,,,,,,,,,,,,,,,,,,,,,,,,,,,,,,,,,,,,,,,,,,,,,,,,,,,,,,,,,,,,,,,,,,,,,,,,,,,,,,,,,,,
1725618185.502278,1725618185.502633,121.0,0.0,4251.282227,4262.05127,4279.487305,4287.436035,4216.666504,4215.512695,4229.230957,4198.717773,4217.436035,4209.871582,4528.077148,4514.743652,4389.487305,4449.487305,0.0,2.0,36.0,,,,0.0,4.0,4.0,4.0,4.0,4.0,4.0,4.0,4.0,4.0,4.0,4.0,4.0,4.0,4.0,100.0,,,,,,,,,,,,,,,,,,,,,,,,,,,,,,,,,,,,,,,,,,,,,,,,,,,,,,,,,,,,,,,,,,,,,,,,,,,,,,,,,,,,,,,,,,,,,,,,,,,,,,,,,,,,,,,,,,,,,,,,,,,,,,,,,,,
1725618185.506182,1725618185.506637,122.0,0.0,4253.717773,4265.128418,4286.025879,4292.820313,4217.563965,4218.589844,4230.512695,4213.717773,4227.436035,4215.128418,4536.794922,4525.0,4397.307617,4457.820313,0.0,2.0,36.0,,,,0.0,4.0,4.0,4.0,4.0,4.0,4.0,4.0,4.0,4.0,4.0,4.0,4.0,4.0,4.0,100.0,,,,,,,,,,,,,,,,,,,,,,,,,,,,,,,,,,,,,,,,,,,,,,,,,,,,,,,,0.0,0.0,1.0,0.0,1.0,0.0,,,,,,,,,,,,,,,,,,,,,,,,,,,,,,,,,,,,,,,,,,,,,,,,,,,,,,,,,,,,,,,,,,,,,,
1725618185.510086,1725618185.510541,123.0,0.0,4254.230957,4265.769043,4290.0,4295.769043,4219.358887,4219.871582,4230.384766,4222.307617,4233.846191,4219.358887,4543.205078,4531.282227,4402.692383,4464.487305,0.0,2.0,36.0,,,,0.0,4.0,4.0,4.0,4.0,4.0,4.0,4.0,4.0,4.0,4.0,4.0,4.0,4.0,4.0,100.0,,,,,,,,,,,,,,,,,,,,,,,,,,,,,,,,,,,,,,,,,,,,,,,,,,,,,,,,,,,,,,,,,,,,,,,,,,,,,,,,,,,,,,,,,,,,,,,,,,,,,,,,,,,,,,,,,,,,,,,,,,,,,,,,,,,
1725618185.513991,1725618185.514445,124.0,0.0,4253.461426,4265.256348,4288.846191,4295.384766,4220.897461,4218.461426,4228.333496,4219.102539,4231.922852,4219.230957,4543.333496,4530.384766,4402.94873,4465.512695,0.0,2.0,36.0,,,,0.0,4.0,4.0,4.0,4.0,4.0,4.0,4.0,4.0,4.0,4.0,4.0,4.0,4.0,4.0,100.0,,,,,,,,,,,,,,,,,,,,,,,,,,,,,,,,,,,,,,,,,,,,,,,,,,,,,,,,,,,,,,,,,,,,,,,,,,,,,,,,,,,,,,,,,,,,,,,,,,,,,,,,,,,,,,,,,,,,,,,,,,,,,,,,,,,
1725618185.517895,1725618185.518349,125.0,0.0,4253.846191,4266.410156,4284.487305,4293.589844,4221.666504,4215.897461,4226.666504,4208.333496,4223.717773,4215.769043,4539.230957,4525.128418,4399.871582,4462.179688,0.0,2.0,36.0,,,,0.0,4.0,4.0,4.0,4.0,4.0,4.0,4.0,4.0,4.0,4.0,4.0,4.0,4.0,4.0,100.0,,,,,,,,,,,,,,,,,,,,,,,,,,,,,,,,,,,,,,,,,,,,,,,,,,,,,,,,,,,,,,,,,,,,,,,,,,,,,,,,,,,,,,,,,,,,,,,,,,,,,,,,,,,,,,,,,,,,,,,,,,,,,,,,,,,
1725618185.521799,1725618185.522254,126.0,0.0,4257.179688,4271.025879,4280.897461,4293.461426,4222.05127,4214.871582,4227.05127,4199.615234,4216.282227,4212.436035,4535.512695,4520.769043,4397.179688,4458.461426,0.0,2.0,36.0,,,,0.0,4.0,4.0,4.0,4.0,4.0,4.0,4.0,4.0,4.0,4.0,4.0,4.0,4.0,4.0,100.0,,,,,,,,,,,,,,,,,,,,,,,,,,,,,,,,,,,,,,,,,,,,,,,,,,,,,,,,,,,,,,,,,,,,,,,,,,,,,,,,,,,,,,,,,,,,,,,,,,,,,,,,,,,,,,,,,,,,,,,,,,,,,,,,,,,
1725618185.525703,1725618185.526158,127.0,0.0,4262.563965,4277.05127,4280.384766,4295.769043,4222.436035,4217.05127,4229.230957,4200.128418,4215.256348,4213.077148,4535.897461,4521.153809,4396.794922,4457.179688,0.0,2.0,36.0,,,,0.0,4.0,4.0,4.0,4.0,4.0,4.0,4.0,4.0,4.0,4.0,4.0,4.0,4.0,4.0,100.0,,,,,,,,,,,,,,,,,,,,,,,,,,,,,,,,,,,,,,,,,,,,,,,,,,,,,,,,,,,,,,,,,,,,,,,,,,,,,,,,,,,,,,,,,,,,,,,,,,,,,,,,,,,,,,,,,,,,,,,,,,,,,,,,,,,
1725618185.529607,1725618185.529962,128.0,0.0,4266.922852,4281.538574,4282.563965,4298.846191,4222.820313,4221.538574,4231.922852,4209.102539,4221.282227,4218.205078,4540.0,4526.410156,4398.205078,4458.717773,2611.0,2.0,36.0,,,,0.0,4.0,4.0,4.0,4.0,4.0,4.0,4.0,4.0,4.0,4.0,4.0,4.0,4.0,4.0,100.0,,,,,,,,,,,,,,,,,,,,,,,,,,,,,,,,,,,,,,,,,,,,,,,,,,,,,,,,,,,,,,,,,,,,,,,,,,,,,,,,,,,,,,,,,,,,,,,,,,,,,,,,,,,,,,,,,,,,,,,,,,,,,,,,,,,
1725618185.533511,1725618185.533866,129.0,0.0,4268.205078,4282.563965,4285.769043,4300.384766,4223.717773,4226.538574,4233.461426,4219.358887,4230.0,4225.384766,4544.230957,4533.589844,4399.615234,4461.666504,2558.0,2.0,36.0,,,,0.0,4.0,4.0,4.0,4.0,4.0,4.0,4.0,4.0,4.0,4.0,4.0,4.0,4.0,4.0,100.0,,,,,,,,,,,,,,,,,,,,,,,,,,,,,,,,,,,,,,,,,,,,,,,,,,,,,,,,,,,,,,,,,,,,,,,,,,,,,,,,,,,,,,,,,,,,,,,,,,,,,,,,,,,,,,,,,,,,,,,,,,,,,,,,,,,
1725618185.537415,1725618185.53787,130.0,0.0,4266.538574,4281.282227,4288.974121,4299.487305,4225.512695,4230.641113,4233.589844,4223.974121,4235.769043,4231.538574,4545.897461,4538.717773,4399.743652,4464.230957,2448.0,2.0,36.0,,,,0.0,4.0,4.0,4.0,4.0,4.0,4.0,4.0,4.0,4.0,4.0,4.0,4.0,4.0,4.0,100.0,,,,,,,,,,,,,,,,,1.0,0.0,0.0,,,,,,,,,,,,,,,,,,,,,,,,,,,,,,,,,,,,,0.0,0.0,1.0,0.0,1.0,0.0,1.346493,1.651466,0.597904,0.57117,0.114722,2.128268,1.691612,0.533845,0.390689,0.11154,1.449239,1.772668,0.419955,0.489407,0.099672,1.901578,1.580365,0.324805,0.480159,0.099923,0.653988,0.69156,0.314908,0.164622,0.035171,0.510451,0.524856,0.283833,0.166478,0.053031,0.428266,0.509248,0.192817,0.140137,0.049776,0.807611,3.786379,2.195777,0.491095,0.58455,1.320768,2.164865,0.947446,0.361373,0.15226,1.784521,2.098568,1.345145,0.494057,0.145658,1.494855,3.271684,0.923414,0.798013,0.213067,1.753095,3.83115,1.595317,1.026241,0.198461,2.055683,2.124896,1.010729,0.603862,0.133717,1.173963,2.984408,0.706998,0.63448,0.130711
1725618185.541319,1725618185.541774,131.0,0.0,4263.974121,4280.128418,4292.179688,4297.692383,4228.077148,4233.205078,4233.333496,4221.666504,4236.538574,4234.102539,4544.487305,4540.256348,4397.820313,4465.641113,2449.0,2.0,36.0,,,,0.0,4.0,4.0,4.0,4.0,4.0,4.0,4.0,4.0,4.0,4.0,4.0,4.0,4.0,4.0,100.0,,,,,,,,,,,,,,,,,,,,,,,,,,,,,,,,,,,,,,,,,,,,,,,,,,,,,,,,,,,,,,,,,,,,,,,,,,,,,,,,,,,,,,,,,,,,,,,,,,,,,,,,,,,,,,,,,,,,,,,,,,,,,,,,,,,
1725618185.545223,1725618185.545678,132.0,0.0,4262.692383,4279.871582,4294.358887,4296.666504,4230.769043,4234.102539,4233.461426,4217.307617,4234.102539,4233.333496,4542.307617,4539.358887,4393.974121,4465.641113,2414.0,2.0,36.0,,,,0.0,4.0,4.0,4.0,4.0,4.0,4.0,4.0,4.0,4.0,4.0,4.0,4.0,4.0,4.0,100.0,,,,,,,,,,,,,,,,,,,,,,,,,,,,,,,,,,,,,,,,,,,,,,,,,,,,,,,,,,,,,,,,,,,,,,,,,,,,,,,,,,,,,,,,,,,,,,,,,,,,,,,,,,,,,,,,,,,,,,,,,,,,,,,,,,,
1725618185.549127,1725618185.549582,133.0,0.0,4262.94873,4280.128418,4294.615234,4296.794922,4232.307617,4233.589844,4234.230957,4216.922852,4231.794922,4230.769043,4541.410156,4538.589844,4388.717773,4465.0,2391.0,2.0,36.0,,,,0.0,4.0,4.0,4.0,4.0,4.0,4.0,4.0,4.0,4.0,4.0,4.0,4.0,4.0,4.0,100.0,,,,,,,,,,,,,,,,,,,,,,,,,,,,,,,,,,,,,,,,,,,,,,,,,,,,,,,,,,,,,,,,,,,,,,,,,,,,,,,,,,,,,,,,,,,,,,,,,,,,,,,,,,,,,,,,,,,,,,,,,,,,,,,,,,,
1725618185.553032,1725618185.553486,134.0,0.0,4263.717773,4279.743652,4292.436035,4297.563965,4231.922852,4232.436035,4234.871582,4222.436035,4231.410156,4228.974121,4541.666504,4539.102539,4382.307617,4463.846191,2165.0,2.0,36.0,,,,0.0,4.0,4.0,4.0,4.0,4.0,4.0,4.0,4.0,4.0,4.0,4.0,4.0,4.0,4.0,100.0,,,,,,,,,,,,,,,,,,,,,,,,,,,,,,,,,,,,,,,,,,,,,,,,,,,,,,,,,,,,,,,,,,,,,,,,,,,,,,,,,,,,,,,,,,,,,,,,,,,,,,,,,,,,,,,,,,,,,,,,,,,,,,,,,,,
1725618185.556936,1725618185.557391,135.0,0.0,4263.333496,4278.589844,4288.461426,4297.820313,4229.615234,4231.538574,4234.871582,4229.102539,4232.307617,4228.974121,4541.794922,4540.256348,4376.153809,4462.563965,2503.0,2.0,36.0,,,,0.0,4.0,4.0,4.0,4.0,4.0,4.0,4.0,4.0,4.0,4.0,4.0,4.0,4.0,4.0,100.0,,,,,,,,,,,,,,,,,,,,,,,,,,,,,,,,,,,,,,,,,,,,,,,,,,,,,,,,,,,,,,,,,,,,,,,,,,,,,,,,,,,,,,,,,,,,,,,,,,,,,,,,,,,,,,,,,,,,,,,,,,,,,,,,,,,
1725618185.56084,1725618185.561195,136.0,0.0,4261.922852,4277.179688,4284.743652,4297.307617,4226.025879,4231.666504,4234.102539,4230.0,4232.692383,4230.512695,4541.025879,4540.0,4372.179688,4461.153809,2473.0,2.0,36.0,,,,0.0,4.0,4.0,4.0,4.0,4.0,4.0,4.0,4.0,4.0,4.0,4.0,4.0,4.0,4.0,100.0,,,,,,,,,,,,,,,,,,,,,,,,,,,,,,,,,,,,,,,,,,,,,,,,,,,,,,,,,,,,,,,,,,,,,,,,,,,,,,,,,,,,,,,,,,,,,,,,,,,,,,,,,,,,,,,,,,,,,,,,,,,,,,,,,,,
1725618185.564744,1725618185.565099,137.0,0.0,4260.897461,4276.794922,4282.436035,4296.282227,4222.05127,4231.794922,4232.692383,4222.307617,4231.794922,4232.307617,4539.615234,4536.666504,4371.282227,4460.128418,2558.0,2.0,36.0,,,,0.0,4.0,4.0,4.0,4.0,4.0,4.0,4.0,4.0,4.0,4.0,4.0,4.0,4.0,4.0,100.0,,,,,,,,,,,,,,,,,,,,,,,,,,,,,,,,,,,,,,,,,,,,,,,,,,,,,,,,,,,,,,,,,,,,,,,,,,,,,,,,,,,,,,,,,,,,,,,,,,,,,,,,,,,,,,,,,,,,,,,,,,,,,,,,,,,
1725618185.568648,1725618185.569003,138.0,0.0,4261.153809,4277.436035,4282.179688,4295.256348,4219.102539,4230.512695,4231.410156,4209.358887,4230.0,4233.077148,4538.461426,4530.641113,4372.05127,4458.974121,2890.0,2.0,36.0,,,,0.0,4.0,4.0,4.0,4.0,4.0,4.0,4.0,4.0,4.0,4.0,4.0,4.0,4.0,4.0,100.0,,,,,,,,,,,,,,,,,,,,,,,,,,,,,,,,,,,,,,,,,,,,,,,,,,,,,,,,0.0,0.0,1.0,0.0,1.0,0.0,,,,,,,,,,,,,,,,,,,,,,,,,,,,,,,,,,,,,,,,,,,,,,,,,,,,,,,,,,,,,,,,,,,,,,
1725618185.572552,1725618185.573007,139.0,0.0,4262.179688,4278.846191,4283.077148,4294.487305,4217.436035,4226.922852,4230.897461,4198.205078,4228.461426,4232.692383,4537.436035,4523.846191,4371.538574,4457.692383,3064.0,2.0,36.0,,,,0.0,4.0,4.0,4.0,4.0,4.0,4.0,4.0,4.0,4.0,4.0,4.0,4.0,4.0,4.0,100.0,,,,,,,,,,,,,,,,,,,,,,,,,,,,,,,,,,,,,,,,,,,,,,,,,,,,,,,,,,,,,,,,,,,,,,,,,,,,,,,,,,,,,,,,,,,,,,,,,,,,,,,,,,,,,,,,,,,,,,,,,,,,,,,,,,,
1725618185.576456,1725618185.576911,140.0,0.0,4263.077148,4279.743652,4283.333496,4293.846191,4217.179688,4222.05127,4231.025879,4193.333496,4228.974121,4231.538574,4536.282227,4519.102539,4367.692383,4456.282227,3411.0,2.0,36.0,,,,0.0,4.0,4.0,4.0,4.0,4.0,4.0,4.0,4.0,4.0,4.0,4.0,4.0,4.0,4.0,100.0,,,,,,,,,,,,,,,,,,,,,,,,,,,,,,,,,,,,,,,,,,,,,,,,,,,,,,,,,,,,,,,,,,,,,,,,,,,,,,,,,,,,,,,,,,,,,,,,,,,,,,,,,,,,,,,,,,,,,,,,,,,,,,,,,,,
1725618185.58036,1725618185.580815,141.0,0.0,4263.589844,4279.487305,4282.692383,4293.333496,4218.077148,4217.692383,4231.410156,4193.846191,4231.282227,4230.384766,4534.743652,4518.589844,4361.794922,4455.769043,3891.0,2.0,36.0,,,,0.0,4.0,4.0,4.0,4.0,4.0,4.0,4.0,4.0,4.0,4.0,4.0,4.0,4.0,4.0,100.0,,,,,,,,,,,,,,,,,,,,,,,,,,,,,,,,,,,,,,,,,,,,,,,,,,,,,,,,,,,,,,,,,,,,,,,,,,,,,,,,,,,,,,,,,,,,,,,,,,,,,,,,,,,,,,,,,,,,,,,,,,,,,,,,,,,
1725618185.584264,1725618185.584719,142.0,0.0,4263.333496,4278.717773,4282.05127,4293.333496,4219.358887,4215.512695,4231.666504,4196.538574,4234.358887,4229.743652,4534.102539,4522.05127,4357.563965,4456.025879,2890.0,2.0,36.0,,,,0.0,4.0,4.0,4.0,4.0,4.0,4.0,4.0,4.0,4.0,4.0,4.0,4.0,4.0,4.0,100.0,,,,,,,,,,,,,,,,,,,,,,,,,,,,,,,,,,,,,,,,,,,,,,,,,,,,,,,,,,,,,,,,,,,,,,,,,,,,,,,,,,,,,,,,,,,,,,,,,,,,,,,,,,,,,,,,,,,,,,,,,,,,,,,,,,,
1725618185.588169,1725618185.588523,143.0,0.0,4262.692383,4277.94873,4283.846191,4294.487305,4220.128418,4215.769043,4231.666504,4198.717773,4237.05127,4229.871582,4535.897461,4526.794922,4357.820313,4456.666504,3064.0,2.0,36.0,,,,0.0,4.0,4.0,4.0,4.0,4.0,4.0,4.0,4.0,4.0,4.0,4.0,4.0,4.0,4.0,100.0,,,,,,,,,,,,,,,,,,,,,,,,,,,,,,,,,,,,,,,,,,,,,,,,,,,,,,,,,,,,,,,,,,,,,,,,,,,,,,,,,,,,,,,,,,,,,,,,,,,,,,,,,,,,,,,,,,,,,,,,,,,,,,,,,,,
1725618185.592073,1725618185.592428,144.0,0.0,4262.05127,4277.692383,4288.461426,4297.05127,4220.256348,4217.307617,4231.666504,4201.153809,4239.871582,4230.769043,4541.025879,4531.025879,4362.307617,4457.820313,3411.0,2.0,36.0,,,,0.0,4.0,4.0,4.0,4.0,4.0,4.0,4.0,4.0,4.0,4.0,4.0,4.0,4.0,4.0,100.0,,,,,,,,,,,,,,,,,,,,,,,,,,,,,,,,,,,,,,,,,,,,,,,,,,,,,,,,,,,,,,,,,,,,,,,,,,,,,,,,,,,,,,,,,,,,,,,,,,,,,,,,,,,,,,,,,,,,,,,,,,,,,,,,,,,
1725618185.595977,1725618185.596332,145.0,0.0,4262.05127,4278.461426,4294.230957,4300.256348,4220.128418,4219.230957,4231.922852,4205.512695,4244.487305,4232.692383,4547.820313,4535.256348,4367.307617,4459.871582,3891.0,2.0,36.0,,,,0.0,4.0,4.0,4.0,4.0,4.0,4.0,4.0,4.0,4.0,4.0,4.0,4.0,4.0,4.0,100.0,,,,,,,,,,,,,,,,,,,,,,,,,,,,,,,,,,,,,,,,,,,,,,,,,,,,,,,,,,,,,,,,,,,,,,,,,,,,,,,,,,,,,,,,,,,,,,,,,,,,,,,,,,,,,,,,,,,,,,,,,,,,,,,,,,,
1725618185.599881,1725618185.600336,146.0,0.0,4263.717773,4280.0,4297.94873,4302.436035,4220.512695,4220.769043,4232.820313,4212.436035,4251.794922,4235.0,4553.589844,4540.256348,4368.589844,4462.563965,2890.0,2.0,36.0,,,,0.0,4.0,4.0,4.0,4.0,4.0,4.0,4.0,4.0,4.0,4.0,4.0,4.0,4.0,4.0,100.0,,,,,,,,,,,,,,,,,,,,,,,,,,,,,,,,,,,,,,,,,,,,,,,,,,,,,,,,0.0,0.0,1.0,0.0,1.0,0.0,,,,,,,,,,,,,,,,,,,,,,,,,,,,,,,,,,,,,,,,,,,,,,,,,,,,,,,,,,,,,,,,,,,,,,
1725618185.603785,1725618185.60424,147.0,0.0,4265.897461,4281.410156,4296.922852,4302.563965,4221.153809,4221.282227,4233.717773,4219.615234,4259.615234,4236.025879,4555.128418,4544.487305,4364.102539,4464.615234,3064.0,2.0,36.0,,,,0.0,4.0,4.0,4.0,4.0,4.0,4.0,4.0,4.0,4.0,4.0,4.0,4.0,4.0,4.0,100.0,,,,,,,,,,,,,,,,,,,,,,,,,,,,,,,,,,,,,,,,,,,,,,,,,,,,,,,,,,,,,,,,,,,,,,,,,,,,,,,,,,,,,,,,,,,,,,,,,,,,,,,,,,,,,,,,,,,,,,,,,,,,,,,,,,,
1725618185.607689,1725618185.608144,148.0,0.0,4266.282227,4281.282227,4291.282227,4300.512695,4221.282227,4220.897461,4233.846191,4223.077148,4263.846191,4234.358887,4551.538574,4544.615234,4355.0,4464.102539,3411.0,2.0,36.0,,,,0.0,4.0,4.0,4.0,4.0,4.0,4.0,4.0,4.0,4.0,4.0,4.0,4.0,4.0,4.0,100.0,,,,,,,,,,,,,,,,,,,,,,,,,,,,,,,,,,,,,,,,,,,,,,,,,,,,,,,,,,,,,,,,,,,,,,,,,,,,,,,,,,,,,,,,,,,,,,,,,,,,,,,,,,,,,,,,,,,,,,,,,,,,,,,,,,,
1725618185.611593,1725618185.612048,149.0,0.0,4263.205078,4279.102539,4283.717773,4297.179688,4220.384766,4219.743652,4232.94873,4220.384766,4262.179688,4230.128418,4544.230957,4538.846191,4344.743652,4460.641113,3891.0,2.0,36.0,,,,0.0,4.0,4.0,4.0,4.0,4.0,4.0,4.0,4.0,4.0,4.0,4.0,4.0,4.0,4.0,100.0,,,,,,,,,,,,,,,,,,,,,,,,,,,,,,,,,,,,,,,,,,,,,,,,,,,,,,,,,,,,,,,,,,,,,,,,,,,,,,,,,,,,,,,,,,,,,,,,,,,,,,,,,,,,,,,,,,,,,,,,,,,,,,,,,,,
1725618185.615497,1725618185.616052,150.0,0.0,4257.563965,4275.256348,4278.846191,4293.974121,4219.230957,4218.717773,4231.410156,4214.615234,4256.666504,4224.871582,4536.794922,4530.128418,4336.922852,4455.897461,2890.0,2.0,36.0,,,,0.0,4.0,4.0,4.0,4.0,4.0,4.0,4.0,4.0,4.0,4.0,4.0,4.0,4.0,4.0,100.0,,,,,,,,,,,,,,,,,,,,,,,,,,,,,,,,,,,,,,,,,,,,,,,,,,,,,,,,,,,,,,,,,,,,,,,,,,,,,,,,,,,,,,,,,,,,,,,,,,,,,,,,,,,,,,,,,,,,,,,,,,,,,,,,,,,
1725618185.619401,1725618185.619956,151.0,0.0,4252.307617,4271.538574,4278.333496,4292.179688,4218.717773,4217.94873,4230.512695,4211.666504,4251.794922,4220.512695,4533.333496,4524.230957,4332.820313,4452.692383,3064.0,2.0,36.0,,,,0.0,4.0,4.0,4.0,4.0,4.0,4.0,4.0,4.0,4.0,4.0,4.0,4.0,4.0,4.0,100.0,,,,,,,,,,,,,,,,,,,,,,,,,,,,,,,,,,,,,,,,,,,,,,,,,,,,,,,,,,,,,,,,,,,,,,,,,,,,,,,,,,,,,,,,,,,,,,,,,,,,,,,,,,,,,,,,,,,,,,,,,,,,,,,,,,,
1725618185.623305,1725618185.62386,152.0,0.0,4249.615234,4268.717773,4280.769043,4291.538574,4218.717773,4217.563965,4230.769043,4214.871582,4251.666504,4218.333496,4536.025879,4525.128418,4332.05127,4452.436035,3411.0,2.0,36.0,,,,0.0,4.0,4.0,4.0,4.0,4.0,4.0,4.0,4.0,4.0,4.0,4.0,4.0,4.0,4.0,100.0,,,,,,,,,,,,,,,,,,,,,,,,,,,,,,,,,,,,,,,,,,,,,,,,,,,,,,,,,,,,,,,,,,,,,,,,,,,,,,,,,,,,,,,,,,,,,,,,,,,,,,,,,,,,,,,,,,,,,,,,,,,,,,,,,,,
1725618185.62721,1725618185.627764,153.0,0.0,4249.102539,4267.05127,4282.436035,4290.641113,4219.102539,4217.820313,4231.666504,4221.410156,4256.025879,4218.717773,4542.820313,4530.769043,4332.307617,4453.846191,3891.0,2.0,36.0,,,,0.0,4.0,4.0,4.0,4.0,4.0,4.0,4.0,4.0,4.0,4.0,4.0,4.0,4.0,4.0,100.0,,,,,,,,,,,,,,,,,,,,,,,,,,,,,,,,,,,,,,,,,,,,,,,,,,,,,,,,,,,,,,,,,,,,,,,,,,,,,,,,,,,,,,,,,,,,,,,,,,,,,,,,,,,,,,,,,,,,,,,,,,,,,,,,,,,
1725618185.631114,1725618185.631768,154.0,0.0,4248.461426,4265.128418,4280.0,4287.94873,4219.743652,4218.846191,4231.794922,4225.128418,4260.897461,4220.641113,4548.077148,4534.743652,4331.538574,4453.974121,2890.0,2.0,36.0,,,,0.0,4.0,4.0,4.0,4.0,4.0,4.0,4.0,4.0,4.0,4.0,4.0,4.0,4.0,4.0,100.0,,,,,,,,,,,,,,,,,,,,,,,,,,,,,,,,,,,,,,,,,,,,,,,,,,,,,,,,0.0,0.0,1.0,0.0,1.0,0.0,,,,,,,,,,,,,,,,,,,,,,,,,,,,,,,,,,,,,,,,,,,,,,,,,,,,,,,,,,,,,,,,,,,,,,
1725618185.635018,1725618185.635672,155.0,0.0,4245.512695,4262.436035,4273.717773,4282.820313,4220.384766,4220.256348,4230.256348,4221.538574,4261.922852,4222.179688,4546.025879,4532.436035,4328.333496,4450.384766,3064.0,2.0,36.0,,,,0.0,4.0,4.0,4.0,4.0,4.0,4.0,4.0,4.0,4.0,4.0,4.0,4.0,4.0,4.0,100.0,,,,,,,,,,,,,,,,,,,,,,,,,,,,,,,,,,,,,,,,,,,,,,,,,,,,,,,,,,,,,,,,,,,,,,,,,,,,,,,,,,,,,,,,,,,,,,,,,,,,,,,,,,,,,,,,,,,,,,,,,,,,,,,,,,,
1725618185.638922,1725618185.639576,156.0,0.0,4240.256348,4258.589844,4267.307617,4276.282227,4220.641113,4220.769043,4227.307617,4211.666504,4257.692383,4221.282227,4535.641113,4524.358887,4322.563965,4443.717773,3411.0,2.0,36.0,,,,0.0,4.0,4.0,4.0,4.0,4.0,4.0,4.0,4.0,4.0,4.0,4.0,4.0,4.0,4.0,100.0,,,,,,,,,,,,,,,,,,,,,,,,,,,,,,,,,,,,,,,,,,,,,,,,,,,,,,,,,,,,,,,,,,,,,,,,,,,,,,,,,,,,,,,,,,,,,,,,,,,,,,,,,,,,,,,,,,,,,,,,,,,,,,,,,,,
1725618185.642826,1725618185.643481,157.0,0.0,4234.743652,4254.358887,4263.846191,4270.384766,4219.230957,4219.102539,4223.589844,4200.641113,4251.282227,4217.307617,4522.05127,4515.128418,4315.128418,4437.179688,3891.0,2.0,36.0,,,,0.0,4.0,4.0,4.0,4.0,4.0,4.0,4.0,4.0,4.0,4.0,4.0,4.0,4.0,4.0,100.0,,,,,,,,,,,,,,,,,,,,,,,,,,,,,,,,,,,,,,,,,,,,,,,,,,,,,,,,,,,,,,,,,,,,,,,,,,,,,,,,,,,,,,,,,,,,,,,,,,,,,,,,,,,,,,,,,,,,,,,,,,,,,,,,,,,
1725618185.64673,1725618185.647385,158.0,0.0,4231.282227,4250.0,4263.974121,4266.922852,4216.025879,4215.769043,4220.256348,4194.358887,4247.436035,4212.179688,4512.307617,4509.230957,4307.307617,4433.589844,2890.0,2.0,36.0,,,,0.0,4.0,4.0,4.0,4.0,4.0,4.0,4.0,4.0,4.0,4.0,4.0,4.0,4.0,4.0,100.0,,,,,,,,,,,,,,,,,,,,,,,,,,,,,,,,,,,,,,,,,,,,,,,,,,,,,,,,,,,,,,,,,,,,,,,,,,,,,,,,,,,,,,,,,,,,,,,,,,,,,,,,,,,,,,,,,,,,,,,,,,,,,,,,,,,
1725618185.650634,1725618185.651189,159.0,0.0,4230.384766,4245.512695,4264.743652,4265.769043,4211.666504,4212.563965,4218.077148,4194.615234,4248.077148,4207.94873,4510.128418,4507.563965,4299.871582,4432.563965,3064.0,2.0,36.0,,,,0.0,4.0,4.0,4.0,4.0,4.0,4.0,4.0,4.0,4.0,4.0,4.0,4.0,4.0,4.0,100.0,,,,,,,,,,,,,,,,,,,,,,,,,,,,,,,,,,,,,,,,,,,,,,,,,,,,,,,,,,,,,,,,,,,,,,,,,,,,,,,,,,,,,,,,,,,,,,,,,,,,,,,,,,,,,,,,,,,,,,,,,,,,,,,,,,,
1725618185.654538,1725618185.655093,160.0,0.0,4230.384766,4240.897461,4262.94873,4265.128418,4207.563965,4211.666504,4216.922852,4199.230957,4251.025879,4205.384766,4514.487305,4507.05127,4293.589844,4430.897461,3411.0,2.0,36.0,,,,0.0,4.0,4.0,4.0,4.0,4.0,4.0,4.0,4.0,4.0,4.0,4.0,4.0,4.0,4.0,100.0,,,,,,,,,,,,,,,,,,,,,,,,,,,,,,,,,,,,,,,,,,,,,,,,,,,,,,,,,,,,,,,,,,,,,,,,,,,,,,,,,,,,,,,,,,,,,,,,,,,,,,,,,,,,,,,,,,,,,,,,,,,,,,,,,,,
1725618185.658442,1725618185.658997,161.0,0.0,4228.717773,4236.538574,4257.436035,4263.589844,4204.615234,4212.820313,4216.922852,4203.205078,4251.794922,4203.846191,4520.128418,4503.846191,4288.205078,4425.641113,3891.0,2.0,36.0,,,,0.0,4.0,4.0,4.0,4.0,4.0,4.0,4.0,4.0,4.0,4.0,4.0,4.0,4.0,4.0,100.0,,,,,,,,,,,,,,,,,,,,,,,,,,,,,,,,,,,,,,,,,,,,,,,,,,,,,,,,,,,,,,,,,,,,,,,,,,,,,,,,,,,,,,,,,,,,,,,,,,,,,,,,,,,,,,,,,,,,,,,,,,,,,,,,,,,
1725618185.662346,1725618185.662901,162.0,0.0,4224.615234,4232.94873,4250.256348,4260.128418,4202.692383,4214.358887,4217.563965,4203.461426,4247.820313,4201.794922,4522.05127,4496.666504,4283.205078,4417.05127,2890.0,2.0,36.0,,,,0.0,4.0,4.0,4.0,4.0,4.0,4.0,4.0,4.0,4.0,4.0,4.0,4.0,4.0,4.0,100.0,,,,,,,,,,,,,,,,,1.0,0.0,0.0,,,,,,,,,,,,,,,,,,,,,,,,,,,,,,,,,,,,,0.0,0.0,1.0,0.0,1.0,0.0,1.23101,1.758027,0.514536,0.554332,0.116915,1.815672,1.600241,0.52747,0.371447,0.101975,1.433472,2.215255,0.374784,0.526736,0.091901,1.882319,1.661613,0.30764,0.501896,0.100621,0.755726,0.721733,0.39137,0.167108,0.031772,0.471288,0.634667,0.243541,0.12809,0.054645,0.40993,0.477628,0.20022,0.157056,0.055693,0.835252,4.32775,2.219712,0.405238,0.594646,1.505922,2.474823,0.96059,0.377419,0.169419,1.939373,2.555994,1.454599,0.454464,0.151231,1.665693,3.857882,0.817255,0.799399,0.233015,2.083865,4.704546,1.401266,1.056346,0.22258,2.269536,2.291164,0.987333,0.659705,0.118706,1.358332,3.477204,0.656394,0.661998,0.128946
1725618185.666251,1725618185.666705,163.0,0.0,4219.230957,4230.128418,4244.615234,4254.743652,4201.794922,4214.230957,4217.94873,4199.743652,4240.512695,4198.589844,4517.563965,4487.692383,4278.333496,4409.102539,3064.0,2.0,36.0,,,,0.0,4.0,4.0,4.0,4.0,4.0,4.0,4.0,4.0,4.0,4.0,4.0,4.0,4.0,4.0,100.0,,,,,,,,,,,,,,,,,,,,,,,,,,,,,,,,,,,,,,,,,,,,,,,,,,,,,,,,,,,,,,,,,,,,,,,,,,,,,,,,,,,,,,,,,,,,,,,,,,,,,,,,,,,,,,,,,,,,,,,,,,,,,,,,,,,
1725618185.670155,1725618185.67061,164.0,0.0,4214.230957,4227.179688,4242.179688,4248.717773,4201.666504,4211.410156,4217.05127,4194.487305,4233.333496,4193.846191,4507.692383,4481.282227,4273.205078,4405.512695,3411.0,2.0,36.0,,,,0.0,4.0,4.0,4.0,4.0,4.0,4.0,4.0,4.0,4.0,4.0,4.0,4.0,4.0,4.0,100.0,,,,,,,,,,,,,,,,,,,,,,,,,,,,,,,,,,,,,,,,,,,,,,,,,,,,,,,,,,,,,,,,,,,,,,,,,,,,,,,,,,,,,,,,,,,,,,,,,,,,,,,,,,,,,,,,,,,,,,,,,,,,,,,,,,,
1725618185.674059,1725618185.674514,165.0,0.0,4210.641113,4222.563965,4241.153809,4243.846191,4201.794922,4206.922852,4214.102539,4189.871582,4228.717773,4187.563965,4496.025879,4478.589844,4267.179688,4405.897461,3891.0,2.0,36.0,,,,0.0,4.0,4.0,4.0,4.0,4.0,4.0,4.0,4.0,4.0,4.0,4.0,4.0,4.0,4.0,100.0,,,,,,,,,,,,,,,,,,,,,,,,,,,,,,,,,,,,,,,,,,,,,,,,,,,,,,,,,,,,,,,,,,,,,,,,,,,,,,,,,,,,,,,,,,,,,,,,,,,,,,,,,,,,,,,,,,,,,,,,,,,,,,,,,,,
1725618185.677963,1725618185.678418,166.0,0.0,4206.922852,4215.0,4238.846191,4240.641113,4201.282227,4202.94873,4209.102539,4186.794922,4226.153809,4179.615234,4486.153809,4476.538574,4260.128418,4405.128418,2890.0,2.0,36.0,,,,0.0,4.0,4.0,4.0,4.0,4.0,4.0,4.0,4.0,4.0,4.0,4.0,4.0,4.0,4.0,100.0,,,,,,,,,,,,,,,,,,,,,,,,,,,,,,,,,,,,,,,,,,,,,,,,,,,,,,,,,,,,,,,,,,,,,,,,,,,,,,,,,,,,,,,,,,,,,,,,,,,,,,,,,,,,,,,,,,,,,,,,,,,,,,,,,,,
1725618185.681867,1725618185.682322,167.0,0.0,4201.153809,4205.128418,4233.077148,4237.692383,4199.230957,4201.025879,4203.589844,4184.487305,4223.461426,4170.641113,4479.487305,4470.641113,4251.922852,4398.333496,3064.0,2.0,36.0,,,,0.0,4.0,4.0,4.0,4.0,4.0,4.0,4.0,4.0,4.0,4.0,4.0,4.0,4.0,4.0,100.0,,,,,,,,,,,,,,,,,,,,,,,,,,,,,,,,,,,,,,,,,,,,,,,,,,,,,,,,,,,,,,,,,,,,,,,,,,,,,,,,,,,,,,,,,,,,,,,,,,,,,,,,,,,,,,,,,,,,,,,,,,,,,,,,,,,
1725618185.685771,1725618185.686226,168.0,0.0,4192.436035,4195.128418,4224.102539,4233.077148,4195.128418,4201.538574,4199.358887,4182.94873,4219.615234,4161.922852,4474.487305,4460.128418,4242.94873,4384.871582,3411.0,2.0,36.0,,,,0.0,4.0,4.0,4.0,4.0,4.0,4.0,4.0,4.0,4.0,4.0,4.0,4.0,4.0,4.0,100.0,,,,,,,,,,,,,,,,,,,,,,,,,,,,,,,,,,,,,,,,,,,,,,,,,,,,,,,,,,,,,,,,,,,,,,,,,,,,,,,,,,,,,,,,,,,,,,,,,,,,,,,,,,,,,,,,,,,,,,,,,,,,,,,,,,,
1725618185.689675,1725618185.69013,169.0,0.0,4182.94873,4187.307617,4214.743652,4226.282227,4189.102539,4203.333496,4197.179688,4183.205078,4215.0,4154.615234,4468.333496,4449.102539,4234.102539,4370.0,3891.0,2.0,36.0,,,,0.0,4.0,4.0,4.0,4.0,4.0,4.0,4.0,4.0,4.0,4.0,4.0,4.0,4.0,4.0,100.0,,,,,,,,,,,,,,,,,,,,,,,,,,,,,,,,,,,,,,,,,,,,,,,,,,,,,,,,,,,,,,,,,,,,,,,,,,,,,,,,,,,,,,,,,,,,,,,,,,,,,,,,,,,,,,,,,,,,,,,,,,,,,,,,,,,
1725618185.693579,1725618185.693934,170.0,0.0,4176.410156,4182.94873,4208.589844,4219.102539,4183.205078,4204.358887,4196.666504,4186.282227,4211.410156,4149.230957,4460.0,4443.461426,4227.05127,4360.512695,2890.0,2.0,36.0,,,,0.0,4.0,4.0,4.0,4.0,4.0,4.0,4.0,4.0,4.0,4.0,4.0,4.0,4.0,4.0,100.0,,,,,,,,,,,,,,,,,,,,,,,,,,,,,,,,,,,,,,,,,,,,,,,,,,,,,,,,0.0,0.0,1.0,0.0,1.0,0.0,,,,,,,,,,,,,,,,,,,,,,,,,,,,,,,,,,,,,,,,,,,,,,,,,,,,,,,,,,,,,,,,,,,,,,
1725618185.697483,1725618185.697838,171.0,0.0,4175.512695,4181.922852,4207.820313,4214.487305,4179.615234,4203.717773,4196.410156,4191.025879,4209.871582,4145.769043,4451.666504,4445.128418,4223.974121,4360.128418,3064.0,2.0,36.0,,,,0.0,4.0,4.0,4.0,4.0,4.0,4.0,4.0,4.0,4.0,4.0,4.0,4.0,4.0,4.0,100.0,,,,,,,,,,,,,,,,,,,,,,,,,,,,,,,,,,,,,,,,,,,,,,,,,,,,,,,,,,,,,,,,,,,,,,,,,,,,,,,,,,,,,,,,,,,,,,,,,,,,,,,,,,,,,,,,,,,,,,,,,,,,,,,,,,,
1725618185.701388,1725618185.701742,172.0,0.0,4179.743652,4182.436035,4211.922852,4214.871582,4180.256348,4202.307617,4196.153809,4194.615234,4211.025879,4145.256348,4447.94873,4452.05127,4225.384766,4367.307617,3411.0,2.0,36.0,,,,0.0,4.0,4.0,4.0,4.0,4.0,4.0,4.0,4.0,4.0,4.0,4.0,4.0,4.0,4.0,100.0,,,,,,,,,,,,,,,,,,,,,,,,,,,,,,,,,,,,,,,,,,,,,,,,,,,,,,,,,,,,,,,,,,,,,,,,,,,,,,,,,,,,,,,,,,,,,,,,,,,,,,,,,,,,,,,,,,,,,,,,,,,,,,,,,,,
1725618185.705292,1725618185.705746,173.0,0.0,4186.153809,4183.717773,4218.974121,4220.0,4185.384766,4202.436035,4196.666504,4195.384766,4215.512695,4149.102539,4452.820313,4460.256348,4231.153809,4377.307617,3891.0,2.0,36.0,,,,0.0,4.0,4.0,4.0,4.0,4.0,4.0,4.0,4.0,4.0,4.0,4.0,4.0,4.0,4.0,100.0,,,,,,,,,,,,,,,,,,,,,,,,,,,,,,,,,,,,,,,,,,,,,,,,,,,,,,,,,,,,,,,,,,,,,,,,,,,,,,,,,,,,,,,,,,,,,,,,,,,,,,,,,,,,,,,,,,,,,,,,,,,,,,,,,,,
1725618185.709196,1725618185.709651,174.0,0.0,4192.436035,4186.410156,4227.179688,4227.820313,4193.077148,4205.769043,4199.358887,4195.512695,4223.461426,4157.563965,4466.794922,4467.563965,4241.153809,4386.538574,2890.0,2.0,36.0,,,,0.0,4.0,4.0,4.0,4.0,4.0,4.0,4.0,4.0,4.0,4.0,4.0,4.0,4.0,4.0,100.0,,,,,,,,,,,,,,,,,,,,,,,,,,,,,,,,,,,,,,,,,,,,,,,,,,,,,,,,,,,,,,,,,,,,,,,,,,,,,,,,,,,,,,,,,,,,,,,,,,,,,,,,,,,,,,,,,,,,,,,,,,,,,,,,,,,
1725618185.7131,1725618185.713555,175.0,0.0,4197.563965,4191.666504,4235.0,4235.512695,4200.384766,4211.410156,4205.0,4198.846191,4234.230957,4168.846191,4486.794922,4474.743652,4254.358887,4394.102539,3064.0,2.0,36.0,,,,0.0,4.0,4.0,4.0,4.0,4.0,4.0,4.0,4.0,4.0,4.0,4.0,4.0,4.0,4.0,100.0,,,,,,,,,,,,,,,,,,,,,,,,,,,,,,,,,,,,,,,,,,,,,,,,,,,,,,,,,,,,,,,,,,,,,,,,,,,,,,,,,,,,,,,,,,,,,,,,,,,,,,,,,,,,,,,,,,,,,,,,,,,,,,,,,,,
1725618185.717004,1725618185.717559,176.0,0.0,4202.563965,4198.974121,4241.538574,4241.282227,4204.743652,4216.153809,4211.666504,4206.666504,4244.743652,4180.384766,4506.794922,4482.179688,4268.717773,4401.025879,3411.0,2.0,36.0,,,,0.0,4.0,4.0,4.0,4.0,4.0,4.0,4.0,4.0,4.0,4.0,4.0,4.0,4.0,4.0,100.0,,,,,,,,,,,,,,,,,,,,,,,,,,,,,,,,,,,,,,,,,,,,,,,,,,,,,,,,,,,,,,,,,,,,,,,,,,,,,,,,,,,,,,,,,,,,,,,,,,,,,,,,,,,,,,,,,,,,,,,,,,,,,,,,,,,
1725618185.720908,1725618185.721463,177.0,0.0,4207.692383,4206.282227,4245.897461,4245.128418,4205.384766,4217.307617,4216.410156,4215.384766,4251.794922,4188.846191,4520.128418,4488.974121,4281.025879,4407.820313,3891.0,2.0,36.0,,,,0.0,4.0,4.0,4.0,4.0,4.0,4.0,4.0,4.0,4.0,4.0,4.0,4.0,4.0,4.0,100.0,,,,,,,,,,,,,,,,,,,,,,,,,,,,,,,,,,,,,,,,,,,,,,,,,,,,,,,,,,,,,,,,,,,,,,,,,,,,,,,,,,,,,,,,,,,,,,,,,,,,,,,,,,,,,,,,,,,,,,,,,,,,,,,,,,,
1725618185.724812,1725618185.725367,178.0,0.0,4212.692383,4212.05127,4248.077148,4247.179688,4203.974121,4213.974121,4217.820313,4219.615234,4252.307617,4192.563965,4522.563965,4493.461426,4288.846191,4413.077148,2890.0,2.0,36.0,,,,0.0,4.0,4.0,4.0,4.0,4.0,4.0,4.0,4.0,4.0,4.0,4.0,4.0,4.0,4.0,100.0,,,,,,,,,,,,,,,,,,,,,,,,,,,,,,,,,,,,,,,,,,,,,,,,,,,,,,,,0.0,0.0,1.0,0.0,1.0,0.0,,,,,,,,,,,,,,,,,,,,,,,,,,,,,,,,,,,,,,,,,,,,,,,,,,,,,,,,,,,,,,,,,,,,,,
1725618185.728716,1725618185.729271,179.0,0.0,4216.282227,4215.384766,4248.846191,4248.333496,4202.563965,4207.820313,4216.922852,4217.05127,4246.922852,4191.410156,4515.897461,4495.0,4291.666504,4415.512695,3064.0,2.0,36.0,,,,0.0,4.0,4.0,4.0,4.0,4.0,4.0,4.0,4.0,4.0,4.0,4.0,4.0,4.0,4.0,100.0,,,,,,,,,,,,,,,,,,,,,,,,,,,,,,,,,,,,,,,,,,,,,,,,,,,,,,,,,,,,,,,,,,,,,,,,,,,,,,,,,,,,,,,,,,,,,,,,,,,,,,,,,,,,,,,,,,,,,,,,,,,,,,,,,,,
1725618185.73262,1725618185.733175,180.0,0.0,4217.94873,4217.05127,4248.974121,4249.102539,4202.05127,4202.05127,4215.769043,4209.615234,4239.102539,4187.692383,4507.436035,4494.743652,4291.666504,4415.128418,3411.0,2.0,36.0,,,,0.0,4.0,4.0,4.0,4.0,4.0,4.0,4.0,4.0,4.0,4.0,4.0,4.0,4.0,4.0,100.0,,,,,,,,,,,,,,,,,,,,,,,,,,,,,,,,,,,,,,,,,,,,,,,,,,,,,,,,,,,,,,,,,,,,,,,,,,,,,,,,,,,,,,,,,,,,,,,,,,,,,,,,,,,,,,,,,,,,,,,,,,,,,,,,,,,
1725618185.736524,1725618185.737079,181.0,0.0,4218.077148,4218.077148,4248.717773,4249.743652,4202.307617,4198.846191,4215.641113,4201.794922,4233.333496,4184.487305,4503.846191,4493.846191,4291.410156,4413.461426,3891.0,2.0,36.0,,,,0.0,4.0,4.0,4.0,4.0,4.0,4.0,4.0,4.0,4.0,4.0,4.0,4.0,4.0,4.0,100.0,,,,,,,,,,,,,,,,,,,,,,,,,,,,,,,,,,,,,,,,,,,,,,,,,,,,,,,,,,,,,,,,,,,,,,,,,,,,,,,,,,,,,,,,,,,,,,,,,,,,,,,,,,,,,,,,,,,,,,,,,,,,,,,,,,,
1725618185.740429,1725618185.740883,182.0,0.0,4217.692383,4218.974121,4248.205078,4249.871582,4202.436035,4198.589844,4215.769043,4196.922852,4231.538574,4183.717773,4506.538574,4492.179688,4292.436035,4412.179688,2890.0,2.0,36.0,,,,0.0,4.0,4.0,4.0,4.0,4.0,4.0,4.0,4.0,4.0,4.0,4.0,4.0,4.0,4.0,100.0,,,,,,,,,,,,,,,,,,,,,,,,,,,,,,,,,,,,,,,,,,,,,,,,,,,,,,,,,,,,,,,,,,,,,,,,,,,,,,,,,,,,,,,,,,,,,,,,,,,,,,,,,,,,,,,,,,,,,,,,,,,,,,,,,,,
1725618185.744333,1725618185.744788,183.0,0.0,4217.94873,4219.743652,4247.307617,4249.615234,4201.922852,4200.256348,4214.743652,4195.0,4232.563965,4184.743652,4510.897461,4488.717773,4294.230957,4411.282227,3064.0,2.0,36.0,,,,0.0,4.0,4.0,4.0,4.0,4.0,4.0,4.0,4.0,4.0,4.0,4.0,4.0,4.0,4.0,100.0,,,,,,,,,,,,,,,,,,,,,,,,,,,,,,,,,,,,,,,,,,,,,,,,,,,,,,,,,,,,,,,,,,,,,,,,,,,,,,,,,,,,,,,,,,,,,,,,,,,,,,,,,,,,,,,,,,,,,,,,,,,,,,,,,,,
1725618185.748237,1725618185.748692,184.0,0.0,4218.846191,4220.0,4246.922852,4249.230957,4200.256348,4201.666504,4211.025879,4193.846191,4233.461426,4185.384766,4511.666504,4482.820313,4295.0,4410.0,3411.0,2.0,36.0,,,,0.0,4.0,4.0,4.0,4.0,4.0,4.0,4.0,4.0,4.0,4.0,4.0,4.0,4.0,4.0,100.0,,,,,,,,,,,,,,,,,,,,,,,,,,,,,,,,,,,,,,,,,,,,,,,,,,,,,,,,,,,,,,,,,,,,,,,,,,,,,,,,,,,,,,,,,,,,,,,,,,,,,,,,,,,,,,,,,,,,,,,,,,,,,,,,,,,
1725618185.752141,1725618185.752596,185.0,0.0,4219.743652,4219.487305,4246.794922,4249.102539,4198.205078,4201.538574,4205.512695,4191.666504,4232.820313,4184.358887,4507.307617,4476.538574,4294.230957,4408.333496,3891.0,2.0,36.0,,,,0.0,4.0,4.0,4.0,4.0,4.0,4.0,4.0,4.0,4.0,4.0,4.0,4.0,4.0,4.0,100.0,,,,,,,,,,,,,,,,,,,,,,,,,,,,,,,,,,,,,,,,,,,,,,,,,,,,,,,,,,,,,,,,,,,,,,,,,,,,,,,,,,,,,,,,,,,,,,,,,,,,,,,,,,,,,,,,,,,,,,,,,,,,,,,,,,,
1725618185.756045,1725618185.7564,186.0,0.0,4219.358887,4218.461426,4246.922852,4248.974121,4196.666504,4200.256348,4200.641113,4188.974121,4231.282227,4182.436035,4500.897461,4473.333496,4292.692383,4407.179688,2890.0,2.0,36.0,,,,0.0,4.0,4.0,4.0,4.0,4.0,4.0,4.0,4.0,4.0,4.0,4.0,4.0,4.0,4.0,100.0,,,,,,,,,,,,,,,,,,,,,,,,,,,,,,,,,,,,,,,,,,,,,,,,,,,,,,,,0.0,0.0,1.0,0.0,1.0,0.0,,,,,,,,,,,,,,,,,,,,,,,,,,,,,,,,,,,,,,,,,,,,,,,,,,,,,,,,,,,,,,,,,,,,,,
1725618185.759949,1725618185.760304,187.0,0.0,4217.94873,4217.563965,4246.794922,4248.461426,4196.922852,4199.230957,4199.230957,4188.077148,4230.384766,4181.153809,4496.922852,4475.384766,4292.05127,4407.307617,3064.0,2.0,36.0,,,,0.0,4.0,4.0,4.0,4.0,4.0,4.0,4.0,4.0,4.0,4.0,4.0,4.0,4.0,4.0,100.0,,,,,,,,,,,,,,,,,,,,,,,,,,,,,,,,,,,,,,,,,,,,,,,,,,,,,,,,,,,,,,,,,,,,,,,,,,,,,,,,,,,,,,,,,,,,,,,,,,,,,,,,,,,,,,,,,,,,,,,,,,,,,,,,,,,
1725618185.763853,1725618185.764208,188.0,0.0,4216.794922,4217.563965,4246.794922,4248.333496,4198.717773,4199.358887,4202.436035,4190.512695,4231.153809,4181.153809,4497.820313,4481.666504,4293.461426,4408.846191,3411.0,2.0,36.0,,,,0.0,4.0,4.0,4.0,4.0,4.0,4.0,4.0,4.0,4.0,4.0,4.0,4.0,4.0,4.0,100.0,,,,,,,,,,,,,,,,,,,,,,,,,,,,,,,,,,,,,,,,,,,,,,,,,,,,,,,,,,,,,,,,,,,,,,,,,,,,,,,,,,,,,,,,,,,,,,,,,,,,,,,,,,,,,,,,,,,,,,,,,,,,,,,,,,,
1725618185.767758,1725618185.768212,189.0,0.0,4217.436035,4217.94873,4247.94873,4249.743652,4200.897461,4200.512695,4208.461426,4195.256348,4232.563965,4181.922852,4502.94873,4488.589844,4296.538574,4411.025879,3891.0,2.0,36.0,,,,0.0,4.0,4.0,4.0,4.0,4.0,4.0,4.0,4.0,4.0,4.0,4.0,4.0,4.0,4.0,100.0,,,,,,,,,,,,,,,,,,,,,,,,,,,,,,,,,,,,,,,,,,,,,,,,,,,,,,,,,,,,,,,,,,,,,,,,,,,,,,,,,,,,,,,,,,,,,,,,,,,,,,,,,,,,,,,,,,,,,,,,,,,,,,,,,,,
1725618185.771662,1725618185.772116,190.0,0.0,4220.384766,4218.333496,4251.153809,4253.077148,4202.436035,4201.666504,4214.102539,4199.487305,4233.717773,4183.077148,4508.846191,4493.077148,4300.256348,4412.94873,2890.0,2.0,36.0,,,,0.0,4.0,4.0,4.0,4.0,4.0,4.0,4.0,4.0,4.0,4.0,4.0,4.0,4.0,4.0,100.0,,,,,,,,,,,,,,,,,,,,,,,,,,,,,,,,,,,,,,,,,,,,,,,,,,,,,,,,,,,,,,,,,,,,,,,,,,,,,,,,,,,,,,,,,,,,,,,,,,,,,,,,,,,,,,,,,,,,,,,,,,,,,,,,,,,
1725618185.775566,1725618185.77602,191.0,0.0,4224.230957,4218.717773,4255.512695,4257.436035,4202.94873,4202.05127,4216.922852,4201.025879,4233.333496,4184.358887,4511.794922,4494.871582,4303.846191,4414.487305,3064.0,2.0,36.0,,,,0.0,4.0,4.0,4.0,4.0,4.0,4.0,4.0,4.0,4.0,4.0,4.0,4.0,4.0,4.0,100.0,,,,,,,,,,,,,,,,,,,,,,,,,,,,,,,,,,,,,,,,,,,,,,,,,,,,,,,,,,,,,,,,,,,,,,,,,,,,,,,,,,,,,,,,,,,,,,,,,,,,,,,,,,,,,,,,,,,,,,,,,,,,,,,,,,,
1725618185.77947,1725618185.779924,192.0,0.0,4227.307617,4219.743652,4259.358887,4261.282227,4202.563965,4201.922852,4217.05127,4200.128418,4231.794922,4185.512695,4510.512695,4495.897461,4306.666504,4416.538574,3411.0,2.0,36.0,,,,0.0,4.0,4.0,4.0,4.0,4.0,4.0,4.0,4.0,4.0,4.0,4.0,4.0,4.0,4.0,100.0,,,,,,,,,,,,,,,,,,,,,,,,,,,,,,,,,,,,,,,,,,,,,,,,,,,,,,,,,,,,,,,,,,,,,,,,,,,,,,,,,,,,,,,,,,,,,,,,,,,,,,,,,,,,,,,,,,,,,,,,,,,,,,,,,,,
1725618185.783374,1725618185.783729,193.0,0.0,4228.461426,4221.794922,4261.794922,4263.461426,4202.05127,4201.794922,4215.641113,4198.589844,4230.0,4185.769043,4507.05127,4498.333496,4308.461426,4420.0,3891.0,2.0,36.0,,,,0.0,4.0,4.0,4.0,4.0,4.0,4.0,4.0,4.0,4.0,4.0,4.0,4.0,4.0,4.0,100.0,,,,,,,,,,,,,,,,,,,,,,,,,,,,,,,,,,,,,,,,,,,,,,,,,,,,,,,,,,,,,,,,,,,,,,,,,,,,,,,,,,,,,,,,,,,,,,,,,,,,,,,,,,,,,,,,,,,,,,,,,,,,,,,,,,,
1725618185.787278,1725618185.787633,194.0,0.0,4228.717773,4224.358887,4262.94873,4264.102539,4201.794922,4202.307617,4213.846191,4198.461426,4229.871582,4185.128418,4505.0,4503.077148,4309.615234,4424.487305,2890.0,2.0,36.0,,,,0.0,4.0,4.0,4.0,4.0,4.0,4.0,4.0,4.0,4.0,4.0,4.0,4.0,4.0,4.0,100.0,1.0,100.0,4.0,4.0,4.0,4.0,4.0,4.0,4.0,4.0,4.0,4.0,4.0,4.0,4.0,4.0,1.0,0.0,0.0,1.0,0.389207,-6.856851,-10.421793,-2.352545,1.0,0.517297,-0.647237,-1.080308,-0.020017,1.0,0.182283,2.441821,1.314583,7.497,0.217051,1.0,0.398142,27.35128,-19.305253,92.515278,1.0,0.349568,0.131852,0.065345,0.253884,1.0,0.492939,3.007282,-17.119254,23.724755,1.0,0.340878,0.340878,0.0,1.0,0.0,0.0,64.0,0.034406,1.0,0.0,1.205277,1.921947,0.448112,0.542523,0.122659,1.554507,1.625107,0.543491,0.354966,0.103933,1.434201,2.532362,0.34595,0.560439,0.088548,1.841218,1.692526,0.308818,0.514134,0.103833,0.821958,0.73829,0.455643,0.17026,0.030079,0.418702,0.718519,0.203081,0.102261,0.061723,0.398338,0.451569,0.215587,0.176289,0.069282,0.949669,4.531051,2.034065,0.364313,0.594658,1.59226,2.662147,0.959049,0.400974,0.188785,2.023612,2.87871,1.524307,0.438494,0.155368,1.896338,4.263011,0.747529,0.801642,0.269639,2.504069,5.272079,1.176614,1.08957,0.248231,2.4989,2.506741,0.983592,0.699544,0.114742,1.526644,3.724381,0.632433,0.68723,0.132168
1725618185.791182,1725618185.791537,195.0,0.0,4229.871582,4226.410156,4263.846191,4263.846191,4202.179688,4203.589844,4212.436035,4200.0,4231.922852,4184.358887,4507.179688,4508.846191,4310.256348,4428.717773,3064.0,2.0,36.0,,,,0.0,4.0,4.0,4.0,4.0,4.0,4.0,4.0,4.0,4.0,4.0,4.0,4.0,4.0,4.0,100.0,,,,,,,,,,,,,,,,,,,,,,,,,,,,,,,,,,,,,,,,,,,,,,,,,,,,,,,,,,,,,,,,,,,,,,,,,,,,,,,,,,,,,,,,,,,,,,,,,,,,,,,,,,,,,,,,,,,,,,,,,,,,,,,,,,,
1725618185.795086,1725618185.795441,196.0,0.0,4232.179688,4226.922852,4264.615234,4263.717773,4202.692383,4205.256348,4211.538574,4201.922852,4235.256348,4184.230957,4513.205078,4513.077148,4310.641113,4431.025879,3411.0,2.0,36.0,,,,0.0,4.0,4.0,4.0,4.0,4.0,4.0,4.0,4.0,4.0,4.0,4.0,4.0,4.0,4.0,100.0,,,,,,,,,,,,,,,,,,,,,,,,,,,,,,,,,,,,,,,,,,,,,,,,,,,,,,,,,,,,,,,,,,,,,,,,,,,,,,,,,,,,,,,,,,,,,,,,,,,,,,,,,,,,,,,,,,,,,,,,,,,,,,,,,,,
1725618185.79899,1725618185.799245,197.0,0.0,4234.102539,4225.512695,4264.230957,4263.717773,4202.94873,4206.538574,4210.897461,4202.94873,4236.666504,4184.871582,4519.615234,4513.333496,4310.641113,4430.641113,3891.0,2.0,36.0,,,,0.0,4.0,4.0,4.0,4.0,4.0,4.0,4.0,4.0,4.0,4.0,4.0,4.0,4.0,4.0,100.0,,,,,,,,,,,,,,,,,,,,,,,,,,,,,,,,,,,,,,,,,,,,,,,,,,,,,,,,,,,,,,,,,,,,,,,,,,,,,,,,,,,,,,,,,,,,,,,,,,,,,,,,,,,,,,,,,,,,,,,,,,,,,,,,,,,
1725618185.802894,1725618185.803149,198.0,0.0,4233.589844,4222.179688,4261.410156,4263.589844,4202.692383,4206.282227,4209.743652,4202.692383,4234.102539,4185.256348,4521.538574,4509.102539,4310.128418,4428.077148,2890.0,2.0,36.0,,,,0.0,4.0,4.0,4.0,4.0,4.0,4.0,4.0,4.0,4.0,4.0,4.0,4.0,4.0,4.0,100.0,,,,,,,,,,,,,,,,,,,,,,,,,,,,,,,,,,,,,,,,,,,,,,,,,,,,,,,,,,,,,,,,,,,,,,,,,,,,,,,,,,,,,,,,,,,,,,,,,,,,,,,,,,,,,,,,,,,,,,,,,,,,,,,,,,,
1725618185.806799,1725618185.807053,199.0,0.0,4230.512695,4217.94873,4255.897461,4262.820313,4202.179688,4204.743652,4208.461426,4201.922852,4227.692383,4184.358887,4516.794922,4502.563965,4308.846191,4424.743652,3064.0,2.0,36.0,,,,0.0,4.0,4.0,4.0,4.0,4.0,4.0,4.0,4.0,4.0,4.0,4.0,4.0,4.0,4.0,100.0,,,,,,,,,,,,,,,,,,,,,,,,,,,,,,,,,,,,,,,,,,,,,,,,,,,,,,,,,,,,,,,,,,,,,,,,,,,,,,,,,,,,,,,,,,,,,,,,,,,,,,,,,,,,,,,,,,,,,,,,,,,,,,,,,,,
1725618185.810703,1725618185.811057,200.0,0.0,4226.666504,4215.0,4249.743652,4261.538574,4201.794922,4202.820313,4208.589844,4200.512695,4220.769043,4182.179688,4508.461426,4497.307617,4307.692383,4422.563965,3411.0,2.0,36.0,,,,0.0,4.0,4.0,4.0,4.0,4.0,4.0,4.0,4.0,4.0,4.0,4.0,4.0,4.0,4.0,100.0,,,,,,,,,,,,,,,,,,,,,,,,,,,,,,,,,,,,,,,,,,,,,,,,,,,,,,,,,,,,,,,,,,,,,,,,,,,,,,,,,,,,,,,,,,,,,,,,,,,,,,,,,,,,,,,,,,,,,,,,,,,,,,,,,,,
1725618185.814607,1725618185.814961,201.0,0.0,4224.743652,4215.512695,4246.666504,4260.897461,4202.179688,4202.436035,4211.282227,4198.461426,4217.05127,4180.256348,4502.307617,4495.641113,4308.333496,4422.307617,3891.0,2.0,36.0,,,,0.0,4.0,4.0,4.0,4.0,4.0,4.0,4.0,4.0,4.0,4.0,4.0,4.0,4.0,4.0,100.0,,,,,,,,,,,,,,,,,,,,,,,,,,,,,,,,,,,,,,,,,,,,,,,,,,,,,,,,,,,,,,,,,,,,,,,,,,,,,,,,,,,,,,,,,,,,,,,,,,,,,,,,,,,,,,,,,,,,,,,,,,,,,,,,,,,
1725618185.818511,1725618185.818866,202.0,0.0,4225.769043,4219.871582,4248.461426,4261.410156,4202.820313,4204.487305,4215.512695,4197.05127,4218.461426,4180.641113,4502.692383,4497.94873,4312.05127,4423.589844,2890.0,2.0,36.0,,,,0.0,4.0,4.0,4.0,4.0,4.0,4.0,4.0,4.0,4.0,4.0,4.0,4.0,4.0,4.0,100.0,,,,,,,,,,,,,,,,,,,,,,,,,,,,,,,,,,,,,,,,,,,,,,,,,,,,,,,,0.0,0.0,64.0,0.034406,1.0,0.0,,,,,,,,,,,,,,,,,,,,,,,,,,,,,,,,,,,,,,,,,,,,,,,,,,,,,,,,,,,,,,,,,,,,,,
1725618185.822415,1725618185.82287,203.0,0.0,4228.717773,4225.769043,4254.487305,4262.94873,4203.077148,4208.717773,4217.94873,4198.077148,4224.102539,4183.974121,4509.358887,4503.077148,4318.461426,4426.025879,3064.0,2.0,36.0,,,,0.0,4.0,4.0,4.0,4.0,4.0,4.0,4.0,4.0,4.0,4.0,4.0,4.0,4.0,4.0,100.0,,,,,,,,,,,,,,,,,,,,,,,,,,,,,,,,,,,,,,,,,,,,,,,,,,,,,,,,,,,,,,,,,,,,,,,,,,,,,,,,,,,,,,,,,,,,,,,,,,,,,,,,,,,,,,,,,,,,,,,,,,,,,,,,,,,
1725618185.826319,1725618185.826774,204.0,0.0,4231.666504,4230.0,4261.282227,4264.102539,4202.436035,4213.333496,4216.025879,4201.794922,4231.025879,4188.589844,4517.94873,4508.846191,4324.743652,4428.589844,3411.0,2.0,36.0,,,,0.0,4.0,4.0,4.0,4.0,4.0,4.0,4.0,4.0,4.0,4.0,4.0,4.0,4.0,4.0,100.0,,,,,,,,,,,,,,,,,,,,,,,,,,,,,,,,,,,,,,,,,,,,,,,,,,,,,,,,,,,,,,,,,,,,,,,,,,,,,,,,,,,,,,,,,,,,,,,,,,,,,,,,,,,,,,,,,,,,,,,,,,,,,,,,,,,
1725618185.830223,1725618185.830678,205.0,0.0,4233.205078,4230.256348,4265.897461,4264.358887,4201.025879,4216.666504,4211.025879,4205.769043,4235.641113,4191.922852,4522.94873,4512.820313,4328.333496,4430.384766,3891.0,2.0,36.0,,,,0.0,4.0,4.0,4.0,4.0,4.0,4.0,4.0,4.0,4.0,4.0,4.0,4.0,4.0,4.0,100.0,,,,,,,,,,,,,,,,,,,,,,,,,,,,,,,,,,,,,,,,,,,,,,,,,,,,,,,,,,,,,,,,,,,,,,,,,,,,,,,,,,,,,,,,,,,,,,,,,,,,,,,,,,,,,,,,,,,,,,,,,,,,,,,,,,,
1725618185.834127,1725618185.834582,206.0,0.0,4233.205078,4226.666504,4267.179688,4264.102539,4199.487305,4217.307617,4206.666504,4207.05127,4236.153809,4191.922852,4521.666504,4513.461426,4328.205078,4431.153809,2890.0,2.0,36.0,,,,0.0,4.0,4.0,4.0,4.0,4.0,4.0,4.0,4.0,4.0,4.0,4.0,4.0,4.0,4.0,100.0,,,,,,,,,,,,,,,,,,,,,,,,,,,,,,,,,,,,,,,,,,,,,,,,,,,,,,,,,,,,,,,,,,,,,,,,,,,,,,,,,,,,,,,,,,,,,,,,,,,,,,,,,,,,,,,,,,,,,,,,,,,,,,,,,,,
1725618185.838031,1725618185.838486,207.0,0.0,4232.436035,4221.666504,4265.769043,4263.974121,4198.846191,4215.0,4206.025879,4205.128418,4233.205078,4188.589844,4515.512695,4510.769043,4325.384766,4430.641113,3064.0,2.0,36.0,,,,0.0,4.0,4.0,4.0,4.0,4.0,4.0,4.0,4.0,4.0,4.0,4.0,4.0,4.0,4.0,100.0,,,,,,,,,,,,,,,,,,,,,,,,,,,,,,,,,,,,,,,,,,,,,,,,,,,,,,,,,,,,,,,,,,,,,,,,,,,,,,,,,,,,,,,,,,,,,,,,,,,,,,,,,,,,,,,,,,,,,,,,,,,,,,,,,,,
1725618185.841936,1725618185.84249,208.0,0.0,4231.153809,4217.692383,4263.333496,4263.846191,4199.102539,4210.897461,4208.846191,4201.922852,4228.846191,4184.487305,4509.230957,4506.410156,4322.05127,4428.974121,3411.0,2.0,36.0,,,,0.0,4.0,4.0,4.0,4.0,4.0,4.0,4.0,4.0,4.0,4.0,4.0,4.0,4.0,4.0,100.0,,,,,,,,,,,,,,,,,,,,,,,,,,,,,,,,,,,,,,,,,,,,,,,,,,,,,,,,,,,,,,,,,,,,,,,,,,,,,,,,,,,,,,,,,,,,,,,,,,,,,,,,,,,,,,,,,,,,,,,,,,,,,,,,,,,
1725618185.84584,1725618185.846394,209.0,0.0,4229.358887,4216.153809,4260.384766,4262.563965,4200.0,4206.153809,4212.307617,4199.871582,4225.256348,4182.179688,4507.307617,4502.563965,4319.871582,4426.025879,3891.0,2.0,36.0,,,,0.0,4.0,4.0,4.0,4.0,4.0,4.0,4.0,4.0,4.0,4.0,4.0,4.0,4.0,4.0,100.0,,,,,,,,,,,,,,,,,,,,,,,,,,,,,,,,,,,,,,,,,,,,,,,,,,,,,,,,,,,,,,,,,,,,,,,,,,,,,,,,,,,,,,,,,,,,,,,,,,,,,,,,,,,,,,,,,,,,,,,,,,,,,,,,,,,
1725618185.849744,1725618185.850298,210.0,0.0,4226.666504,4216.410156,4256.922852,4259.615234,4200.512695,4202.563965,4212.94873,4199.102539,4222.94873,4182.563965,4509.487305,4500.128418,4318.846191,4422.05127,2890.0,2.0,36.0,,,,0.0,4.0,4.0,4.0,4.0,4.0,4.0,4.0,4.0,4.0,4.0,4.0,4.0,4.0,4.0,100.0,,,,,,,,,,,,,,,,,,,,,,,,,,,,,,,,,,,,,,,,,,,,,,,,,,,,,,,,0.0,0.0,64.0,0.034406,1.0,0.0,,,,,,,,,,,,,,,,,,,,,,,,,,,,,,,,,,,,,,,,,,,,,,,,,,,,,,,,,,,,,,,,,,,,,,
1725618185.853648,1725618185.854202,211.0,0.0,4223.077148,4217.05127,4253.077148,4255.256348,4200.384766,4200.384766,4209.871582,4197.94873,4221.025879,4184.230957,4511.410156,4498.077148,4317.820313,4417.436035,3064.0,2.0,36.0,,,,0.0,4.0,4.0,4.0,4.0,4.0,4.0,4.0,4.0,4.0,4.0,4.0,4.0,4.0,4.0,100.0,,,,,,,,,,,,,,,,,,,,,,,,,,,,,,,,,,,,,,,,,,,,,,,,,,,,,,,,,,,,,,,,,,,,,,,,,,,,,,,,,,,,,,,,,,,,,,,,,,,,,,,,,,,,,,,,,,,,,,,,,,,,,,,,,,,
1725618185.857552,1725618185.858007,212.0,0.0,4219.615234,4216.794922,4249.871582,4251.410156,4199.743652,4200.128418,4205.769043,4194.743652,4218.974121,4184.743652,4509.230957,4495.769043,4315.256348,4412.820313,3411.0,2.0,36.0,,,,0.0,4.0,4.0,4.0,4.0,4.0,4.0,4.0,4.0,4.0,4.0,4.0,4.0,4.0,4.0,100.0,,,,,,,,,,,,,,,,,,,,,,,,,,,,,,,,,,,,,,,,,,,,,,,,,,,,,,,,,,,,,,,,,,,,,,,,,,,,,,,,,,,,,,,,,,,,,,,,,,,,,,,,,,,,,,,,,,,,,,,,,,,,,,,,,,,
1725618185.861456,1725618185.861911,213.0,0.0,4217.307617,4215.384766,4248.333496,4249.358887,4199.102539,4201.153809,4204.615234,4189.230957,4217.179688,4183.205078,4503.461426,4493.461426,4311.410156,4409.871582,3891.0,2.0,36.0,,,,0.0,4.0,4.0,4.0,4.0,4.0,4.0,4.0,4.0,4.0,4.0,4.0,4.0,4.0,4.0,100.0,,,,,,,,,,,,,,,,,,,,,,,,,,,,,,,,,,,,,,,,,,,,,,,,,,,,,,,,,,,,,,,,,,,,,,,,,,,,,,,,,,,,,,,,,,,,,,,,,,,,,,,,,,,,,,,,,,,,,,,,,,,,,,,,,,,
1725618185.86536,1725618185.865815,214.0,0.0,4216.538574,4213.461426,4248.974121,4249.102539,4198.974121,4202.94873,4208.333496,4183.589844,4216.153809,4179.871582,4498.589844,4491.794922,4308.461426,4409.487305,2890.0,2.0,36.0,,,,0.0,4.0,4.0,4.0,4.0,4.0,4.0,4.0,4.0,4.0,4.0,4.0,4.0,4.0,4.0,100.0,,,,,,,,,,,,,,,,,,,,,,,,,,,,,,,,,,,,,,,,,,,,,,,,,,,,,,,,,,,,,,,,,,,,,,,,,,,,,,,,,,,,,,,,,,,,,,,,,,,,,,,,,,,,,,,,,,,,,,,,,,,,,,,,,,,
1725618185.869264,1725618185.869819,215.0,0.0,4217.05127,4212.436035,4250.256348,4249.487305,4199.487305,4204.743652,4214.743652,4180.384766,4216.025879,4175.769043,4498.077148,4490.769043,4308.205078,4411.282227,3064.0,2.0,36.0,,,,0.0,4.0,4.0,4.0,4.0,4.0,4.0,4.0,4.0,4.0,4.0,4.0,4.0,4.0,4.0,100.0,,,,,,,,,,,,,,,,,,,,,,,,,,,,,,,,,,,,,,,,,,,,,,,,,,,,,,,,,,,,,,,,,,,,,,,,,,,,,,,,,,,,,,,,,,,,,,,,,,,,,,,,,,,,,,,,,,,,,,,,,,,,,,,,,,,
1725618185.873168,1725618185.873723,216.0,0.0,4217.692383,4212.820313,4250.769043,4249.615234,4200.256348,4205.384766,4218.846191,4180.512695,4216.282227,4172.05127,4501.025879,4489.871582,4310.384766,4413.333496,3411.0,2.0,36.0,,,,0.0,4.0,4.0,4.0,4.0,4.0,4.0,4.0,4.0,4.0,4.0,4.0,4.0,4.0,4.0,100.0,,,,,,,,,,,,,,,,,,,,,,,,,,,,,,,,,,,,,,,,,,,,,,,,,,,,,,,,,,,,,,,,,,,,,,,,,,,,,,,,,,,,,,,,,,,,,,,,,,,,,,,,,,,,,,,,,,,,,,,,,,,,,,,,,,,
1725618185.877072,1725618185.877627,217.0,0.0,4217.307617,4213.974121,4249.871582,4249.102539,4200.641113,4204.487305,4217.307617,4182.94873,4216.153809,4169.102539,4503.717773,4489.230957,4312.179688,4413.974121,3891.0,2.0,36.0,,,,0.0,4.0,4.0,4.0,4.0,4.0,4.0,4.0,4.0,4.0,4.0,4.0,4.0,4.0,4.0,100.0,,,,,,,,,,,,,,,,,,,,,,,,,,,,,,,,,,,,,,,,,,,,,,,,,,,,,,,,,,,,,,,,,,,,,,,,,,,,,,,,,,,,,,,,,,,,,,,,,,,,,,,,,,,,,,,,,,,,,,,,,,,,,,,,,,,
1725618185.880977,1725618185.881531,218.0,0.0,4216.153809,4214.743652,4247.692383,4248.461426,4200.769043,4202.563965,4211.153809,4185.641113,4215.256348,4167.563965,4502.436035,4489.615234,4311.282227,4412.692383,2890.0,2.0,36.0,,,,0.0,4.0,4.0,4.0,4.0,4.0,4.0,4.0,4.0,4.0,4.0,4.0,4.0,4.0,4.0,100.0,,,,,,,,,,,,,,,,,,,,,,,,,,,,,,,,,,,,,,,,,,,,,,,,,,,,,,,,0.0,0.0,64.0,0.034406,1.0,0.0,,,,,,,,,,,,,,,,,,,,,,,,,,,,,,,,,,,,,,,,,,,,,,,,,,,,,,,,,,,,,,,,,,,,,,
1725618185.884881,1725618185.885435,219.0,0.0,4214.615234,4214.615234,4245.512695,4248.333496,4200.384766,4200.769043,4205.128418,4186.538574,4214.102539,4167.179688,4497.692383,4490.641113,4308.077148,4410.512695,3064.0,2.0,36.0,,,,0.0,4.0,4.0,4.0,4.0,4.0,4.0,4.0,4.0,4.0,4.0,4.0,4.0,4.0,4.0,100.0,,,,,,,,,,,,,,,,,,,,,,,,,,,,,,,,,,,,,,,,,,,,,,,,,,,,,,,,,,,,,,,,,,,,,,,,,,,,,,,,,,,,,,,,,,,,,,,,,,,,,,,,,,,,,,,,,,,,,,,,,,,,,,,,,,,
1725618185.888785,1725618185.889239,220.0,0.0,4213.589844,4214.230957,4244.358887,4249.102539,4200.0,4200.128418,4204.230957,4185.384766,4212.94873,4167.563965,4493.461426,4491.025879,4306.025879,4408.589844,3411.0,2.0,36.0,,,,0.0,4.0,4.0,4.0,4.0,4.0,4.0,4.0,4.0,4.0,4.0,4.0,4.0,4.0,4.0,100.0,,,,,,,,,,,,,,,,,,,,,,,,,,,,,,,,,,,,,,,,,,,,,,,,,,,,,,,,,,,,,,,,,,,,,,,,,,,,,,,,,,,,,,,,,,,,,,,,,,,,,,,,,,,,,,,,,,,,,,,,,,,,,,,,,,,
1725618185.892689,1725618185.893143,221.0,0.0,4213.333496,4214.358887,4244.743652,4249.615234,4199.615234,4200.512695,4208.717773,4183.589844,4212.307617,4168.205078,4493.589844,4489.358887,4307.94873,4407.94873,3891.0,2.0,36.0,,,,0.0,4.0,4.0,4.0,4.0,4.0,4.0,4.0,4.0,4.0,4.0,4.0,4.0,4.0,4.0,100.0,,,,,,,,,,,,,,,,,,,,,,,,,,,,,,,,,,,,,,,,,,,,,,,,,,,,,,,,,,,,,,,,,,,,,,,,,,,,,,,,,,,,,,,,,,,,,,,,,,,,,,,,,,,,,,,,,,,,,,,,,,,,,,,,,,,
1725618185.896593,1725618185.897048,222.0,0.0,4214.230957,4215.128418,4245.897461,4249.358887,4198.974121,4201.794922,4214.743652,4183.717773,4212.179688,4168.461426,4498.589844,4486.153809,4313.333496,4408.974121,2890.0,2.0,36.0,,,,0.0,4.0,4.0,4.0,4.0,4.0,4.0,4.0,4.0,4.0,4.0,4.0,4.0,4.0,4.0,100.0,,,,,,,,,,,,,,,,,,,,,,,,,,,,,,,,,,,,,,,,,,,,,,,,,,,,,,,,,,,,,,,,,,,,,,,,,,,,,,,,,,,,,,,,,,,,,,,,,,,,,,,,,,,,,,,,,,,,,,,,,,,,,,,,,,,
1725618185.900497,1725618185.901052,223.0,0.0,4215.641113,4215.384766,4247.307617,4248.461426,4198.205078,4203.205078,4217.820313,4186.282227,4212.436035,4168.717773,4505.0,4483.589844,4318.846191,4411.153809,3064.0,2.0,36.0,,,,0.0,4.0,4.0,4.0,4.0,4.0,4.0,4.0,4.0,4.0,4.0,4.0,4.0,4.0,4.0,100.0,,,,,,,,,,,,,,,,,,,,,,,,,,,,,,,,,,,,,,,,,,,,,,,,,,,,,,,,,,,,,,,,,,,,,,,,,,,,,,,,,,,,,,,,,,,,,,,,,,,,,,,,,,,,,,,,,,,,,,,,,,,,,,,,,,,
1725618185.904401,1725618185.904956,224.0,0.0,4216.153809,4214.615234,4248.333496,4247.94873,4197.692383,4204.102539,4217.179688,4189.743652,4213.333496,4169.487305,4508.589844,4482.692383,4320.769043,4412.692383,3411.0,2.0,36.0,,,,0.0,4.0,4.0,4.0,4.0,4.0,4.0,4.0,4.0,4.0,4.0,4.0,4.0,4.0,4.0,100.0,,,,,,,,,,,,,,,,,,,,,,,,,,,,,,,,,,,,,,,,,,,,,,,,,,,,,,,,,,,,,,,,,,,,,,,,,,,,,,,,,,,,,,,,,,,,,,,,,,,,,,,,,,,,,,,,,,,,,,,,,,,,,,,,,,,
1725618185.908305,1725618185.90886,225.0,0.0,4214.743652,4212.820313,4248.846191,4248.589844,4197.692383,4204.230957,4214.871582,4191.922852,4214.743652,4171.282227,4506.922852,4482.820313,4318.205078,4412.307617,3891.0,2.0,36.0,,,,0.0,4.0,4.0,4.0,4.0,4.0,4.0,4.0,4.0,4.0,4.0,4.0,4.0,4.0,4.0,100.0,,,,,,,,,,,,,,,,,,,,,,,,,,,,,,,,,,,,,,,,,,,,,,,,,,,,,,,,,,,,,,,,,,,,,,,,,,,,,,,,,,,,,,,,,,,,,,,,,,,,,,,,,,,,,,,,,,,,,,,,,,,,,,,,,,,
1725618185.912209,1725618185.912764,226.0,0.0,4211.666504,4210.641113,4248.461426,4249.743652,4198.077148,4203.717773,4213.461426,4191.794922,4216.025879,4173.589844,4501.282227,4482.563965,4313.974121,4409.743652,2890.0,2.0,36.0,,,,0.0,4.0,4.0,4.0,4.0,4.0,4.0,4.0,4.0,4.0,4.0,4.0,4.0,4.0,4.0,100.0,,,,,,,,,,,,,,,,,1.0,0.0,0.0,,,,,,,,,,,,,,,,,,,,,,,,,,,,,,,,,,,,,0.0,0.0,64.0,0.026262,1.0,0.0,1.297357,2.046397,0.398354,0.518869,0.129721,1.359657,1.701939,0.552043,0.334983,0.11433,1.440098,2.618914,0.334377,0.572654,0.091105,1.750397,1.619368,0.319267,0.500216,0.109837,0.81751,0.718712,0.478622,0.171359,0.031265,0.36666,0.782839,0.173089,0.090499,0.074058,0.397208,0.418999,0.227785,0.189395,0.087469,1.114222,4.366994,1.700808,0.363921,0.579824,1.648141,2.642238,0.919242,0.41635,0.207099,2.009218,2.976388,1.507918,0.429721,0.160497,2.113404,4.350309,0.719784,0.788038,0.320379,2.892747,5.347418,0.967123,1.093367,0.268123,2.6438,2.668101,0.987298,0.704267,0.120975,1.640172,3.633127,0.626666,0.686123,0.139417
1725618185.916114,1725618185.916768,227.0,0.0,4207.692383,4208.333496,4247.179688,4249.743652,4198.461426,4203.589844,4213.205078,4190.128418,4216.922852,4175.384766,4495.512695,4481.153809,4311.410156,4406.538574,3064.0,2.0,36.0,,,,0.0,4.0,4.0,4.0,4.0,4.0,4.0,4.0,4.0,4.0,4.0,4.0,4.0,4.0,4.0,100.0,,,,,,,,,,,,,,,,,,,,,,,,,,,,,,,,,,,,,,,,,,,,,,,,,,,,,,,,,,,,,,,,,,,,,,,,,,,,,,,,,,,,,,,,,,,,,,,,,,,,,,,,,,,,,,,,,,,,,,,,,,,,,,,,,,,
1725618185.920018,1725618185.920672,228.0,0.0,4204.230957,4205.641113,4245.512695,4247.94873,4198.717773,4203.974121,4213.205078,4188.205078,4216.538574,4175.384766,4493.077148,4478.974121,4312.563965,4404.358887,3411.0,2.0,36.0,,,,0.0,4.0,4.0,4.0,4.0,4.0,4.0,4.0,4.0,4.0,4.0,4.0,4.0,4.0,4.0,100.0,,,,,,,,,,,,,,,,,,,,,,,,,,,,,,,,,,,,,,,,,,,,,,,,,,,,,,,,,,,,,,,,,,,,,,,,,,,,,,,,,,,,,,,,,,,,,,,,,,,,,,,,,,,,,,,,,,,,,,,,,,,,,,,,,,,
1725618185.923922,1725618185.924576,229.0,0.0,4202.05127,4202.436035,4244.615234,4245.128418,4198.333496,4204.615234,4212.05127,4186.922852,4214.358887,4173.589844,4494.102539,4477.179688,4316.153809,4404.230957,3891.0,2.0,36.0,,,,0.0,4.0,4.0,4.0,4.0,4.0,4.0,4.0,4.0,4.0,4.0,4.0,4.0,4.0,4.0,100.0,,,,,,,,,,,,,,,,,,,,,,,,,,,,,,,,,,,,,,,,,,,,,,,,,,,,,,,,,,,,,,,,,,,,,,,,,,,,,,,,,,,,,,,,,,,,,,,,,,,,,,,,,,,,,,,,,,,,,,,,,,,,,,,,,,,
1725618185.927826,1725618185.92848,230.0,0.0,4201.282227,4200.128418,4244.871582,4242.94873,4197.563965,4204.743652,4208.717773,4186.666504,4210.641113,4170.897461,4495.256348,4476.282227,4319.230957,4405.512695,2890.0,2.0,36.0,,,,0.0,4.0,4.0,4.0,4.0,4.0,4.0,4.0,4.0,4.0,4.0,4.0,4.0,4.0,4.0,100.0,,,,,,,,,,,,,,,,,,,,,,,,,,,,,,,,,,,,,,,,,,,,,,,,,,,,,,,,,,,,,,,,,,,,,,,,,,,,,,,,,,,,,,,,,,,,,,,,,,,,,,,,,,,,,,,,,,,,,,,,,,,,,,,,,,,
1725618185.93173,1725618185.932484,231.0,0.0,4202.179688,4200.128418,4245.897461,4242.436035,4196.922852,4204.102539,4204.743652,4187.307617,4206.153809,4168.717773,4493.846191,4476.282227,4319.230957,4406.410156,3064.0,2.0,36.0,,,,0.0,4.0,4.0,4.0,4.0,4.0,4.0,4.0,4.0,4.0,4.0,4.0,4.0,4.0,4.0,100.0,,,,,,,,,,,,,,,,,,,,,,,,,,,,,,,,,,,,,,,,,,,,,,,,,,,,,,,,,,,,,,,,,,,,,,,,,,,,,,,,,,,,,,,,,,,,,,,,,,,,,,,,,,,,,,,,,,,,,,,,,,,,,,,,,,,
1725618185.935634,1725618185.936388,232.0,0.0,4204.358887,4203.077148,4246.794922,4243.333496,4197.563965,4202.692383,4202.179688,4188.077148,4202.436035,4167.692383,4490.128418,4477.05127,4316.282227,4405.128418,3411.0,2.0,36.0,,,,0.0,4.0,4.0,4.0,4.0,4.0,4.0,4.0,4.0,4.0,4.0,4.0,4.0,4.0,4.0,100.0,,,,,,,,,,,,,,,,,,,,,,,,,,,,,,,,,,,,,,,,,,,,,,,,,,,,,,,,,,,,,,,,,,,,,,,,,,,,,,,,,,,,,,,,,,,,,,,,,,,,,,,,,,,,,,,,,,,,,,,,,,,,,,,,,,,
1725618185.939538,1725618185.940292,233.0,0.0,4207.692383,4207.692383,4247.179688,4244.743652,4199.230957,4201.538574,4201.922852,4187.307617,4201.025879,4167.94873,4487.05127,4477.692383,4313.589844,4401.282227,3891.0,2.0,36.0,,,,0.0,4.0,4.0,4.0,4.0,4.0,4.0,4.0,4.0,4.0,4.0,4.0,4.0,4.0,4.0,100.0,,,,,,,,,,,,,,,,,,,,,,,,,,,,,,,,,,,,,,,,,,,,,,,,,,,,,,,,,,,,,,,,,,,,,,,,,,,,,,,,,,,,,,,,,,,,,,,,,,,,,,,,,,,,,,,,,,,,,,,,,,,,,,,,,,,
1725618185.943442,1725618185.944197,234.0,0.0,4211.538574,4211.666504,4246.922852,4245.384766,4200.256348,4200.641113,4202.94873,4185.128418,4201.666504,4168.846191,4487.307617,4477.307617,4314.358887,4396.794922,2890.0,2.0,36.0,,,,0.0,4.0,4.0,4.0,4.0,4.0,4.0,4.0,4.0,4.0,4.0,4.0,4.0,4.0,4.0,100.0,,,,,,,,,,,,,,,,,,,,,,,,,,,,,,,,,,,,,,,,,,,,,,,,,,,,,,,,0.0,0.0,64.0,0.026262,1.0,0.0,,,,,,,,,,,,,,,,,,,,,,,,,,,,,,,,,,,,,,,,,,,,,,,,,,,,,,,,,,,,,,,,,,,,,,
1725618185.947346,1725618185.948101,235.0,0.0,4215.256348,4212.94873,4246.282227,4245.384766,4198.461426,4200.384766,4203.333496,4182.820313,4203.077148,4169.230957,4490.384766,4475.769043,4318.846191,4394.871582,3064.0,2.0,36.0,,,,0.0,4.0,4.0,4.0,4.0,4.0,4.0,4.0,4.0,4.0,4.0,4.0,4.0,4.0,4.0,100.0,,,,,,,,,,,,,,,,,,,,,,,,,,,,,,,,,,,,,,,,,,,,,,,,,,,,,,,,,,,,,,,,,,,,,,,,,,,,,,,,,,,,,,,,,,,,,,,,,,,,,,,,,,,,,,,,,,,,,,,,,,,,,,,,,,,
1725618185.95125,1725618185.951905,236.0,0.0,4217.820313,4211.538574,4246.282227,4245.384766,4194.230957,4200.512695,4202.692383,4182.05127,4203.077148,4169.102539,4493.846191,4474.358887,4324.230957,4396.794922,3411.0,2.0,36.0,,,,0.0,4.0,4.0,4.0,4.0,4.0,4.0,4.0,4.0,4.0,4.0,4.0,4.0,4.0,4.0,100.0,,,,,,,,,,,,,,,,,,,,,,,,,,,,,,,,,,,,,,,,,,,,,,,,,,,,,,,,,,,,,,,,,,,,,,,,,,,,,,,,,,,,,,,,,,,,,,,,,,,,,,,,,,,,,,,,,,,,,,,,,,,,,,,,,,,
1725618185.955155,1725618185.955809,237.0,0.0,4218.846191,4209.743652,4247.05127,4246.282227,4190.0,4201.282227,4202.436035,4183.205078,4201.666504,4168.589844,4495.128418,4475.0,4327.436035,4401.666504,3891.0,2.0,36.0,,,,0.0,4.0,4.0,4.0,4.0,4.0,4.0,4.0,4.0,4.0,4.0,4.0,4.0,4.0,4.0,100.0,,,,,,,,,,,,,,,,,,,,,,,,,,,,,,,,,,,,,,,,,,,,,,,,,,,,,,,,,,,,,,,,,,,,,,,,,,,,,,,,,,,,,,,,,,,,,,,,,,,,,,,,,,,,,,,,,,,,,,,,,,,,,,,,,,,
1725618185.959059,1725618185.959713,238.0,0.0,4218.717773,4210.256348,4248.461426,4248.205078,4188.717773,4202.563965,4204.230957,4185.256348,4201.025879,4168.846191,4493.589844,4477.94873,4327.563965,4406.538574,2890.0,2.0,36.0,,,,0.0,4.0,4.0,4.0,4.0,4.0,4.0,4.0,4.0,4.0,4.0,4.0,4.0,4.0,4.0,100.0,,,,,,,,,,,,,,,,,,,,,,,,,,,,,,,,,,,,,,,,,,,,,,,,,,,,,,,,,,,,,,,,,,,,,,,,,,,,,,,,,,,,,,,,,,,,,,,,,,,,,,,,,,,,,,,,,,,,,,,,,,,,,,,,,,,
1725618185.962963,1725618185.963517,239.0,0.0,4217.820313,4213.333496,4249.230957,4250.128418,4190.897461,4203.717773,4207.307617,4186.282227,4202.94873,4169.871582,4490.512695,4482.307617,4326.282227,4408.717773,3064.0,2.0,36.0,,,,0.0,4.0,4.0,4.0,4.0,4.0,4.0,4.0,4.0,4.0,4.0,4.0,4.0,4.0,4.0,100.0,,,,,,,,,,,,,,,,,,,,,,,,,,,,,,,,,,,,,,,,,,,,,,,,,,,,,,,,,,,,,,,,,,,,,,,,,,,,,,,,,,,,,,,,,,,,,,,,,,,,,,,,,,,,,,,,,,,,,,,,,,,,,,,,,,,
1725618185.966867,1725618185.967421,240.0,0.0,4217.436035,4216.666504,4249.102539,4251.410156,4195.0,4204.358887,4209.743652,4186.538574,4207.307617,4172.05127,4488.974121,4486.538574,4326.282227,4408.333496,3411.0,2.0,36.0,,,,0.0,4.0,4.0,4.0,4.0,4.0,4.0,4.0,4.0,4.0,4.0,4.0,4.0,4.0,4.0,100.0,,,,,,,,,,,,,,,,,,,,,,,,,,,,,,,,,,,,,,,,,,,,,,,,,,,,,,,,,,,,,,,,,,,,,,,,,,,,,,,,,,,,,,,,,,,,,,,,,,,,,,,,,,,,,,,,,,,,,,,,,,,,,,,,,,,
1725618185.970771,1725618185.971325,241.0,0.0,4217.94873,4217.05127,4248.461426,4251.666504,4197.820313,4203.846191,4209.615234,4187.307617,4211.922852,4175.256348,4491.538574,4489.871582,4329.358887,4407.436035,3891.0,2.0,36.0,,,,0.0,4.0,4.0,4.0,4.0,4.0,4.0,4.0,4.0,4.0,4.0,4.0,4.0,4.0,4.0,100.0,,,,,,,,,,,,,,,,,,,,,,,,,,,,,,,,,,,,,,,,,,,,,,,,,,,,,,,,,,,,,,,,,,,,,,,,,,,,,,,,,,,,,,,,,,,,,,,,,,,,,,,,,,,,,,,,,,,,,,,,,,,,,,,,,,,
1725618185.974675,1725618185.97523,242.0,0.0,4219.358887,4213.077148,4248.461426,4251.282227,4196.794922,4202.563965,4206.922852,4190.256348,4213.461426,4179.230957,4498.589844,4491.794922,4334.871582,4408.333496,2890.0,2.0,36.0,,,,0.0,4.0,4.0,4.0,4.0,4.0,4.0,4.0,4.0,4.0,4.0,4.0,4.0,4.0,4.0,100.0,,,,,,,,,,,,,,,,,,,,,,,,,,,,,,,,,,,,,,,,,,,,,,,,,,,,,,,,0.0,0.0,64.0,0.026262,1.0,0.0,,,,,,,,,,,,,,,,,,,,,,,,,,,,,,,,,,,,,,,,,,,,,,,,,,,,,,,,,,,,,,,,,,,,,,
1725618185.978579,1725618185.979034,243.0,0.0,4220.256348,4207.179688,4248.974121,4250.897461,4191.282227,4200.897461,4203.461426,4195.0,4210.128418,4183.205078,4507.179688,4491.922852,4340.384766,4410.897461,3064.0,2.0,36.0,,,,0.0,4.0,4.0,4.0,4.0,4.0,4.0,4.0,4.0,4.0,4.0,4.0,4.0,4.0,4.0,100.0,,,,,,,,,,,,,,,,,,,,,,,,,,,,,,,,,,,,,,,,,,,,,,,,,,,,,,,,,,,,,,,,,,,,,,,,,,,,,,,,,,,,,,,,,,,,,,,,,,,,,,,,,,,,,,,,,,,,,,,,,,,,,,,,,,,
1725618185.982483,1725618185.982938,244.0,0.0,4219.743652,4203.333496,4249.615234,4250.641113,4184.487305,4199.743652,4201.153809,4199.487305,4203.205078,4185.897461,4512.692383,4490.897461,4343.589844,4413.205078,3411.0,2.0,36.0,,,,0.0,4.0,4.0,4.0,4.0,4.0,4.0,4.0,4.0,4.0,4.0,4.0,4.0,4.0,4.0,100.0,,,,,,,,,,,,,,,,,,,,,,,,,,,,,,,,,,,,,,,,,,,,,,,,,,,,,,,,,,,,,,,,,,,,,,,,,,,,,,,,,,,,,,,,,,,,,,,,,,,,,,,,,,,,,,,,,,,,,,,,,,,,,,,,,,,
1725618185.986387,1725618185.986842,245.0,0.0,4218.461426,4204.487305,4250.0,4250.512695,4181.282227,4199.743652,4201.025879,4201.794922,4196.666504,4186.794922,4512.307617,4490.384766,4343.974121,4413.974121,3891.0,2.0,36.0,,,,0.0,4.0,4.0,4.0,4.0,4.0,4.0,4.0,4.0,4.0,4.0,4.0,4.0,4.0,4.0,100.0,,,,,,,,,,,,,,,,,,,,,,,,,,,,,,,,,,,,,,,,,,,,,,,,,,,,,,,,,,,,,,,,,,,,,,,,,,,,,,,,,,,,,,,,,,,,,,,,,,,,,,,,,,,,,,,,,,,,,,,,,,,,,,,,,,,
1725618185.990291,1725618185.990746,246.0,0.0,4217.692383,4209.743652,4249.743652,4250.384766,4184.358887,4201.410156,4202.563965,4202.05127,4194.102539,4186.282227,4508.589844,4492.05127,4343.077148,4413.717773,2890.0,2.0,36.0,,,,0.0,4.0,4.0,4.0,4.0,4.0,4.0,4.0,4.0,4.0,4.0,4.0,4.0,4.0,4.0,100.0,,,,,,,,,,,,,,,,,,,,,,,,,,,,,,,,,,,,,,,,,,,,,,,,,,,,,,,,,,,,,,,,,,,,,,,,,,,,,,,,,,,,,,,,,,,,,,,,,,,,,,,,,,,,,,,,,,,,,,,,,,,,,,,,,,,
1725618185.994196,1725618185.99455,247.0,0.0,4218.333496,4215.128418,4249.230957,4250.512695,4191.794922,4203.974121,4203.974121,4202.05127,4196.282227,4185.641113,4506.153809,4495.384766,4342.436035,4413.589844,3064.0,2.0,36.0,,,,0.0,4.0,4.0,4.0,4.0,4.0,4.0,4.0,4.0,4.0,4.0,4.0,4.0,4.0,4.0,100.0,,,,,,,,,,,,,,,,,,,,,,,,,,,,,,,,,,,,,,,,,,,,,,,,,,,,,,,,,,,,,,,,,,,,,,,,,,,,,,,,,,,,,,,,,,,,,,,,,,,,,,,,,,,,,,,,,,,,,,,,,,,,,,,,,,,
1725618185.9981,1725618185.998454,248.0,0.0,4219.487305,4217.307617,4249.102539,4250.897461,4198.461426,4206.153809,4204.615234,4202.94873,4200.0,4185.897461,4507.563965,4498.461426,4342.94873,4414.102539,3411.0,2.0,36.0,,,,0.0,4.0,4.0,4.0,4.0,4.0,4.0,4.0,4.0,4.0,4.0,4.0,4.0,4.0,4.0,100.0,,,,,,,,,,,,,,,,,,,,,,,,,,,,,,,,,,,,,,,,,,,,,,,,,,,,,,,,,,,,,,,,,,,,,,,,,,,,,,,,,,,,,,,,,,,,,,,,,,,,,,,,,,,,,,,,,,,,,,,,,,,,,,,,,,,
1725618186.002004,1725618186.002358,249.0,0.0,4219.743652,4216.282227,4249.487305,4251.025879,4199.871582,4206.666504,4204.358887,4203.461426,4201.410156,4186.794922,4510.512695,4498.717773,4344.487305,4414.358887,3891.0,2.0,36.0,,,,0.0,4.0,4.0,4.0,4.0,4.0,4.0,4.0,4.0,4.0,4.0,4.0,4.0,4.0,4.0,100.0,,,,,,,,,,,,,,,,,,,,,,,,,,,,,,,,,,,,,,,,,,,,,,,,,,,,,,,,,,,,,,,,,,,,,,,,,,,,,,,,,,,,,,,,,,,,,,,,,,,,,,,,,,,,,,,,,,,,,,,,,,,,,,,,,,,
1725618186.005908,1725618186.006362,250.0,0.0,4218.589844,4214.487305,4250.0,4250.641113,4196.153809,4205.384766,4203.717773,4202.05127,4198.205078,4187.05127,4510.128418,4495.897461,4345.897461,4413.333496,2890.0,2.0,36.0,,,,0.0,4.0,4.0,4.0,4.0,4.0,4.0,4.0,4.0,4.0,4.0,4.0,4.0,4.0,4.0,100.0,,,,,,,,,,,,,,,,,,,,,,,,,,,,,,,,,,,,,,,,,,,,,,,,,,,,,,,,0.0,0.0,64.0,0.026262,1.0,0.0,,,,,,,,,,,,,,,,,,,,,,,,,,,,,,,,,,,,,,,,,,,,,,,,,,,,,,,,,,,,,,,,,,,,,,
1725618186.009812,1725618186.010267,251.0,0.0,4217.307617,4214.358887,4250.256348,4250.256348,4190.641113,4202.94873,4203.077148,4197.94873,4191.666504,4186.025879,4503.846191,4491.794922,4345.769043,4410.769043,3064.0,2.0,36.0,,,,0.0,4.0,4.0,4.0,4.0,4.0,4.0,4.0,4.0,4.0,4.0,4.0,4.0,4.0,4.0,100.0,,,,,,,,,,,,,,,,,,,,,,,,,,,,,,,,,,,,,,,,,,,,,,,,,,,,,,,,,,,,,,,,,,,,,,,,,,,,,,,,,,,,,,,,,,,,,,,,,,,,,,,,,,,,,,,,,,,,,,,,,,,,,,,,,,,
1725618186.013716,1725618186.014171,252.0,0.0,4218.205078,4215.897461,4250.256348,4251.025879,4187.179688,4201.025879,4202.692383,4193.077148,4185.512695,4183.717773,4494.743652,4489.358887,4343.461426,4408.205078,3411.0,2.0,36.0,,,,0.0,4.0,4.0,4.0,4.0,4.0,4.0,4.0,4.0,4.0,4.0,4.0,4.0,4.0,4.0,100.0,,,,,,,,,,,,,,,,,,,,,,,,,,,,,,,,,,,,,,,,,,,,,,,,,,,,,,,,,,,,,,,,,,,,,,,,,,,,,,,,,,,,,,,,,,,,,,,,,,,,,,,,,,,,,,,,,,,,,,,,,,,,,,,,,,,
1725618186.01762,1725618186.018075,253.0,0.0,4221.922852,4217.563965,4250.256348,4252.94873,4187.179688,4200.384766,4202.307617,4190.256348,4183.077148,4181.410156,4489.358887,4489.487305,4340.384766,4407.179688,3891.0,2.0,36.0,,,,0.0,4.0,4.0,4.0,4.0,4.0,4.0,4.0,4.0,4.0,4.0,4.0,4.0,4.0,4.0,100.0,,,,,,,,,,,,,,,,,,,,,,,,,,,,,,,,,,,,,,,,,,,,,,,,,,,,,,,,,,,,,,,,,,,,,,,,,,,,,,,,,,,,,,,,,,,,,,,,,,,,,,,,,,,,,,,,,,,,,,,,,,,,,,,,,,,
1725618186.021524,1725618186.022079,254.0,0.0,4226.538574,4218.205078,4250.256348,4255.0,4189.487305,4201.410156,4201.794922,4191.282227,4184.358887,4180.641113,4492.05127,4490.897461,4338.717773,4408.461426,2890.0,2.0,36.0,,,,0.0,4.0,4.0,4.0,4.0,4.0,4.0,4.0,4.0,4.0,4.0,4.0,4.0,4.0,4.0,100.0,,,,,,,,,,,,,,,,,,,,,,,,,,,,,,,,,,,,,,,,,,,,,,,,,,,,,,,,,,,,,,,,,,,,,,,,,,,,,,,,,,,,,,,,,,,,,,,,,,,,,,,,,,,,,,,,,,,,,,,,,,,,,,,,,,,
1725618186.025428,1725618186.025983,255.0,0.0,4229.102539,4217.307617,4250.256348,4255.897461,4191.794922,4202.94873,4201.666504,4195.512695,4186.922852,4181.922852,4501.666504,4492.179688,4340.128418,4410.897461,36.0,2.0,36.0,,,,0.0,4.0,4.0,4.0,4.0,4.0,4.0,4.0,4.0,4.0,4.0,4.0,4.0,4.0,4.0,100.0,,,,,,,,,,,,,,,,,,,,,,,,,,,,,,,,,,,,,,,,,,,,,,,,,,,,,,,,,,,,,,,,,,,,,,,,,,,,,,,,,,,,,,,,,,,,,,,,,,,,,,,,,,,,,,,,,,,,,,,,,,,,,,,,,,,
1725618186.029333,1725618186.029887,0.0,0.0,4227.692383,4215.512695,4249.871582,4254.871582,4192.307617,4203.846191,4201.922852,4200.128418,4188.205078,4184.615234,4511.538574,4492.436035,4344.358887,4412.820313,2618.0,2.0,36.0,,,,0.0,4.0,4.0,4.0,4.0,4.0,4.0,4.0,4.0,4.0,4.0,4.0,4.0,4.0,4.0,100.0,,,,,,,,,,,,,,,,,,,,,,,,,,,,,,,,,,,,,,,,,,,,,,,,,,,,,,,,,,,,,,,,,,,,,,,,,,,,,,,,,,,,,,,,,,,,,,,,,,,,,,,,,,,,,,,,,,,,,,,,,,,,,,,,,,,
1725618186.033237,1725618186.033791,1.0,0.0,4223.589844,4214.230957,4249.102539,4252.94873,4191.538574,4203.589844,4202.563965,4201.794922,4188.461426,4186.922852,4515.512695,4492.692383,4349.487305,4413.717773,2568.0,2.0,36.0,,,,0.0,4.0,4.0,4.0,4.0,4.0,4.0,4.0,4.0,4.0,4.0,4.0,4.0,4.0,4.0,100.0,,,,,,,,,,,,,,,,,,,,,,,,,,,,,,,,,,,,,,,,,,,,,,,,,,,,,,,,,,,,,,,,,,,,,,,,,,,,,,,,,,,,,,,,,,,,,,,,,,,,,,,,,,,,,,,,,,,,,,,,,,,,,,,,,,,
1725618186.037141,1725618186.037795,2.0,0.0,4220.384766,4213.846191,4248.974121,4251.922852,4190.641113,4202.307617,4202.820313,4199.487305,4188.846191,4188.077148,4512.692383,4493.974121,4353.974121,4415.0,2454.0,2.0,36.0,,,,0.0,4.0,4.0,4.0,4.0,4.0,4.0,4.0,4.0,4.0,4.0,4.0,4.0,4.0,4.0,100.0,,,,,,,,,,,,,,,,,1.0,0.0,0.0,,,,,,,,,,,,,,,,,,,,,,,,,,,,,,,,,,,,,0.0,0.0,64.0,0.024272,1.0,0.0,1.618615,2.055435,0.373981,0.471474,0.13442,1.430465,1.768534,0.540641,0.305198,0.126443,1.559489,2.472942,0.349119,0.559177,0.099157,1.740971,1.442616,0.330566,0.45472,0.116194,0.750614,0.663213,0.44822,0.169388,0.035661,0.330522,0.845508,0.161968,0.089073,0.08933,0.419164,0.374953,0.231141,0.19363,0.10461,1.279491,3.944963,1.341296,0.394582,0.552592,1.737142,2.424614,0.829555,0.414982,0.223019,2.041891,2.861192,1.392456,0.415426,0.167982,2.39794,4.141985,0.744165,0.760872,0.381365,3.290767,4.96721,0.83024,1.050502,0.278403,2.85067,2.758145,1.003017,0.671102,0.134406,1.854564,3.277907,0.638874,0.64947,0.14874
1725618186.041045,1725618186.041699,3.0,0.0,4221.666504,4214.102539,4250.641113,4253.077148,4190.384766,4200.769043,4202.563965,4195.512695,4190.384766,4187.94873,4507.820313,4497.307617,4357.436035,4418.077148,2464.0,2.0,36.0,,,,0.0,4.0,4.0,4.0,4.0,4.0,4.0,4.0,4.0,4.0,4.0,4.0,4.0,4.0,4.0,100.0,,,,,,,,,,,,,,,,,,,,,,,,,,,,,,,,,,,,,,,,,,,,,,,,,,,,,,,,,,,,,,,,,,,,,,,,,,,,,,,,,,,,,,,,,,,,,,,,,,,,,,,,,,,,,,,,,,,,,,,,,,,,,,,,,,,
1725618186.044949,1725618186.045603,4.0,0.0,4227.307617,4214.358887,4254.615234,4256.153809,4190.512695,4200.0,4202.307617,4194.358887,4193.077148,4187.436035,4506.922852,4502.05127,4360.384766,4422.563965,2426.0,2.0,36.0,,,,0.0,4.0,4.0,4.0,4.0,4.0,4.0,4.0,4.0,4.0,4.0,4.0,4.0,4.0,4.0,100.0,,,,,,,,,,,,,,,,,,,,,,,,,,,,,,,,,,,,,,,,,,,,,,,,,,,,,,,,,,,,,,,,,,,,,,,,,,,,,,,,,,,,,,,,,,,,,,,,,,,,,,,,,,,,,,,,,,,,,,,,,,,,,,,,,,,
1725618186.048853,1725618186.049507,5.0,0.0,4233.974121,4214.487305,4260.256348,4259.871582,4190.128418,4200.256348,4202.179688,4198.077148,4196.282227,4187.179688,4512.307617,4507.307617,4363.589844,4427.05127,2403.0,2.0,36.0,,,,0.0,4.0,4.0,4.0,4.0,4.0,4.0,4.0,4.0,4.0,4.0,4.0,4.0,4.0,4.0,100.0,,,,,,,,,,,,,,,,,,,,,,,,,,,,,,,,,,,,,,,,,,,,,,,,,,,,,,,,,,,,,,,,,,,,,,,,,,,,,,,,,,,,,,,,,,,,,,,,,,,,,,,,,,,,,,,,,,,,,,,,,,,,,,,,,,,
1725618186.052757,1725618186.053312,6.0,0.0,4237.820313,4214.743652,4265.384766,4262.563965,4188.717773,4200.897461,4202.436035,4204.487305,4198.974121,4187.563965,4521.282227,4511.538574,4366.025879,4429.615234,2186.0,2.0,36.0,,,,0.0,4.0,4.0,4.0,4.0,4.0,4.0,4.0,4.0,4.0,4.0,4.0,4.0,4.0,4.0,100.0,,,,,,,,,,,,,,,,,,,,,,,,,,,,,,,,,,,,,,,,,,,,,,,,,,,,,,,,,,,,,,,,,,,,,,,,,,,,,,,,,,,,,,,,,,,,,,,,,,,,,,,,,,,,,,,,,,,,,,,,,,,,,,,,,,,
1725618186.056661,1725618186.057216,7.0,0.0,4237.307617,4215.128418,4267.94873,4263.974121,4187.94873,4201.410156,4202.94873,4208.974121,4200.128418,4187.820313,4528.589844,4513.461426,4366.666504,4429.871582,2516.0,2.0,36.0,,,,0.0,4.0,4.0,4.0,4.0,4.0,4.0,4.0,4.0,4.0,4.0,4.0,4.0,4.0,4.0,100.0,,,,,,,,,,,,,,,,,,,,,,,,,,,,,,,,,,,,,,,,,,,,,,,,,,,,,,,,,,,,,,,,,,,,,,,,,,,,,,,,,,,,,,,,,,,,,,,,,,,,,,,,,,,,,,,,,,,,,,,,,,,,,,,,,,,
1725618186.060565,1725618186.06112,8.0,0.0,4234.358887,4215.769043,4267.179688,4264.743652,4189.615234,4201.538574,4203.333496,4207.307617,4199.487305,4187.436035,4529.871582,4512.94873,4365.0,4428.974121,2483.0,2.0,36.0,,,,0.0,4.0,4.0,4.0,4.0,4.0,4.0,4.0,4.0,4.0,4.0,4.0,4.0,4.0,4.0,100.0,,,,,,,,,,,,,,,,,,,,,,,,,,,,,,,,,,,,,,,,,,,,,,,,,,,,,,,,,,,,,,,,,,,,,,,,,,,,,,,,,,,,,,,,,,,,,,,,,,,,,,,,,,,,,,,,,,,,,,,,,,,,,,,,,,,
1725618186.064469,1725618186.065024,9.0,0.0,4231.666504,4216.922852,4264.615234,4265.769043,4193.717773,4201.153809,4203.333496,4200.128418,4197.436035,4186.282227,4524.102539,4510.384766,4362.05127,4427.820313,2558.0,2.0,36.0,,,,0.0,4.0,4.0,4.0,4.0,4.0,4.0,4.0,4.0,4.0,4.0,4.0,4.0,4.0,4.0,100.0,,,,,,,,,,,,,,,,,,,,,,,,,,,,,,,,,,,,,,,,,,,,,,,,,,,,,,,,,,,,,,,,,,,,,,,,,,,,,,,,,,,,,,,,,,,,,,,,,,,,,,,,,,,,,,,,,,,,,,,,,,,,,,,,,,,
1725618186.068374,1725618186.068828,10.0,0.0,4230.897461,4218.205078,4262.563965,4266.794922,4197.05127,4200.769043,4202.820313,4191.025879,4194.230957,4185.256348,4514.230957,4506.410156,4358.974121,4426.282227,2885.0,2.0,36.0,,,,0.0,4.0,4.0,4.0,4.0,4.0,4.0,4.0,4.0,4.0,4.0,4.0,4.0,4.0,4.0,100.0,,,,,,,,,,,,,,,,,,,,,,,,,,,,,,,,,,,,,,,,,,,,,,,,,,,,,,,,0.0,0.0,64.0,0.024272,1.0,0.0,,,,,,,,,,,,,,,,,,,,,,,,,,,,,,,,,,,,,,,,,,,,,,,,,,,,,,,,,,,,,,,,,,,,,,
1725618186.072278,1725618186.072732,11.0,0.0,4231.025879,4219.102539,4261.666504,4267.307617,4196.794922,4200.512695,4202.307617,4184.102539,4190.256348,4184.743652,4504.102539,4501.538574,4356.794922,4423.717773,3074.0,2.0,36.0,,,,0.0,4.0,4.0,4.0,4.0,4.0,4.0,4.0,4.0,4.0,4.0,4.0,4.0,4.0,4.0,100.0,,,,,,,,,,,,,,,,,,,,,,,,,,,,,,,,,,,,,,,,,,,,,,,,,,,,,,,,,,,,,,,,,,,,,,,,,,,,,,,,,,,,,,,,,,,,,,,,,,,,,,,,,,,,,,,,,,,,,,,,,,,,,,,,,,,
1725618186.076182,1725618186.076636,12.0,0.0,4230.384766,4219.230957,4261.282227,4266.153809,4192.563965,4200.769043,4202.05127,4181.025879,4186.538574,4184.487305,4497.179688,4496.538574,4355.384766,4419.743652,3416.0,2.0,36.0,,,,0.0,4.0,4.0,4.0,4.0,4.0,4.0,4.0,4.0,4.0,4.0,4.0,4.0,4.0,4.0,100.0,,,,,,,,,,,,,,,,,,,,,,,,,,,,,,,,,,,,,,,,,,,,,,,,,,,,,,,,,,,,,,,,,,,,,,,,,,,,,,,,,,,,,,,,,,,,,,,,,,,,,,,,,,,,,,,,,,,,,,,,,,,,,,,,,,,
1725618186.080086,1725618186.08054,13.0,0.0,4228.589844,4218.589844,4260.256348,4263.589844,4187.692383,4201.282227,4202.307617,4180.897461,4184.743652,4184.358887,4494.871582,4492.563965,4355.128418,4415.512695,3899.0,2.0,36.0,,,,0.0,4.0,4.0,4.0,4.0,4.0,4.0,4.0,4.0,4.0,4.0,4.0,4.0,4.0,4.0,100.0,,,,,,,,,,,,,,,,,,,,,,,,,,,,,,,,,,,,,,,,,,,,,,,,,,,,,,,,,,,,,,,,,,,,,,,,,,,,,,,,,,,,,,,,,,,,,,,,,,,,,,,,,,,,,,,,,,,,,,,,,,,,,,,,,,,
1725618186.08399,1725618186.084345,14.0,0.0,4227.05127,4217.436035,4257.94873,4260.897461,4185.897461,4202.05127,4203.205078,4182.820313,4186.410156,4184.102539,4496.922852,4490.512695,4355.769043,4412.563965,2885.0,2.0,36.0,,,,0.0,4.0,4.0,4.0,4.0,4.0,4.0,4.0,4.0,4.0,4.0,4.0,4.0,4.0,4.0,100.0,,,,,,,,,,,,,,,,,,,,,,,,,,,,,,,,,,,,,,,,,,,,,,,,,,,,,,,,,,,,,,,,,,,,,,,,,,,,,,,,,,,,,,,,,,,,,,,,,,,,,,,,,,,,,,,,,,,,,,,,,,,,,,,,,,,
1725618186.087894,1725618186.088249,15.0,0.0,4227.436035,4216.025879,4255.0,4259.487305,4187.563965,4202.563965,4204.358887,4185.897461,4191.025879,4183.846191,4501.666504,4491.410156,4356.410156,4411.794922,3074.0,2.0,36.0,,,,0.0,4.0,4.0,4.0,4.0,4.0,4.0,4.0,4.0,4.0,4.0,4.0,4.0,4.0,4.0,100.0,,,,,,,,,,,,,,,,,,,,,,,,,,,,,,,,,,,,,,,,,,,,,,,,,,,,,,,,,,,,,,,,,,,,,,,,,,,,,,,,,,,,,,,,,,,,,,,,,,,,,,,,,,,,,,,,,,,,,,,,,,,,,,,,,,,
1725618186.091798,1725618186.092153,16.0,0.0,4229.230957,4214.871582,4252.820313,4259.487305,4190.512695,4202.692383,4205.256348,4189.615234,4196.794922,4183.717773,4506.025879,4495.128418,4355.769043,4412.692383,3416.0,2.0,36.0,,,,0.0,4.0,4.0,4.0,4.0,4.0,4.0,4.0,4.0,4.0,4.0,4.0,4.0,4.0,4.0,100.0,,,,,,,,,,,,,,,,,,,,,,,,,,,,,,,,,,,,,,,,,,,,,,,,,,,,,,,,,,,,,,,,,,,,,,,,,,,,,,,,,,,,,,,,,,,,,,,,,,,,,,,,,,,,,,,,,,,,,,,,,,,,,,,,,,,
1725618186.095702,1725618186.096057,17.0,0.0,4230.769043,4214.615234,4252.05127,4260.512695,4191.922852,4202.436035,4205.256348,4193.589844,4200.897461,4184.487305,4507.563965,4500.256348,4353.461426,4414.487305,3899.0,2.0,36.0,,,,0.0,4.0,4.0,4.0,4.0,4.0,4.0,4.0,4.0,4.0,4.0,4.0,4.0,4.0,4.0,100.0,,,,,,,,,,,,,,,,,,,,,,,,,,,,,,,,,,,,,,,,,,,,,,,,,,,,,,,,,,,,,,,,,,,,,,,,,,,,,,,,,,,,,,,,,,,,,,,,,,,,,,,,,,,,,,,,,,,,,,,,,,,,,,,,,,,
1725618186.099606,1725618186.099861,18.0,0.0,4230.769043,4215.256348,4252.563965,4261.922852,4191.153809,4202.307617,4204.487305,4197.179688,4202.307617,4186.666504,4505.897461,4505.0,4350.769043,4416.282227,2885.0,2.0,36.0,,,,0.0,4.0,4.0,4.0,4.0,4.0,4.0,4.0,4.0,4.0,4.0,4.0,4.0,4.0,4.0,100.0,,,,,,,,,,,,,,,,,,,,,,,,,,,,,,,,,,,,,,,,,,,,,,,,,,,,,,,,0.0,0.0,64.0,0.024272,1.0,0.0,,,,,,,,,,,,,,,,,,,,,,,,,,,,,,,,,,,,,,,,,,,,,,,,,,,,,,,,,,,,,,,,,,,,,,
1725618186.103511,1725618186.103765,19.0,0.0,4230.0,4216.410156,4253.333496,4263.077148,4188.717773,4203.077148,4203.461426,4199.743652,4201.025879,4189.358887,4503.589844,4507.436035,4349.102539,4417.692383,3074.0,2.0,36.0,,,,0.0,4.0,4.0,4.0,4.0,4.0,4.0,4.0,4.0,4.0,4.0,4.0,4.0,4.0,4.0,100.0,,,,,,,,,,,,,,,,,,,,,,,,,,,,,,,,,,,,,,,,,,,,,,,,,,,,,,,,,,,,,,,,,,,,,,,,,,,,,,,,,,,,,,,,,,,,,,,,,,,,,,,,,,,,,,,,,,,,,,,,,,,,,,,,,,,
1725618186.107415,1725618186.107669,20.0,0.0,4230.256348,4217.179688,4253.333496,4263.974121,4186.410156,4204.358887,4202.563965,4200.384766,4198.717773,4190.641113,4503.077148,4506.410156,4349.230957,4418.077148,3416.0,2.0,36.0,,,,0.0,4.0,4.0,4.0,4.0,4.0,4.0,4.0,4.0,4.0,4.0,4.0,4.0,4.0,4.0,100.0,,,,,,,,,,,,,,,,,,,,,,,,,,,,,,,,,,,,,,,,,,,,,,,,,,,,,,,,,,,,,,,,,,,,,,,,,,,,,,,,,,,,,,,,,,,,,,,,,,,,,,,,,,,,,,,,,,,,,,,,,,,,,,,,,,,
1725618186.111319,1725618186.111673,21.0,0.0,4232.179688,4217.05127,4252.692383,4264.102539,4185.384766,4204.871582,4202.179688,4199.230957,4196.922852,4189.230957,4505.0,4502.820313,4351.410156,4416.922852,3899.0,2.0,36.0,,,,0.0,4.0,4.0,4.0,4.0,4.0,4.0,4.0,4.0,4.0,4.0,4.0,4.0,4.0,4.0,100.0,,,,,,,,,,,,,,,,,,,,,,,,,,,,,,,,,,,,,,,,,,,,,,,,,,,,,,,,,,,,,,,,,,,,,,,,,,,,,,,,,,,,,,,,,,,,,,,,,,,,,,,,,,,,,,,,,,,,,,,,,,,,,,,,,,,
1725618186.115223,1725618186.115578,22.0,0.0,4234.743652,4216.282227,4252.692383,4263.717773,4186.282227,4203.461426,4202.307617,4198.205078,4196.410156,4186.153809,4507.179688,4499.487305,4355.256348,4414.871582,2885.0,2.0,36.0,,,,0.0,4.0,4.0,4.0,4.0,4.0,4.0,4.0,4.0,4.0,4.0,4.0,4.0,4.0,4.0,100.0,,,,,,,,,,,,,,,,,,,,,,,,,,,,,,,,,,,,,,,,,,,,,,,,,,,,,,,,,,,,,,,,,,,,,,,,,,,,,,,,,,,,,,,,,,,,,,,,,,,,,,,,,,,,,,,,,,,,,,,,,,,,,,,,,,,
1725618186.119127,1725618186.119482,23.0,0.0,4236.282227,4216.025879,4254.487305,4263.205078,4188.205078,4201.153809,4202.307617,4200.128418,4197.436035,4183.974121,4507.563965,4499.358887,4359.358887,4413.589844,3074.0,2.0,36.0,,,,0.0,4.0,4.0,4.0,4.0,4.0,4.0,4.0,4.0,4.0,4.0,4.0,4.0,4.0,4.0,100.0,,,,,,,,,,,,,,,,,,,,,,,,,,,,,,,,,,,,,,,,,,,,,,,,,,,,,,,,,,,,,,,,,,,,,,,,,,,,,,,,,,,,,,,,,,,,,,,,,,,,,,,,,,,,,,,,,,,,,,,,,,,,,,,,,,,
1725618186.123031,1725618186.123386,24.0,0.0,4236.282227,4216.794922,4258.077148,4263.077148,4190.512695,4199.871582,4201.794922,4204.743652,4199.615234,4185.384766,4506.282227,4502.563965,4361.666504,4414.743652,3416.0,2.0,36.0,,,,0.0,4.0,4.0,4.0,4.0,4.0,4.0,4.0,4.0,4.0,4.0,4.0,4.0,4.0,4.0,100.0,,,,,,,,,,,,,,,,,,,,,,,,,,,,,,,,,,,,,,,,,,,,,,,,,,,,,,,,,,,,,,,,,,,,,,,,,,,,,,,,,,,,,,,,,,,,,,,,,,,,,,,,,,,,,,,,,,,,,,,,,,,,,,,,,,,
1725618186.126935,1725618186.12739,25.0,0.0,4235.384766,4218.846191,4262.179688,4263.205078,4193.077148,4201.538574,4201.025879,4208.205078,4201.794922,4190.128418,4505.256348,4506.538574,4361.666504,4418.846191,3899.0,2.0,36.0,,,,0.0,4.0,4.0,4.0,4.0,4.0,4.0,4.0,4.0,4.0,4.0,4.0,4.0,4.0,4.0,100.0,,,,,,,,,,,,,,,,,,,,,,,,,,,,,,,,,,,,,,,,,,,,,,,,,,,,,,,,,,,,,,,,,,,,,,,,,,,,,,,,,,,,,,,,,,,,,,,,,,,,,,,,,,,,,,,,,,,,,,,,,,,,,,,,,,,
1725618186.130839,1725618186.131294,26.0,0.0,4235.641113,4221.153809,4265.256348,4263.846191,4196.153809,4205.641113,4200.769043,4206.794922,4203.333496,4196.025879,4506.922852,4508.589844,4361.025879,4423.974121,2885.0,2.0,36.0,,,,0.0,4.0,4.0,4.0,4.0,4.0,4.0,4.0,4.0,4.0,4.0,4.0,4.0,4.0,4.0,100.0,,,,,,,,,,,,,,,,,,,,,,,,,,,,,,,,,,,,,,,,,,,,,,,,,,,,,,,,0.0,0.0,64.0,0.024272,1.0,0.0,,,,,,,,,,,,,,,,,,,,,,,,,,,,,,,,,,,,,,,,,,,,,,,,,,,,,,,,,,,,,,,,,,,,,,
1725618186.134743,1725618186.135198,27.0,0.0,4238.461426,4222.692383,4266.666504,4264.615234,4199.358887,4209.230957,4201.666504,4201.922852,4203.974121,4200.384766,4511.922852,4508.589844,4362.692383,4427.820313,3074.0,2.0,36.0,,,,0.0,4.0,4.0,4.0,4.0,4.0,4.0,4.0,4.0,4.0,4.0,4.0,4.0,4.0,4.0,100.0,,,,,,,,,,,,,,,,,,,,,,,,,,,,,,,,,,,,,,,,,,,,,,,,,,,,,,,,,,,,,,,,,,,,,,,,,,,,,,,,,,,,,,,,,,,,,,,,,,,,,,,,,,,,,,,,,,,,,,,,,,,,,,,,,,,
1725618186.138647,1725618186.139102,28.0,0.0,4243.717773,4222.820313,4266.794922,4265.256348,4201.282227,4209.871582,4204.230957,4198.846191,4204.230957,4201.794922,4517.94873,4508.589844,4367.820313,4429.230957,3416.0,2.0,36.0,,,,0.0,4.0,4.0,4.0,4.0,4.0,4.0,4.0,4.0,4.0,4.0,4.0,4.0,4.0,4.0,100.0,,,,,,,,,,,,,,,,,,,,,,,,,,,,,,,,,,,,,,,,,,,,,,,,,,,,,,,,,,,,,,,,,,,,,,,,,,,,,,,,,,,,,,,,,,,,,,,,,,,,,,,,,,,,,,,,,,,,,,,,,,,,,,,,,,,
1725618186.142552,1725618186.143106,29.0,0.0,4248.974121,4222.05127,4267.05127,4265.769043,4201.410156,4207.436035,4208.077148,4201.282227,4204.230957,4201.538574,4521.410156,4511.025879,4374.615234,4429.102539,3899.0,2.0,36.0,,,,0.0,4.0,4.0,4.0,4.0,4.0,4.0,4.0,4.0,4.0,4.0,4.0,4.0,4.0,4.0,100.0,,,,,,,,,,,,,,,,,,,,,,,,,,,,,,,,,,,,,,,,,,,,,,,,,,,,,,,,,,,,,,,,,,,,,,,,,,,,,,,,,,,,,,,,,,,,,,,,,,,,,,,,,,,,,,,,,,,,,,,,,,,,,,,,,,,
1725618186.146456,1725618186.14701,30.0,0.0,4251.025879,4221.025879,4267.692383,4266.153809,4200.769043,4204.102539,4212.563965,4208.717773,4203.717773,4200.769043,4520.769043,4515.769043,4379.230957,4429.230957,2885.0,2.0,36.0,,,,0.0,4.0,4.0,4.0,4.0,4.0,4.0,4.0,4.0,4.0,4.0,4.0,4.0,4.0,4.0,100.0,,,,,,,,,,,,,,,,,,,,,,,,,,,,,,,,,,,,,,,,,,,,,,,,,,,,,,,,,,,,,,,,,,,,,,,,,,,,,,,,,,,,,,,,,,,,,,,,,,,,,,,,,,,,,,,,,,,,,,,,,,,,,,,,,,,
1725618186.15036,1725618186.150914,31.0,0.0,4248.589844,4221.025879,4268.205078,4266.025879,4200.384766,4202.307617,4216.282227,4215.769043,4202.94873,4200.384766,4517.05127,4519.743652,4378.846191,4430.256348,3074.0,2.0,36.0,,,,0.0,4.0,4.0,4.0,4.0,4.0,4.0,4.0,4.0,4.0,4.0,4.0,4.0,4.0,4.0,100.0,,,,,,,,,,,,,,,,,,,,,,,,,,,,,,,,,,,,,,,,,,,,,,,,,,,,,,,,,,,,,,,,,,,,,,,,,,,,,,,,,,,,,,,,,,,,,,,,,,,,,,,,,,,,,,,,,,,,,,,,,,,,,,,,,,,
1725618186.154264,1725618186.154818,32.0,0.0,4242.94873,4221.922852,4268.077148,4265.256348,4201.025879,4202.820313,4218.077148,4217.436035,4202.179688,4199.487305,4512.820313,4519.230957,4374.102539,4431.153809,0.0,2.0,36.0,,,,0.0,4.0,4.0,4.0,4.0,4.0,4.0,4.0,4.0,4.0,4.0,4.0,4.0,4.0,4.0,100.0,,,,,,,,,,,,,,,,,,,,,,,,,,,,,,,,,,,,,,,,,,,,,,,,,,,,,,,,,,,,,,,,,,,,,,,,,,,,,,,,,,,,,,,,,,,,,,,,,,,,,,,,,,,,,,,,,,,,,,,,,,,,,,,,,,,
1725618186.158168,1725618186.158623,33.0,0.0,4236.794922,4222.94873,4266.922852,4263.974121,4201.922852,4204.615234,4217.179688,4212.563965,4201.153809,4197.05127,4509.871582,4513.589844,4368.461426,4430.0,0.0,2.0,36.0,,,,0.0,4.0,4.0,4.0,4.0,4.0,4.0,4.0,4.0,4.0,4.0,4.0,4.0,4.0,4.0,100.0,,,,,,,,,,,,,,,,,,,,,,,,,,,,,,,,,,,,,,,,,,,,,,,,,,,,,,,,,,,,,,,,,,,,,,,,,,,,,,,,,,,,,,,,,,,,,,,,,,,,,,,,,,,,,,,,,,,,,,,,,,,,,,,,,,,
1725618186.162072,1725618186.162527,34.0,0.0,4232.692383,4222.692383,4264.743652,4262.820313,4202.05127,4205.641113,4214.487305,4203.846191,4199.871582,4192.436035,4508.461426,4505.897461,4366.025879,4426.282227,0.0,2.0,36.0,,,,0.0,4.0,4.0,4.0,4.0,4.0,4.0,4.0,4.0,4.0,4.0,4.0,4.0,4.0,4.0,100.0,,,,,,,,,,,,,,,,,1.0,0.0,0.0,,,,,,,,,,,,,,,,,,,,,,,,,,,,,,,,,,,,,0.0,0.0,64.0,0.036296,1.0,0.0,2.302165,1.921434,0.387475,0.404056,0.133803,1.989856,1.787782,0.520118,0.267947,0.134358,1.9419,2.168354,0.395239,0.531433,0.110669,2.026939,1.203433,0.341773,0.38759,0.11888,0.65906,0.591778,0.377177,0.165545,0.04276,0.313703,0.91621,0.168103,0.093338,0.10382,0.479264,0.326634,0.229798,0.193277,0.115767,1.384208,3.436146,1.057729,0.444126,0.519883,1.930331,2.109687,0.705504,0.401821,0.236481,2.331787,2.632766,1.209339,0.39387,0.176617,2.898155,3.774404,0.834932,0.737486,0.446553,3.837229,4.315743,0.798358,0.967915,0.279011,3.517622,2.820594,1.049887,0.615795,0.151451,2.406249,2.819585,0.675452,0.588626,0.158187
1725618186.165976,1725618186.166431,35.0,0.0,4231.794922,4220.897461,4262.436035,4262.436035,4201.025879,4205.0,4211.410156,4196.153809,4198.205078,4186.922852,4507.307617,4500.897461,4367.436035,4421.922852,0.0,2.0,36.0,,,,0.0,4.0,4.0,4.0,4.0,4.0,4.0,4.0,4.0,4.0,4.0,4.0,4.0,4.0,4.0,100.0,,,,,,,,,,,,,,,,,,,,,,,,,,,,,,,,,,,,,,,,,,,,,,,,,,,,,,,,,,,,,,,,,,,,,,,,,,,,,,,,,,,,,,,,,,,,,,,,,,,,,,,,,,,,,,,,,,,,,,,,,,,,,,,,,,,
1725618186.16988,1725618186.170335,36.0,0.0,4233.205078,4218.077148,4260.641113,4262.820313,4199.230957,4202.94873,4209.615234,4192.94873,4196.538574,4182.820313,4505.641113,4500.384766,4370.641113,4419.358887,0.0,2.0,36.0,,,,0.0,4.0,4.0,4.0,4.0,4.0,4.0,4.0,4.0,4.0,4.0,4.0,4.0,4.0,4.0,100.0,,,,,,,,,,,,,,,,,,,,,,,,,,,,,,,,,,,,,,,,,,,,,,,,,,,,,,,,,,,,,,,,,,,,,,,,,,,,,,,,,,,,,,,,,,,,,,,,,,,,,,,,,,,,,,,,,,,,,,,,,,,,,,,,,,,
1725618186.173785,1725618186.174139,37.0,0.0,4235.0,4215.641113,4260.128418,4263.717773,4198.077148,4201.025879,4209.615234,4194.230957,4195.384766,4182.307617,4503.974121,4502.563965,4372.692383,4420.128418,0.0,2.0,36.0,,,,0.0,4.0,4.0,4.0,4.0,4.0,4.0,4.0,4.0,4.0,4.0,4.0,4.0,4.0,4.0,100.0,,,,,,,,,,,,,,,,,,,,,,,,,,,,,,,,,,,,,,,,,,,,,,,,,,,,,,,,,,,,,,,,,,,,,,,,,,,,,,,,,,,,,,,,,,,,,,,,,,,,,,,,,,,,,,,,,,,,,,,,,,,,,,,,,,,
1725618186.177689,1725618186.178043,38.0,0.0,4235.769043,4214.615234,4260.641113,4264.743652,4198.589844,4201.282227,4211.282227,4197.563965,4195.512695,4184.871582,4503.846191,4504.487305,4372.692383,4423.589844,0.0,2.0,36.0,,,,0.0,4.0,4.0,4.0,4.0,4.0,4.0,4.0,4.0,4.0,4.0,4.0,4.0,4.0,4.0,100.0,,,,,,,,,,,,,,,,,,,,,,,,,,,,,,,,,,,,,,,,,,,,,,,,,,,,,,,,,,,,,,,,,,,,,,,,,,,,,,,,,,,,,,,,,,,,,,,,,,,,,,,,,,,,,,,,,,,,,,,,,,,,,,,,,,,
