Timestamp,OriginalTimestamp,EEG.Counter,EEG.Interpolated,EEG.AF3,EEG.F7,EEG.F3,EEG.FC5,EEG.T7,EEG.P7,EEG.O1,EEG.O2,EEG.P8,EEG.T8,EEG.FC6,EEG.F4,EEG.F8,EEG.AF4,EEG.RawCq,EEG.Battery,EEG.BatteryPercent,MarkerIndex,MarkerType,MarkerValueInt,EEG.MarkerHardware,CQ.AF3,CQ.F7,CQ.F3,CQ.FC5,CQ.T7,CQ.P7,CQ.O1,CQ.O2,CQ.P8,CQ.T8,CQ.FC6,CQ.F4,CQ.F8,CQ.AF4,CQ.Overall,EQ.SampleRateQuality,EQ.OVERALL,EQ.AF3,EQ.F7,EQ.F3,EQ.FC5,EQ.T7,EQ.P7,EQ.O1,EQ.O2,EQ.P8,EQ.T8,EQ.FC6,EQ.F4,EQ.F8,EQ.AF4,MC.Action,MC.ActionPower,MC.IsActive,PM.Attention.IsActive,PM.Attention.Scaled,PM.Attention.Raw,PM.Attention.Min,PM.Attention.Max,PM.Engagement.IsActive,PM.Engagement.Scaled,PM.Engagement.Raw,PM.Engagement.Min,PM.Engagement.Max,PM.Excitement.IsActive,PM.Excitement.Scaled,PM.Excitement.Raw,PM.Excitement.Min,PM.Excitement.Max,PM.LongTermExcitement,PM.Stress.IsActive,PM.Stress.Scaled,PM.Stress.Raw,PM.Stress.Min,PM.Stress.Max,PM.Relaxation.IsActive,PM.Relaxation.Scaled,PM.Relaxation.Raw,PM.Relaxation.Min,PM.Relaxation.Max,PM.Interest.IsActive,PM.Interest.Scaled,PM.Interest.Raw,PM.Interest.Min,PM.Interest.Max,PM.Focus.IsActive,PM.Focus.Scaled,PM.Focus.Raw,PM.Focus.Min,PM.Focus.Max,FE.BlinkWink,FE.HorizontalEyesDirection,FE.UpperFaceAction,FE.UpperFaceActionPower,FE.LowerFaceAction,FE.LowerFaceActionPower,POW.AF3.Theta,POW.AF3.Alpha,POW.AF3.BetaL,POW.AF3.BetaH,POW.AF3.Gamma,POW.F7.Theta,POW.F7.Alpha,POW.F7.BetaL,POW.F7.BetaH,POW.F7.Gamma,POW.F3.Theta,POW.F3.Alpha,POW.F3.BetaL,POW.F3.BetaH,POW.F3.Gamma,POW.FC5.Theta,POW.FC5.Alpha,POW.FC5.BetaL,POW.FC5.BetaH,POW.FC5.Gamma,POW.T7.Theta,POW.T7.Alpha,POW.T7.BetaL,POW.T7.BetaH,POW.T7.Gamma,POW.P7.Theta,POW.P7.Alpha,POW.P7.BetaL,POW.P7.BetaH,POW.P7.Gamma,POW.O1.Theta,POW.O1.Alpha,POW.O1.BetaL,POW.O1.BetaH,POW.O1.Gamma,POW.O2.Theta,POW.O2.Alpha,POW.O2.BetaL,POW.O2.BetaH,POW.O2.Gamma,POW.P8.Theta,POW.P8.Alpha,POW.P8.BetaL,POW.P8.BetaH,POW.P8.Gamma,POW.T8.Theta,POW.T8.Alpha,POW.T8.BetaL,POW.T8.BetaH,POW.T8.Gamma,POW.FC6.Theta,POW.FC6.Alpha,POW.FC6.BetaL,POW.FC6.BetaH,POW.FC6.Gamma,POW.F4.Theta,POW.F4.Alpha,POW.F4.BetaL,POW.F4.BetaH,POW.F4.Gamma,POW.F8.Theta,POW.F8.Alpha,POW.F8.BetaL,POW.F8.BetaH,POW.F8.Gamma,POW.AF4.Theta,POW.AF4.Alpha,POW.AF4.BetaL,POW.AF4.BetaH,POW.AF4.Gamma
1725715980.908163,1725715980.910111,74.0,0.0,4326.282227,4263.333496,4217.307617,4280.641113,4237.563965,4249.487305,4296.282227,4249.743652,4256.153809,4234.358887,4459.230957,4508.846191,4332.179688,4396.922852,0.0,1.0,15.0,5.0,1.0,1.0,0.0,4.0,4.0,4.0,4.0,4.0,4.0,4.0,4.0,4.0,4.0,4.0,4.0,4.0,4.0,100.0,,,,,,,,,,,,,,,,,,,,,,,,,,,,,,,,,,,,,,,,,,,,,,,,,,,,,,,,,,,,,,,,,,,,,,,,,,,,,,,,,,,,,,,,,,,,,,,,,,,,,,,,,,,,,,,,,,,,,,,,,,,,,,,,,,,
1725715980.912067,1725715980.914015,75.0,0.0,4327.307617,4264.230957,4217.692383,4281.282227,4237.820313,4249.358887,4295.384766,4251.282227,4255.256348,4234.358887,4458.589844,4507.05127,4335.641113,4397.563965,0.0,1.0,15.0,,,,0.0,4.0,4.0,4.0,4.0,4.0,4.0,4.0,4.0,4.0,4.0,4.0,4.0,4.0,4.0,100.0,,,,,,,,,,,,,,,,,,,,,,,,,,,,,,,,,,,,,,,,,,,,,,,,,,,,,,,,,,,,,,,,,,,,,,,,,,,,,,,,,,,,,,,,,,,,,,,,,,,,,,,,,,,,,,,,,,,,,,,,,,,,,,,,,,,
1725715980.915971,1725715980.917919,76.0,0.0,4329.615234,4263.974121,4217.05127,4281.794922,4238.077148,4248.974121,4293.974121,4252.307617,4254.102539,4233.846191,4456.922852,4504.615234,4339.102539,4397.436035,0.0,1.0,15.0,,,,0.0,4.0,4.0,4.0,4.0,4.0,4.0,4.0,4.0,4.0,4.0,4.0,4.0,4.0,4.0,100.0,,,,,,,,,,,,,,,,,,,,,,,,,,,,,,,,,,,,,,,,,,,,,,,,,,,,,,,,0.0,0.0,1.0,0.0,1.0,0.0,,,,,,,,,,,,,,,,,,,,,,,,,,,,,,,,,,,,,,,,,,,,,,,,,,,,,,,,,,,,,,,,,,,,,,
1725715980.919875,1725715980.921823,77.0,0.0,4332.307617,4262.94873,4215.897461,4281.538574,4237.94873,4248.205078,4292.563965,4251.666504,4253.717773,4233.461426,4455.384766,4502.94873,4341.666504,4397.179688,0.0,1.0,15.0,,,,0.0,4.0,4.0,4.0,4.0,4.0,4.0,4.0,4.0,4.0,4.0,4.0,4.0,4.0,4.0,100.0,,,,,,,,,,,,,,,,,,,,,,,,,,,,,,,,,,,,,,,,,,,,,,,,,,,,,,,,,,,,,,,,,,,,,,,,,,,,,,,,,,,,,,,,,,,,,,,,,,,,,,,,,,,,,,,,,,,,,,,,,,,,,,,,,,,
1725715980.923779,1725715980.925827,78.0,0.0,4334.871582,4261.794922,4214.871582,4280.128418,4237.05127,4247.179688,4292.05127,4249.487305,4254.230957,4233.205078,4454.871582,4502.94873,4342.436035,4396.666504,0.0,1.0,15.0,,,,0.0,4.0,4.0,4.0,4.0,4.0,4.0,4.0,4.0,4.0,4.0,4.0,4.0,4.0,4.0,100.0,,,,,,,,,,,,,,,,,,,,,,,,,,,,,,,,,,,,,,,,,,,,,,,,,,,,,,,,,,,,,,,,,,,,,,,,,,,,,,,,,,,,,,,,,,,,,,,,,,,,,,,,,,,,,,,,,,,,,,,,,,,,,,,,,,,
1725715980.927683,1725715980.929731,79.0,0.0,4337.307617,4262.05127,4215.0,4279.102539,4235.897461,4246.538574,4292.692383,4248.077148,4256.282227,4233.846191,4456.282227,4504.102539,4341.538574,4396.410156,0.0,1.0,15.0,,,,0.0,4.0,4.0,4.0,4.0,4.0,4.0,4.0,4.0,4.0,4.0,4.0,4.0,4.0,4.0,100.0,,,,,,,,,,,,,,,,,,,,,,,,,,,,,,,,,,,,,,,,,,,,,,,,,,,,,,,,,,,,,,,,,,,,,,,,,,,,,,,,,,,,,,,,,,,,,,,,,,,,,,,,,,,,,,,,,,,,,,,,,,,,,,,,,,,
1725715980.931588,1725715980.933635,80.0,0.0,4340.0,4263.846191,4216.025879,4279.871582,4235.256348,4247.05127,4293.846191,4250.128418,4260.128418,4235.256348,4460.256348,4505.897461,4340.256348,4397.436035,0.0,1.0,15.0,,,,0.0,4.0,4.0,4.0,4.0,4.0,4.0,4.0,4.0,4.0,4.0,4.0,4.0,4.0,4.0,100.0,,,,,,,,,,,,,,,,,,,,,,,,,,,,,,,,,,,,,,,,,,,,,,,,,,,,,,,,,,,,,,,,,,,,,,,,,,,,,,,,,,,,,,,,,,,,,,,,,,,,,,,,,,,,,,,,,,,,,,,,,,,,,,,,,,,
1725715980.935492,1725715980.937539,81.0,0.0,4342.94873,4266.282227,4217.563965,4282.94873,4235.384766,4248.589844,4294.871582,4255.641113,4264.487305,4237.179688,4465.641113,4507.94873,4339.871582,4400.0,0.0,1.0,15.0,,,,0.0,4.0,4.0,4.0,4.0,4.0,4.0,4.0,4.0,4.0,4.0,4.0,4.0,4.0,4.0,100.0,,,,,,,,,,,,,,,,,,,,,,,,,,,,,,,,,,,,,,,,,,,,,,,,,,,,,,,,,,,,,,,,,,,,,,,,,,,,,,,,,,,,,,,,,,,,,,,,,,,,,,,,,,,,,,,,,,,,,,,,,,,,,,,,,,,
1725715980.939396,1725715980.941344,82.0,0.0,4345.256348,4267.692383,4218.461426,4286.282227,4236.025879,4249.487305,4294.743652,4261.922852,4266.666504,4238.589844,4470.384766,4509.743652,4341.282227,4403.077148,0.0,1.0,15.0,,,,0.0,4.0,4.0,4.0,4.0,4.0,4.0,4.0,4.0,4.0,4.0,4.0,4.0,4.0,4.0,100.0,,,,,,,,,,,,,,,,,,,,,,,,,,,,,,,,,,,,,,,,,,,,,,,,,,,,,,,,,,,,,,,,,,,,,,,,,,,,,,,,,,,,,,,,,,,,,,,,,,,,,,,,,,,,,,,,,,,,,,,,,,,,,,,,,,,
1725715980.9433,1725715980.945248,83.0,0.0,4346.410156,4267.436035,4218.717773,4287.820313,4236.410156,4248.077148,4293.205078,4265.128418,4264.871582,4238.333496,4472.307617,4510.256348,4343.717773,4405.0,0.0,1.0,15.0,,,,0.0,4.0,4.0,4.0,4.0,4.0,4.0,4.0,4.0,4.0,4.0,4.0,4.0,4.0,4.0,100.0,,,,,,,,,,,,,,,,,,,,,,,,,,,,,,,,,,,,,,,,,,,,,,,,,,,,,,,,,,,,,,,,,,,,,,,,,,,,,,,,,,,,,,,,,,,,,,,,,,,,,,,,,,,,,,,,,,,,,,,,,,,,,,,,,,,
1725715980.947204,1725715980.949152,84.0,0.0,4346.794922,4266.153809,4218.333496,4287.05127,4236.025879,4244.358887,4290.897461,4262.563965,4259.615234,4236.410156,4470.769043,4509.230957,4346.025879,4405.384766,0.0,1.0,15.0,,,,0.0,4.0,4.0,4.0,4.0,4.0,4.0,4.0,4.0,4.0,4.0,4.0,4.0,4.0,4.0,100.0,,,,,,,,,,,,,,,,,1.0,0.0,0.0,,,,,,,,,,,,,,,,,,,,,,,,,,,,,,,,,,,,,0.0,0.0,1.0,0.0,1.0,0.0,12.003691,1.811641,0.550325,0.163979,0.084005,2.04141,1.106037,0.669132,0.117916,0.046929,2.461542,1.331029,0.697876,0.201996,0.039652,3.086824,2.111639,0.760061,0.181971,0.045066,0.492686,0.233531,0.24436,0.089121,0.024608,0.218412,0.249031,0.291163,0.051783,0.039512,5.93129,0.706608,0.18144,0.103737,0.031597,0.984203,0.670767,0.460638,0.147721,0.067227,0.639722,1.643656,1.019378,0.164852,0.099315,1.772384,1.293507,0.919555,0.161708,0.081151,2.586704,1.452302,1.402001,0.201767,0.07077,2.758672,1.553418,1.02963,0.214747,0.082215,3.378172,1.49212,1.349038,0.164366,0.057613,2.45339,1.526328,0.932259,0.213533,0.062313
1725715980.951108,1725715980.953056,85.0,0.0,4347.563965,4265.256348,4217.820313,4284.871582,4234.871582,4239.358887,4288.974121,4255.0,4253.846191,4233.974121,4467.436035,4506.666504,4347.307617,4404.615234,0.0,1.0,15.0,,,,0.0,4.0,4.0,4.0,4.0,4.0,4.0,4.0,4.0,4.0,4.0,4.0,4.0,4.0,4.0,100.0,,,,,,,,,,,,,,,,,,,,,,,,,,,,,,,,,,,,,,,,,,,,,,,,,,,,,,,,,,,,,,,,,,,,,,,,,,,,,,,,,,,,,,,,,,,,,,,,,,,,,,,,,,,,,,,,,,,,,,,,,,,,,,,,,,,
1725715980.955012,1725715980.95686,86.0,0.0,4349.487305,4266.410156,4217.94873,4283.077148,4233.846191,4235.128418,4288.333496,4246.794922,4251.025879,4232.94873,4465.0,4504.487305,4347.692383,4404.230957,0.0,1.0,15.0,,,,0.0,4.0,4.0,4.0,4.0,4.0,4.0,4.0,4.0,4.0,4.0,4.0,4.0,4.0,4.0,100.0,,,,,,,,,,,,,,,,,,,,,,,,,,,,,,,,,,,,,,,,,,,,,,,,,,,,,,,,,,,,,,,,,,,,,,,,,,,,,,,,,,,,,,,,,,,,,,,,,,,,,,,,,,,,,,,,,,,,,,,,,,,,,,,,,,,
1725715980.958916,1725715980.960764,87.0,0.0,4352.563965,4269.615234,4219.743652,4283.333496,4233.461426,4233.077148,4289.230957,4243.205078,4252.436035,4234.871582,4465.641113,4504.743652,4348.461426,4405.384766,0.0,1.0,15.0,,,,0.0,4.0,4.0,4.0,4.0,4.0,4.0,4.0,4.0,4.0,4.0,4.0,4.0,4.0,4.0,100.0,,,,,,,,,,,,,,,,,,,,,,,,,,,,,,,,,,,,,,,,,,,,,,,,,,,,,,,,,,,,,,,,,,,,,,,,,,,,,,,,,,,,,,,,,,,,,,,,,,,,,,,,,,,,,,,,,,,,,,,,,,,,,,,,,,,
1725715980.96282,1725715980.964668,88.0,0.0,4355.641113,4273.461426,4222.820313,4285.641113,4233.717773,4233.333496,4290.384766,4247.307617,4257.436035,4239.358887,4469.230957,4508.461426,4350.769043,4408.077148,0.0,1.0,15.0,,,,0.0,4.0,4.0,4.0,4.0,4.0,4.0,4.0,4.0,4.0,4.0,4.0,4.0,4.0,4.0,100.0,,,,,,,,,,,,,,,,,,,,,,,,,,,,,,,,,,,,,,,,,,,,,,,,,,,,,,,,,,,,,,,,,,,,,,,,,,,,,,,,,,,,,,,,,,,,,,,,,,,,,,,,,,,,,,,,,,,,,,,,,,,,,,,,,,,
1725715980.966725,1725715980.968672,89.0,0.0,4357.692383,4276.282227,4226.282227,4288.846191,4233.846191,4234.487305,4291.025879,4256.538574,4263.077148,4244.487305,4473.461426,4514.615234,4354.358887,4411.025879,0.0,1.0,15.0,,,,0.0,4.0,4.0,4.0,4.0,4.0,4.0,4.0,4.0,4.0,4.0,4.0,4.0,4.0,4.0,100.0,,,,,,,,,,,,,,,,,,,,,,,,,,,,,,,,,,,,,,,,,,,,,,,,,,,,,,,,,,,,,,,,,,,,,,,,,,,,,,,,,,,,,,,,,,,,,,,,,,,,,,,,,,,,,,,,,,,,,,,,,,,,,,,,,,,
1725715980.970629,1725715980.972576,90.0,0.0,4358.333496,4277.436035,4228.846191,4291.410156,4233.461426,4234.871582,4290.897461,4264.358887,4266.153809,4247.820313,4475.384766,4520.769043,4357.563965,4413.077148,0.0,1.0,15.0,,,,0.0,4.0,4.0,4.0,4.0,4.0,4.0,4.0,4.0,4.0,4.0,4.0,4.0,4.0,4.0,100.0,,,,,,,,,,,,,,,,,,,,,,,,,,,,,,,,,,,,,,,,,,,,,,,,,,,,,,,,,,,,,,,,,,,,,,,,,,,,,,,,,,,,,,,,,,,,,,,,,,,,,,,,,,,,,,,,,,,,,,,,,,,,,,,,,,,
1725715980.974533,1725715980.976481,91.0,0.0,4358.205078,4276.922852,4229.871582,4292.563965,4232.820313,4233.846191,4290.384766,4265.641113,4265.256348,4248.461426,4474.230957,4524.230957,4358.846191,4413.717773,0.0,1.0,15.0,,,,0.0,4.0,4.0,4.0,4.0,4.0,4.0,4.0,4.0,4.0,4.0,4.0,4.0,4.0,4.0,100.0,,,,,,,,,,,,,,,,,,,,,,,,,,,,,,,,,,,,,,,,,,,,,,,,,,,,,,,,,,,,,,,,,,,,,,,,,,,,,,,,,,,,,,,,,,,,,,,,,,,,,,,,,,,,,,,,,,,,,,,,,,,,,,,,,,,
1725715980.978437,1725715980.980385,92.0,0.0,4358.589844,4276.025879,4229.743652,4292.436035,4232.179688,4231.922852,4290.256348,4260.128418,4262.05127,4246.922852,4471.794922,4524.102539,4358.333496,4413.205078,0.0,1.0,15.0,,,,0.0,4.0,4.0,4.0,4.0,4.0,4.0,4.0,4.0,4.0,4.0,4.0,4.0,4.0,4.0,100.0,,,,,,,,,,,,,,,,,,,,,,,,,,,,,,,,,,,,,,,,,,,,,,,,,,,,,,,,0.0,0.0,1.0,0.0,1.0,0.0,,,,,,,,,,,,,,,,,,,,,,,,,,,,,,,,,,,,,,,,,,,,,,,,,,,,,,,,,,,,,,,,,,,,,,
1725715980.982341,1725715980.984389,93.0,0.0,4360.641113,4275.512695,4229.358887,4292.307617,4231.794922,4230.384766,4290.641113,4252.692383,4259.743652,4245.0,4470.897461,4521.794922,4357.307617,4412.179688,0.0,1.0,15.0,,,,0.0,4.0,4.0,4.0,4.0,4.0,4.0,4.0,4.0,4.0,4.0,4.0,4.0,4.0,4.0,100.0,,,,,,,,,,,,,,,,,,,,,,,,,,,,,,,,,,,,,,,,,,,,,,,,,,,,,,,,,,,,,,,,,,,,,,,,,,,,,,,,,,,,,,,,,,,,,,,,,,,,,,,,,,,,,,,,,,,,,,,,,,,,,,,,,,,
1725715980.986245,1725715980.988293,94.0,0.0,4364.487305,4275.897461,4229.615234,4292.563965,4231.794922,4229.743652,4291.153809,4249.487305,4260.897461,4244.487305,4472.307617,4520.0,4357.563965,4411.410156,0.0,1.0,15.0,,,,0.0,4.0,4.0,4.0,4.0,4.0,4.0,4.0,4.0,4.0,4.0,4.0,4.0,4.0,4.0,100.0,,,,,,,,,,,,,,,,,,,,,,,,,,,,,,,,,,,,,,,,,,,,,,,,,,,,,,,,,,,,,,,,,,,,,,,,,,,,,,,,,,,,,,,,,,,,,,,,,,,,,,,,,,,,,,,,,,,,,,,,,,,,,,,,,,,
1725715980.990149,1725715980.992197,95.0,0.0,4369.230957,4276.666504,4230.769043,4293.461426,4232.179688,4230.384766,4291.282227,4252.820313,4264.743652,4245.641113,4474.487305,4521.025879,4360.0,4411.922852,0.0,1.0,15.0,,,,0.0,4.0,4.0,4.0,4.0,4.0,4.0,4.0,4.0,4.0,4.0,4.0,4.0,4.0,4.0,100.0,,,,,,,,,,,,,,,,,,,,,,,,,,,,,,,,,,,,,,,,,,,,,,,,,,,,,,,,,,,,,,,,,,,,,,,,,,,,,,,,,,,,,,,,,,,,,,,,,,,,,,,,,,,,,,,,,,,,,,,,,,,,,,,,,,,
1725715980.994053,1725715980.996101,96.0,0.0,4373.333496,4277.307617,4232.307617,4294.358887,4232.94873,4231.538574,4290.641113,4260.0,4268.077148,4247.563965,4475.641113,4525.128418,4363.589844,4414.102539,0.0,1.0,15.0,,,,0.0,4.0,4.0,4.0,4.0,4.0,4.0,4.0,4.0,4.0,4.0,4.0,4.0,4.0,4.0,100.0,,,,,,,,,,,,,,,,,,,,,,,,,,,,,,,,,,,,,,,,,,,,,,,,,,,,,,,,,,,,,,,,,,,,,,,,,,,,,,,,,,,,,,,,,,,,,,,,,,,,,,,,,,,,,,,,,,,,,,,,,,,,,,,,,,,
1725715980.997957,1725715981.000005,97.0,0.0,4376.025879,4277.563965,4233.717773,4294.743652,4233.589844,4232.436035,4288.846191,4266.410156,4268.846191,4248.717773,4476.282227,4530.256348,4366.538574,4417.692383,0.0,1.0,15.0,,,,0.0,4.0,4.0,4.0,4.0,4.0,4.0,4.0,4.0,4.0,4.0,4.0,4.0,4.0,4.0,100.0,,,,,,,,,,,,,,,,,,,,,,,,,,,,,,,,,,,,,,,,,,,,,,,,,,,,,,,,,,,,,,,,,,,,,,,,,,,,,,,,,,,,,,,,,,,,,,,,,,,,,,,,,,,,,,,,,,,,,,,,,,,,,,,,,,,
1725715981.001861,1725715981.003809,98.0,0.0,4378.205078,4277.692383,4234.743652,4295.0,4233.846191,4232.820313,4286.025879,4268.846191,4267.307617,4249.102539,4478.205078,4534.487305,4367.563965,4421.410156,0.0,1.0,15.0,,,,0.0,4.0,4.0,4.0,4.0,4.0,4.0,4.0,4.0,4.0,4.0,4.0,4.0,4.0,4.0,100.0,,,,,,,,,,,,,,,,,,,,,,,,,,,,,,,,,,,,,,,,,,,,,,,,,,,,,,,,,,,,,,,,,,,,,,,,,,,,,,,,,,,,,,,,,,,,,,,,,,,,,,,,,,,,,,,,,,,,,,,,,,,,,,,,,,,
1725715981.005766,1725715981.007713,99.0,0.0,4381.282227,4278.205078,4235.384766,4295.256348,4233.717773,4232.563965,4282.820313,4267.563965,4266.666504,4249.487305,4482.563965,4536.794922,4366.538574,4424.358887,0.0,1.0,15.0,,,,0.0,4.0,4.0,4.0,4.0,4.0,4.0,4.0,4.0,4.0,4.0,4.0,4.0,4.0,4.0,100.0,,,,,,,,,,,,,,,,,,,,,,,,,,,,,,,,,,,,,,,,,,,,,,,,,,,,,,,,,,,,,,,,,,,,,,,,,,,,,,,,,,,,,,,,,,,,,,,,,,,,,,,,,,,,,,,,,,,,,,,,,,,,,,,,,,,
1725715981.00967,1725715981.011617,100.0,0.0,4385.769043,4278.974121,4235.256348,4295.512695,4233.333496,4231.666504,4280.0,4265.256348,4269.102539,4251.025879,4487.436035,4537.692383,4365.256348,4425.512695,0.0,1.0,15.0,,,,0.0,4.0,4.0,4.0,4.0,4.0,4.0,4.0,4.0,4.0,4.0,4.0,4.0,4.0,4.0,100.0,,,,,,,,,,,,,,,,,,,,,,,,,,,,,,,,,,,,,,,,,,,,,,,,,,,,,,,,0.0,0.0,1.0,0.0,1.0,0.0,,,,,,,,,,,,,,,,,,,,,,,,,,,,,,,,,,,,,,,,,,,,,,,,,,,,,,,,,,,,,,,,,,,,,,
1725715981.013574,1725715981.015621,101.0,0.0,4390.769043,4280.0,4234.487305,4295.512695,4233.205078,4230.384766,4278.077148,4264.230957,4273.846191,4253.077148,4490.0,4537.820313,4364.871582,4424.615234,0.0,1.0,15.0,,,,0.0,4.0,4.0,4.0,4.0,4.0,4.0,4.0,4.0,4.0,4.0,4.0,4.0,4.0,4.0,100.0,,,,,,,,,,,,,,,,,,,,,,,,,,,,,,,,,,,,,,,,,,,,,,,,,,,,,,,,,,,,,,,,,,,,,,,,,,,,,,,,,,,,,,,,,,,,,,,,,,,,,,,,,,,,,,,,,,,,,,,,,,,,,,,,,,,
1725715981.017478,1725715981.019526,102.0,0.0,4394.487305,4280.769043,4233.461426,4295.128418,4233.846191,4229.358887,4277.05127,4265.128418,4278.205078,4254.487305,4488.589844,4538.205078,4365.641113,4422.436035,0.0,1.0,15.0,,,,0.0,4.0,4.0,4.0,4.0,4.0,4.0,4.0,4.0,4.0,4.0,4.0,4.0,4.0,4.0,100.0,,,,,,,,,,,,,,,,,,,,,,,,,,,,,,,,,,,,,,,,,,,,,,,,,,,,,,,,,,,,,,,,,,,,,,,,,,,,,,,,,,,,,,,,,,,,,,,,,,,,,,,,,,,,,,,,,,,,,,,,,,,,,,,,,,,
1725715981.021382,1725715981.02343,103.0,0.0,4396.025879,4281.538574,4233.205078,4295.0,4235.0,4229.230957,4276.410156,4266.410156,4279.487305,4253.974121,4484.102539,4538.589844,4366.282227,4420.0,0.0,1.0,15.0,,,,0.0,4.0,4.0,4.0,4.0,4.0,4.0,4.0,4.0,4.0,4.0,4.0,4.0,4.0,4.0,100.0,,,,,,,,,,,,,,,,,,,,,,,,,,,,,,,,,,,,,,,,,,,,,,,,,,,,,,,,,,,,,,,,,,,,,,,,,,,,,,,,,,,,,,,,,,,,,,,,,,,,,,,,,,,,,,,,,,,,,,,,,,,,,,,,,,,
1725715981.025286,1725715981.027334,104.0,0.0,4395.128418,4282.307617,4233.846191,4295.512695,4236.282227,4230.128418,4275.897461,4266.666504,4276.282227,4252.05127,4479.230957,4538.717773,4366.025879,4418.205078,0.0,1.0,15.0,,,,0.0,4.0,4.0,4.0,4.0,4.0,4.0,4.0,4.0,4.0,4.0,4.0,4.0,4.0,4.0,100.0,,,,,,,,,,,,,,,,,,,,,,,,,,,,,,,,,,,,,,,,,,,,,,,,,,,,,,,,,,,,,,,,,,,,,,,,,,,,,,,,,,,,,,,,,,,,,,,,,,,,,,,,,,,,,,,,,,,,,,,,,,,,,,,,,,,
1725715981.02919,1725715981.031138,105.0,0.0,4391.794922,4282.94873,4235.128418,4296.282227,4237.05127,4231.282227,4274.743652,4265.128418,4270.0,4249.871582,4476.153809,4538.077148,4365.128418,4416.666504,0.0,1.0,15.0,,,,0.0,4.0,4.0,4.0,4.0,4.0,4.0,4.0,4.0,4.0,4.0,4.0,4.0,4.0,4.0,100.0,,,,,,,,,,,,,,,,,,,,,,,,,,,,,,,,,,,,,,,,,,,,,,,,,,,,,,,,,,,,,,,,,,,,,,,,,,,,,,,,,,,,,,,,,,,,,,,,,,,,,,,,,,,,,,,,,,,,,,,,,,,,,,,,,,,
1725715981.033094,1725715981.035042,106.0,0.0,4386.153809,4283.077148,4236.666504,4296.666504,4236.666504,4231.538574,4273.077148,4263.205078,4264.487305,4248.717773,4475.641113,4537.179688,4364.487305,4414.871582,0.0,1.0,15.0,,,,0.0,4.0,4.0,4.0,4.0,4.0,4.0,4.0,4.0,4.0,4.0,4.0,4.0,4.0,4.0,100.0,,,,,,,,,,,,,,,,,,,,,,,,,,,,,,,,,,,,,,,,,,,,,,,,,,,,,,,,,,,,,,,,,,,,,,,,,,,,,,,,,,,,,,,,,,,,,,,,,,,,,,,,,,,,,,,,,,,,,,,,,,,,,,,,,,,
1725715981.036998,1725715981.038946,107.0,0.0,4378.974121,4282.692383,4237.307617,4296.538574,4235.384766,4230.641113,4271.025879,4262.692383,4263.077148,4249.230957,4476.922852,4536.410156,4365.128418,4412.820313,0.0,1.0,15.0,,,,0.0,4.0,4.0,4.0,4.0,4.0,4.0,4.0,4.0,4.0,4.0,4.0,4.0,4.0,4.0,100.0,,,,,,,,,,,,,,,,,,,,,,,,,,,,,,,,,,,,,,,,,,,,,,,,,,,,,,,,,,,,,,,,,,,,,,,,,,,,,,,,,,,,,,,,,,,,,,,,,,,,,,,,,,,,,,,,,,,,,,,,,,,,,,,,,,,
1725715981.040903,1725715981.04285,108.0,0.0,4371.410156,4281.922852,4236.538574,4296.538574,4234.102539,4228.717773,4269.615234,4263.974121,4266.666504,4250.769043,4478.589844,4536.153809,4366.410156,4412.05127,0.0,1.0,15.0,,,,0.0,4.0,4.0,4.0,4.0,4.0,4.0,4.0,4.0,4.0,4.0,4.0,4.0,4.0,4.0,100.0,,,,,,,,,,,,,,,,,,,,,,,,,,,,,,,,,,,,,,,,,,,,,,,,,,,,,,,,0.0,0.0,1.0,0.0,1.0,0.0,,,,,,,,,,,,,,,,,,,,,,,,,,,,,,,,,,,,,,,,,,,,,,,,,,,,,,,,,,,,,,,,,,,,,,
1725715981.044807,1725715981.046655,109.0,0.0,4364.102539,4280.769043,4234.102539,4296.282227,4233.333496,4226.794922,4269.487305,4266.025879,4272.436035,4252.05127,4479.615234,4536.153809,4367.436035,4413.205078,0.0,1.0,15.0,,,,0.0,4.0,4.0,4.0,4.0,4.0,4.0,4.0,4.0,4.0,4.0,4.0,4.0,4.0,4.0,100.0,,,,,,,,,,,,,,,,,,,,,,,,,,,,,,,,,,,,,,,,,,,,,,,,,,,,,,,,,,,,,,,,,,,,,,,,,,,,,,,,,,,,,,,,,,,,,,,,,,,,,,,,,,,,,,,,,,,,,,,,,,,,,,,,,,,
1725715981.048711,1725715981.050559,110.0,0.0,4357.436035,4279.358887,4231.153809,4295.641113,4233.205078,4225.384766,4270.641113,4267.179688,4276.282227,4252.05127,4479.487305,4535.769043,4366.282227,4415.384766,0.0,1.0,15.0,,,,0.0,4.0,4.0,4.0,4.0,4.0,4.0,4.0,4.0,4.0,4.0,4.0,4.0,4.0,4.0,100.0,,,,,,,,,,,,,,,,,,,,,,,,,,,,,,,,,,,,,,,,,,,,,,,,,,,,,,,,,,,,,,,,,,,,,,,,,,,,,,,,,,,,,,,,,,,,,,,,,,,,,,,,,,,,,,,,,,,,,,,,,,,,,,,,,,,
1725715981.052615,1725715981.054463,111.0,0.0,4351.282227,4277.820313,4230.256348,4294.743652,4233.333496,4225.512695,4272.94873,4266.922852,4275.897461,4250.641113,4478.333496,4535.256348,4362.820313,4416.410156,0.0,1.0,15.0,,,,0.0,4.0,4.0,4.0,4.0,4.0,4.0,4.0,4.0,4.0,4.0,4.0,4.0,4.0,4.0,100.0,,,,,,,,,,,,,,,,,,,,,,,,,,,,,,,,,,,,,,,,,,,,,,,,,,,,,,,,,,,,,,,,,,,,,,,,,,,,,,,,,,,,,,,,,,,,,,,,,,,,,,,,,,,,,,,,,,,,,,,,,,,,,,,,,,,
1725715981.056519,1725715981.058467,112.0,0.0,4346.538574,4276.410156,4233.205078,4293.974121,4233.461426,4227.307617,4275.641113,4265.769043,4271.922852,4249.102539,4477.05127,4534.871582,4358.077148,4415.384766,0.0,1.0,15.0,,,,0.0,4.0,4.0,4.0,4.0,4.0,4.0,4.0,4.0,4.0,4.0,4.0,4.0,4.0,4.0,100.0,,,,,,,,,,,,,,,,,,,,,,,,,,,,,,,,,,,,,,,,,,,,,,,,,,,,,,,,,,,,,,,,,,,,,,,,,,,,,,,,,,,,,,,,,,,,,,,,,,,,,,,,,,,,,,,,,,,,,,,,,,,,,,,,,,,
1725715981.060423,1725715981.062371,113.0,0.0,4343.589844,4275.897461,4239.358887,4293.974121,4233.461426,4229.358887,4278.205078,4264.487305,4267.05127,4248.589844,4476.025879,4535.769043,4354.487305,4413.717773,0.0,1.0,15.0,,,,0.0,4.0,4.0,4.0,4.0,4.0,4.0,4.0,4.0,4.0,4.0,4.0,4.0,4.0,4.0,100.0,,,,,,,,,,,,,,,,,,,,,,,,,,,,,,,,,,,,,,,,,,,,,,,,,,,,,,,,,,,,,,,,,,,,,,,,,,,,,,,,,,,,,,,,,,,,,,,,,,,,,,,,,,,,,,,,,,,,,,,,,,,,,,,,,,,
1725715981.064327,1725715981.066275,114.0,0.0,4342.563965,4276.794922,4245.0,4294.743652,4233.205078,4230.128418,4280.0,4263.205078,4264.102539,4249.102539,4475.769043,4537.563965,4353.974121,4414.102539,0.0,1.0,15.0,,,,0.0,4.0,4.0,4.0,4.0,4.0,4.0,4.0,4.0,4.0,4.0,4.0,4.0,4.0,4.0,100.0,,,,,,,,,,,,,,,,,,,,,,,,,,,,,,,,,,,,,,,,,,,,,,,,,,,,,,,,,,,,,,,,,,,,,,,,,,,,,,,,,,,,,,,,,,,,,,,,,,,,,,,,,,,,,,,,,,,,,,,,,,,,,,,,,,,
1725715981.068231,1725715981.070179,115.0,0.0,4342.05127,4278.589844,4246.794922,4295.897461,4232.94873,4228.205078,4281.025879,4262.436035,4264.102539,4249.743652,4475.897461,4538.589844,4357.179688,4418.077148,0.0,1.0,15.0,,,,0.0,4.0,4.0,4.0,4.0,4.0,4.0,4.0,4.0,4.0,4.0,4.0,4.0,4.0,4.0,100.0,,,,,,,,,,,,,,,,,,,,,,,,,,,,,,,,,,,,,,,,,,,,,,,,,,,,,,,,,,,,,,,,,,,,,,,,,,,,,,,,,,,,,,,,,,,,,,,,,,,,,,,,,,,,,,,,,,,,,,,,,,,,,,,,,,,
1725715981.072135,1725715981.074083,116.0,0.0,4341.025879,4280.641113,4243.461426,4296.794922,4233.205078,4223.974121,4281.153809,4261.794922,4265.897461,4249.358887,4476.666504,4536.538574,4362.692383,4423.974121,0.0,1.0,15.0,,,,0.0,4.0,4.0,4.0,4.0,4.0,4.0,4.0,4.0,4.0,4.0,4.0,4.0,4.0,4.0,100.0,,,,,,,,,,,,,,,,,1.0,0.0,0.0,,,,,,,,,,,,,,,,,,,,,,,,,,,,,,,,,,,,,0.0,0.0,1.0,0.0,1.0,0.0,14.390176,1.490249,0.500196,0.205966,0.080633,1.868073,0.869505,0.533547,0.131922,0.048234,2.2633,0.808726,0.454928,0.163351,0.033189,2.424286,1.692573,0.568414,0.159377,0.04284,0.463891,0.20271,0.201211,0.090532,0.031583,0.284037,0.258247,0.26159,0.046005,0.037422,5.723024,0.713257,0.187039,0.111977,0.033673,1.154226,0.625307,0.363434,0.128306,0.075421,0.758494,1.511612,0.830905,0.154295,0.10977,1.727719,1.119857,0.722629,0.16726,0.079238,2.508202,1.357409,1.143012,0.226271,0.079092,2.881327,1.378257,0.766565,0.211242,0.095458,2.962585,1.320176,1.069079,0.165933,0.054813,2.311697,1.373927,0.728837,0.212644,0.063906
1725715981.076039,1725715981.077887,117.0,0.0,4338.974121,4282.307617,4237.563965,4297.05127,4233.717773,4219.871582,4280.384766,4260.897461,4267.179688,4247.692383,4477.563965,4531.282227,4367.563965,4427.692383,0.0,1.0,15.0,,,,0.0,4.0,4.0,4.0,4.0,4.0,4.0,4.0,4.0,4.0,4.0,4.0,4.0,4.0,4.0,100.0,,,,,,,,,,,,,,,,,,,,,,,,,,,,,,,,,,,,,,,,,,,,,,,,,,,,,,,,,,,,,,,,,,,,,,,,,,,,,,,,,,,,,,,,,,,,,,,,,,,,,,,,,,,,,,,,,,,,,,,,,,,,,,,,,,,
1725715981.079943,1725715981.081791,118.0,0.0,4336.538574,4282.94873,4233.333496,4296.282227,4234.230957,4218.205078,4279.358887,4259.487305,4266.922852,4245.769043,4477.820313,4525.256348,4369.487305,4427.05127,0.0,1.0,15.0,,,,0.0,4.0,4.0,4.0,4.0,4.0,4.0,4.0,4.0,4.0,4.0,4.0,4.0,4.0,4.0,100.0,,,,,,,,,,,,,,,,,,,,,,,,,,,,,,,,,,,,,,,,,,,,,,,,,,,,,,,,,,,,,,,,,,,,,,,,,,,,,,,,,,,,,,,,,,,,,,,,,,,,,,,,,,,,,,,,,,,,,,,,,,,,,,,,,,,
1725715981.083847,1725715981.085696,119.0,0.0,4334.358887,4282.820313,4234.102539,4295.256348,4234.358887,4220.0,4279.102539,4257.94873,4265.256348,4244.743652,4477.179688,4521.282227,4368.077148,4422.820313,0.0,1.0,15.0,,,,0.0,4.0,4.0,4.0,4.0,4.0,4.0,4.0,4.0,4.0,4.0,4.0,4.0,4.0,4.0,100.0,,,,,,,,,,,,,,,,,,,,,,,,,,,,,,,,,,,,,,,,,,,,,,,,,,,,,,,,,,,,,,,,,,,,,,,,,,,,,,,,,,,,,,,,,,,,,,,,,,,,,,,,,,,,,,,,,,,,,,,,,,,,,,,,,,,
1725715981.087752,1725715981.0897,120.0,0.0,4333.461426,4282.436035,4239.615234,4294.615234,4234.102539,4224.615234,4280.769043,4257.307617,4262.94873,4245.0,4476.538574,4521.666504,4364.743652,4417.94873,0.0,1.0,15.0,,,,0.0,4.0,4.0,4.0,4.0,4.0,4.0,4.0,4.0,4.0,4.0,4.0,4.0,4.0,4.0,100.0,,,,,,,,,,,,,,,,,,,,,,,,,,,,,,,,,,,,,,,,,,,,,,,,,,,,,,,,,,,,,,,,,,,,,,,,,,,,,,,,,,,,,,,,,,,,,,,,,,,,,,,,,,,,,,,,,,,,,,,,,,,,,,,,,,,
1725715981.091656,1725715981.093604,121.0,0.0,4334.230957,4282.307617,4246.666504,4295.512695,4233.846191,4229.487305,4284.102539,4258.077148,4261.153809,4246.153809,4476.538574,4526.282227,4361.794922,4415.641113,0.0,1.0,15.0,,,,0.0,4.0,4.0,4.0,4.0,4.0,4.0,4.0,4.0,4.0,4.0,4.0,4.0,4.0,4.0,100.0,,,,,,,,,,,,,,,,,,,,,,,,,,,,,,,,,,,,,,,,,,,,,,,,,,,,,,,,,,,,,,,,,,,,,,,,,,,,,,,,,,,,,,,,,,,,,,,,,,,,,,,,,,,,,,,,,,,,,,,,,,,,,,,,,,,
1725715981.09556,1725715981.097508,122.0,0.0,4336.025879,4282.692383,4250.897461,4297.820313,4233.974121,4232.179688,4288.461426,4260.512695,4260.384766,4247.179688,4477.05127,4533.333496,4360.769043,4416.538574,0.0,1.0,15.0,,,,0.0,4.0,4.0,4.0,4.0,4.0,4.0,4.0,4.0,4.0,4.0,4.0,4.0,4.0,4.0,100.0,,,,,,,,,,,,,,,,,,,,,,,,,,,,,,,,,,,,,,,,,,,,,,,,,,,,,,,,,,,,,,,,,,,,,,,,,,,,,,,,,,,,,,,,,,,,,,,,,,,,,,,,,,,,,,,,,,,,,,,,,,,,,,,,,,,
1725715981.099464,1725715981.101412,123.0,0.0,4337.436035,4283.461426,4250.256348,4300.769043,4234.743652,4232.179688,4292.307617,4263.717773,4260.897461,4247.179688,4477.436035,4539.743652,4361.410156,4418.974121,0.0,1.0,15.0,,,,0.0,4.0,4.0,4.0,4.0,4.0,4.0,4.0,4.0,4.0,4.0,4.0,4.0,4.0,4.0,100.0,,,,,,,,,,,,,,,,,,,,,,,,,,,,,,,,,,,,,,,,,,,,,,,,,,,,,,,,,,,,,,,,,,,,,,,,,,,,,,,,,,,,,,,,,,,,,,,,,,,,,,,,,,,,,,,,,,,,,,,,,,,,,,,,,,,
1725715981.103368,1725715981.105316,124.0,0.0,4337.179688,4283.974121,4246.538574,4303.333496,4235.256348,4230.769043,4294.615234,4266.410156,4262.436035,4246.282227,4477.05127,4542.692383,4362.563965,4420.769043,0.0,1.0,15.0,,,,0.0,4.0,4.0,4.0,4.0,4.0,4.0,4.0,4.0,4.0,4.0,4.0,4.0,4.0,4.0,100.0,,,,,,,,,,,,,,,,,,,,,,,,,,,,,,,,,,,,,,,,,,,,,,,,,,,,,,,,0.0,0.0,1.0,0.0,1.0,0.0,,,,,,,,,,,,,,,,,,,,,,,,,,,,,,,,,,,,,,,,,,,,,,,,,,,,,,,,,,,,,,,,,,,,,,
1725715981.107272,1725715981.10912,125.0,0.0,4334.743652,4283.717773,4243.205078,4304.230957,4235.256348,4229.871582,4294.487305,4267.179688,4264.358887,4245.384766,4476.282227,4540.769043,4362.94873,4420.256348,0.0,1.0,15.0,,,,0.0,4.0,4.0,4.0,4.0,4.0,4.0,4.0,4.0,4.0,4.0,4.0,4.0,4.0,4.0,100.0,,,,,,,,,,,,,,,,,,,,,,,,,,,,,,,,,,,,,,,,,,,,,,,,,,,,,,,,,,,,,,,,,,,,,,,,,,,,,,,,,,,,,,,,,,,,,,,,,,,,,,,,,,,,,,,,,,,,,,,,,,,,,,,,,,,
1725715981.111176,1725715981.113024,126.0,0.0,4331.153809,4282.563965,4242.692383,4303.205078,4234.615234,4230.256348,4292.563965,4266.025879,4265.769043,4245.128418,4475.641113,4535.384766,4362.563965,4417.820313,0.0,1.0,15.0,,,,0.0,4.0,4.0,4.0,4.0,4.0,4.0,4.0,4.0,4.0,4.0,4.0,4.0,4.0,4.0,100.0,,,,,,,,,,,,,,,,,,,,,,,,,,,,,,,,,,,,,,,,,,,,,,,,,,,,,,,,,,,,,,,,,,,,,,,,,,,,,,,,,,,,,,,,,,,,,,,,,,,,,,,,,,,,,,,,,,,,,,,,,,,,,,,,,,,
1725715981.11508,1725715981.116928,127.0,0.0,4327.820313,4280.769043,4244.615234,4300.384766,4233.589844,4230.897461,4289.871582,4264.102539,4266.153809,4245.512695,4475.384766,4529.102539,4362.05127,4415.0,0.0,1.0,15.0,,,,0.0,4.0,4.0,4.0,4.0,4.0,4.0,4.0,4.0,4.0,4.0,4.0,4.0,4.0,4.0,100.0,,,,,,,,,,,,,,,,,,,,,,,,,,,,,,,,,,,,,,,,,,,,,,,,,,,,,,,,,,,,,,,,,,,,,,,,,,,,,,,,,,,,,,,,,,,,,,,,,,,,,,,,,,,,,,,,,,,,,,,,,,,,,,,,,,,
1725715981.118984,1725715981.120932,128.0,0.0,4325.0,4278.974121,4245.769043,4297.05127,4232.94873,4230.897461,4288.333496,4262.692383,4265.256348,4246.153809,4475.641113,4524.358887,4361.922852,4412.94873,2685.0,1.0,15.0,,,,0.0,4.0,4.0,4.0,4.0,4.0,4.0,4.0,4.0,4.0,4.0,4.0,4.0,4.0,4.0,100.0,,,,,,,,,,,,,,,,,,,,,,,,,,,,,,,,,,,,,,,,,,,,,,,,,,,,,,,,,,,,,,,,,,,,,,,,,,,,,,,,,,,,,,,,,,,,,,,,,,,,,,,,,,,,,,,,,,,,,,,,,,,,,,,,,,,
1725715981.122888,1725715981.124836,129.0,0.0,4322.563965,4277.94873,4243.974121,4294.230957,4232.820313,4229.615234,4288.461426,4262.563965,4263.974121,4245.769043,4475.897461,4522.179688,4361.794922,4411.282227,2565.0,1.0,15.0,,,,0.0,4.0,4.0,4.0,4.0,4.0,4.0,4.0,4.0,4.0,4.0,4.0,4.0,4.0,4.0,100.0,,,,,,,,,,,,,,,,,,,,,,,,,,,,,,,,,,,,,,,,,,,,,,,,,,,,,,,,,,,,,,,,,,,,,,,,,,,,,,,,,,,,,,,,,,,,,,,,,,,,,,,,,,,,,,,,,,,,,,,,,,,,,,,,,,,
1725715981.126793,1725715981.128741,130.0,0.0,4320.256348,4277.692383,4239.743652,4292.820313,4232.820313,4228.077148,4289.743652,4263.461426,4263.205078,4244.358887,4475.897461,4521.666504,4360.897461,4409.230957,2505.0,1.0,15.0,,,,0.0,4.0,4.0,4.0,4.0,4.0,4.0,4.0,4.0,4.0,4.0,4.0,4.0,4.0,4.0,100.0,,,,,,,,,,,,,,,,,,,,,,,,,,,,,,,,,,,,,,,,,,,,,,,,,,,,,,,,,,,,,,,,,,,,,,,,,,,,,,,,,,,,,,,,,,,,,,,,,,,,,,,,,,,,,,,,,,,,,,,,,,,,,,,,,,,
1725715981.130697,1725715981.132645,131.0,0.0,4318.205078,4277.692383,4235.256348,4292.820313,4233.205078,4227.436035,4290.384766,4264.230957,4263.333496,4242.94873,4475.128418,4521.282227,4358.461426,4406.666504,2461.0,1.0,15.0,,,,0.0,4.0,4.0,4.0,4.0,4.0,4.0,4.0,4.0,4.0,4.0,4.0,4.0,4.0,4.0,100.0,,,,,,,,,,,,,,,,,,,,,,,,,,,,,,,,,,,,,,,,,,,,,,,,,,,,,,,,,,,,,,,,,,,,,,,,,,,,,,,,,,,,,,,,,,,,,,,,,,,,,,,,,,,,,,,,,,,,,,,,,,,,,,,,,,,
1725715981.134601,1725715981.136449,132.0,0.0,4316.153809,4277.563965,4232.820313,4293.333496,4233.461426,4227.692383,4289.871582,4264.230957,4264.102539,4242.307617,4473.205078,4518.846191,4355.0,4403.461426,2439.0,1.0,15.0,,,,0.0,4.0,4.0,4.0,4.0,4.0,4.0,4.0,4.0,4.0,4.0,4.0,4.0,4.0,4.0,100.0,,,,,,,,,,,,,,,,,,,,,,,,,,,,,,,,,,,,,,,,,,,,,,,,,,,,,,,,0.0,0.0,1.0,0.0,1.0,0.0,,,,,,,,,,,,,,,,,,,,,,,,,,,,,,,,,,,,,,,,,,,,,,,,,,,,,,,,,,,,,,,,,,,,,,
1725715981.138505,1725715981.140353,133.0,0.0,4313.717773,4276.794922,4232.436035,4293.589844,4233.333496,4227.436035,4288.589844,4262.94873,4264.871582,4242.820313,4470.0,4513.974121,4351.538574,4400.384766,2403.0,1.0,15.0,,,,0.0,4.0,4.0,4.0,4.0,4.0,4.0,4.0,4.0,4.0,4.0,4.0,4.0,4.0,4.0,100.0,,,,,,,,,,,,,,,,,,,,,,,,,,,,,,,,,,,,,,,,,,,,,,,,,,,,,,,,,,,,,,,,,,,,,,,,,,,,,,,,,,,,,,,,,,,,,,,,,,,,,,,,,,,,,,,,,,,,,,,,,,,,,,,,,,,
1725715981.142409,1725715981.144257,134.0,0.0,4310.641113,4276.025879,4232.820313,4293.205078,4232.563965,4225.769043,4287.94873,4261.025879,4265.384766,4243.717773,4466.282227,4508.846191,4349.487305,4398.333496,2431.0,1.0,15.0,,,,0.0,4.0,4.0,4.0,4.0,4.0,4.0,4.0,4.0,4.0,4.0,4.0,4.0,4.0,4.0,100.0,,,,,,,,,,,,,,,,,,,,,,,,,,,,,,,,,,,,,,,,,,,,,,,,,,,,,,,,,,,,,,,,,,,,,,,,,,,,,,,,,,,,,,,,,,,,,,,,,,,,,,,,,,,,,,,,,,,,,,,,,,,,,,,,,,,
1725715981.146313,1725715981.148161,135.0,0.0,4307.307617,4276.153809,4232.94873,4292.820313,4231.538574,4222.94873,4288.846191,4259.871582,4266.025879,4244.871582,4462.94873,4506.666504,4349.230957,4397.692383,2493.0,1.0,15.0,,,,0.0,4.0,4.0,4.0,4.0,4.0,4.0,4.0,4.0,4.0,4.0,4.0,4.0,4.0,4.0,100.0,,,,,,,,,,,,,,,,,,,,,,,,,,,,,,,,,,,,,,,,,,,,,,,,,,,,,,,,,,,,,,,,,,,,,,,,,,,,,,,,,,,,,,,,,,,,,,,,,,,,,,,,,,,,,,,,,,,,,,,,,,,,,,,,,,,
1725715981.150217,1725715981.151965,136.0,0.0,4304.871582,4277.563965,4233.077148,4292.94873,4231.666504,4220.128418,4291.025879,4260.769043,4266.922852,4245.641113,4460.769043,4508.461426,4350.256348,4398.461426,2471.0,1.0,15.0,,,,0.0,4.0,4.0,4.0,4.0,4.0,4.0,4.0,4.0,4.0,4.0,4.0,4.0,4.0,4.0,100.0,,,,,,,,,,,,,,,,,,,,,,,,,,,,,,,,,,,,,,,,,,,,,,,,,,,,,,,,,,,,,,,,,,,,,,,,,,,,,,,,,,,,,,,,,,,,,,,,,,,,,,,,,,,,,,,,,,,,,,,,,,,,,,,,,,,
1725715981.154121,1725715981.15587,137.0,0.0,4304.102539,4279.743652,4234.230957,4293.717773,4233.333496,4218.205078,4293.461426,4263.205078,4267.179688,4245.641113,4460.128418,4512.692383,4351.025879,4400.384766,2556.0,1.0,15.0,,,,0.0,4.0,4.0,4.0,4.0,4.0,4.0,4.0,4.0,4.0,4.0,4.0,4.0,4.0,4.0,100.0,,,,,,,,,,,,,,,,,,,,,,,,,,,,,,,,,,,,,,,,,,,,,,,,,,,,,,,,,,,,,,,,,,,,,,,,,,,,,,,,,,,,,,,,,,,,,,,,,,,,,,,,,,,,,,,,,,,,,,,,,,,,,,,,,,,
1725715981.158025,1725715981.159874,138.0,0.0,4305.769043,4281.666504,4236.922852,4294.743652,4236.282227,4217.563965,4295.641113,4264.615234,4266.410156,4245.128418,4460.641113,4516.282227,4350.897461,4402.820313,2884.0,1.0,15.0,,,,0.0,4.0,4.0,4.0,4.0,4.0,4.0,4.0,4.0,4.0,4.0,4.0,4.0,4.0,4.0,100.0,,,,,,,,,,,,,,,,,,,,,,,,,,,,,,,,,,,,,,,,,,,,,,,,,,,,,,,,,,,,,,,,,,,,,,,,,,,,,,,,,,,,,,,,,,,,,,,,,,,,,,,,,,,,,,,,,,,,,,,,,,,,,,,,,,,
1725715981.161929,1725715981.163778,139.0,0.0,4309.102539,4282.307617,4240.769043,4295.641113,4239.358887,4217.820313,4297.563965,4262.94873,4264.230957,4244.743652,4462.436035,4517.307617,4350.384766,4405.384766,3111.0,1.0,15.0,,,,0.0,4.0,4.0,4.0,4.0,4.0,4.0,4.0,4.0,4.0,4.0,4.0,4.0,4.0,4.0,100.0,,,,,,,,,,,,,,,,,,,,,,,,,,,,,,,,,,,,,,,,,,,,,,,,,,,,,,,,,,,,,,,,,,,,,,,,,,,,,,,,,,,,,,,,,,,,,,,,,,,,,,,,,,,,,,,,,,,,,,,,,,,,,,,,,,,
1725715981.165834,1725715981.167682,140.0,0.0,4311.538574,4281.666504,4244.615234,4296.410156,4241.282227,4218.717773,4300.0,4258.333496,4261.410156,4245.256348,4465.256348,4516.410156,4350.512695,4407.820313,3391.0,1.0,15.0,,,,0.0,4.0,4.0,4.0,4.0,4.0,4.0,4.0,4.0,4.0,4.0,4.0,4.0,4.0,4.0,100.0,,,,,,,,,,,,,,,,,,,,,,,,,,,,,,,,,,,,,,,,,,,,,,,,,,,,,,,,0.0,0.0,1.0,0.0,1.0,0.0,,,,,,,,,,,,,,,,,,,,,,,,,,,,,,,,,,,,,,,,,,,,,,,,,,,,,,,,,,,,,,,,,,,,,,
1725715981.169738,1725715981.171586,141.0,0.0,4311.410156,4281.410156,4247.179688,4297.05127,4242.05127,4220.256348,4303.333496,4253.077148,4259.102539,4246.282227,4468.333496,4516.025879,4352.436035,4409.743652,3807.0,1.0,15.0,,,,0.0,4.0,4.0,4.0,4.0,4.0,4.0,4.0,4.0,4.0,4.0,4.0,4.0,4.0,4.0,100.0,,,,,,,,,,,,,,,,,,,,,,,,,,,,,,,,,,,,,,,,,,,,,,,,,,,,,,,,,,,,,,,,,,,,,,,,,,,,,,,,,,,,,,,,,,,,,,,,,,,,,,,,,,,,,,,,,,,,,,,,,,,,,,,,,,,
1725715981.173642,1725715981.17549,142.0,0.0,4308.077148,4282.94873,4248.205078,4297.436035,4242.563965,4222.307617,4306.922852,4250.769043,4258.205078,4246.153809,4471.025879,4517.820313,4355.897461,4411.410156,2884.0,1.0,15.0,,,,0.0,4.0,4.0,4.0,4.0,4.0,4.0,4.0,4.0,4.0,4.0,4.0,4.0,4.0,4.0,100.0,,,,,,,,,,,,,,,,,,,,,,,,,,,,,,,,,,,,,,,,,,,,,,,,,,,,,,,,,,,,,,,,,,,,,,,,,,,,,,,,,,,,,,,,,,,,,,,,,,,,,,,,,,,,,,,,,,,,,,,,,,,,,,,,,,,
1725715981.177546,1725715981.179494,143.0,0.0,4303.846191,4286.410156,4248.846191,4297.05127,4243.974121,4224.615234,4309.871582,4253.077148,4259.102539,4243.717773,4472.436035,4521.025879,4359.358887,4412.563965,3111.0,1.0,15.0,,,,0.0,4.0,4.0,4.0,4.0,4.0,4.0,4.0,4.0,4.0,4.0,4.0,4.0,4.0,4.0,100.0,,,,,,,,,,,,,,,,,,,,,,,,,,,,,,,,,,,,,,,,,,,,,,,,,,,,,,,,,,,,,,,,,,,,,,,,,,,,,,,,,,,,,,,,,,,,,,,,,,,,,,,,,,,,,,,,,,,,,,,,,,,,,,,,,,,
1725715981.18145,1725715981.183398,144.0,0.0,4300.769043,4289.487305,4250.0,4295.769043,4245.897461,4226.538574,4311.410156,4258.589844,4260.384766,4239.615234,4472.436035,4523.333496,4360.641113,4413.205078,3391.0,1.0,15.0,,,,0.0,4.0,4.0,4.0,4.0,4.0,4.0,4.0,4.0,4.0,4.0,4.0,4.0,4.0,4.0,100.0,,,,,,,,,,,,,,,,,,,,,,,,,,,,,,,,,,,,,,,,,,,,,,,,,,,,,,,,,,,,,,,,,,,,,,,,,,,,,,,,,,,,,,,,,,,,,,,,,,,,,,,,,,,,,,,,,,,,,,,,,,,,,,,,,,,
1725715981.185354,1725715981.187302,145.0,0.0,4298.974121,4289.615234,4251.794922,4293.717773,4247.05127,4228.333496,4311.794922,4264.102539,4260.769043,4236.025879,4471.666504,4523.461426,4358.974121,4413.077148,3807.0,1.0,15.0,,,,0.0,4.0,4.0,4.0,4.0,4.0,4.0,4.0,4.0,4.0,4.0,4.0,4.0,4.0,4.0,100.0,,,,,,,,,,,,,,,,,,,,,,,,,,,,,,,,,,,,,,,,,,,,,,,,,,,,,,,,,,,,,,,,,,,,,,,,,,,,,,,,,,,,,,,,,,,,,,,,,,,,,,,,,,,,,,,,,,,,,,,,,,,,,,,,,,,
1725715981.189258,1725715981.191206,146.0,0.0,4297.179688,4286.538574,4252.94873,4291.794922,4246.666504,4230.256348,4312.179688,4266.794922,4259.743652,4235.128418,4471.153809,4522.05127,4355.0,4412.307617,2884.0,1.0,15.0,,,,0.0,4.0,4.0,4.0,4.0,4.0,4.0,4.0,4.0,4.0,4.0,4.0,4.0,4.0,4.0,100.0,,,,,,,,,,,,,,,,,,,,,,,,,,,,,,,,,,,,,,,,,,,,,,,,,,,,,,,,,,,,,,,,,,,,,,,,,,,,,,,,,,,,,,,,,,,,,,,,,,,,,,,,,,,,,,,,,,,,,,,,,,,,,,,,,,,
1725715981.193162,1725715981.19521,147.0,0.0,4293.589844,4282.563965,4252.563965,4291.282227,4244.871582,4231.922852,4313.846191,4265.897461,4258.589844,4237.692383,4471.538574,4520.512695,4351.282227,4411.410156,3111.0,1.0,15.0,,,,0.0,4.0,4.0,4.0,4.0,4.0,4.0,4.0,4.0,4.0,4.0,4.0,4.0,4.0,4.0,100.0,,,,,,,,,,,,,,,,,,,,,,,,,,,,,,,,,,,,,,,,,,,,,,,,,,,,,,,,,,,,,,,,,,,,,,,,,,,,,,,,,,,,,,,,,,,,,,,,,,,,,,,,,,,,,,,,,,,,,,,,,,,,,,,,,,,
1725715981.197066,1725715981.199114,148.0,0.0,4288.077148,4280.769043,4250.641113,4292.307617,4243.205078,4232.307617,4316.794922,4263.333496,4258.333496,4242.307617,4472.563965,4518.974121,4349.615234,4411.025879,3391.0,1.0,15.0,,,,0.0,4.0,4.0,4.0,4.0,4.0,4.0,4.0,4.0,4.0,4.0,4.0,4.0,4.0,4.0,100.0,,,,,,,,,,,,,,,,,1.0,0.0,0.0,,,,,,,,,,,,,,,,,,,,,,,,,,,,,,,,,,,,,0.0,0.0,1.0,0.0,1.0,0.0,15.351584,1.300059,0.520303,0.238336,0.079767,1.816775,0.772578,0.429189,0.146895,0.051757,2.474612,0.514152,0.282277,0.134314,0.033395,1.805225,1.482632,0.412452,0.141179,0.042304,0.429387,0.201671,0.163296,0.092652,0.03881,0.3498,0.262125,0.219413,0.042077,0.035204,5.171924,0.731849,0.198342,0.126931,0.035565,1.262046,0.561936,0.282468,0.119848,0.085747,0.915305,1.312943,0.683215,0.149022,0.118529,1.759229,0.973658,0.588915,0.197471,0.08191,2.598524,1.433474,0.985905,0.276888,0.092184,3.05255,1.538274,0.587185,0.224902,0.113214,2.725188,1.280017,0.887152,0.189995,0.056092,2.307511,1.435761,0.6298,0.226193,0.070018
1725715981.200971,1725715981.203018,149.0,0.0,4282.563965,4282.563965,4248.333496,4294.487305,4242.692383,4230.897461,4320.128418,4261.538574,4259.358887,4246.282227,4472.820313,4516.666504,4350.641113,4411.538574,3807.0,1.0,15.0,,,,0.0,4.0,4.0,4.0,4.0,4.0,4.0,4.0,4.0,4.0,4.0,4.0,4.0,4.0,4.0,100.0,,,,,,,,,,,,,,,,,,,,,,,,,,,,,,,,,,,,,,,,,,,,,,,,,,,,,,,,,,,,,,,,,,,,,,,,,,,,,,,,,,,,,,,,,,,,,,,,,,,,,,,,,,,,,,,,,,,,,,,,,,,,,,,,,,,
1725715981.204875,1725715981.206923,150.0,0.0,4278.846191,4286.410156,4246.922852,4296.410156,4243.333496,4227.436035,4321.794922,4261.666504,4261.025879,4247.820313,4470.512695,4512.820313,4353.717773,4412.05127,2884.0,1.0,15.0,,,,0.0,4.0,4.0,4.0,4.0,4.0,4.0,4.0,4.0,4.0,4.0,4.0,4.0,4.0,4.0,100.0,,,,,,,,,,,,,,,,,,,,,,,,,,,,,,,,,,,,,,,,,,,,,,,,,,,,,,,,,,,,,,,,,,,,,,,,,,,,,,,,,,,,,,,,,,,,,,,,,,,,,,,,,,,,,,,,,,,,,,,,,,,,,,,,,,,
1725715981.208779,1725715981.210827,151.0,0.0,4277.820313,4289.102539,4246.794922,4296.666504,4243.717773,4222.820313,4321.025879,4262.820313,4262.307617,4247.307617,4465.256348,4508.333496,4357.179688,4412.05127,3111.0,1.0,15.0,,,,0.0,4.0,4.0,4.0,4.0,4.0,4.0,4.0,4.0,4.0,4.0,4.0,4.0,4.0,4.0,100.0,,,,,,,,,,,,,,,,,,,,,,,,,,,,,,,,,,,,,,,,,,,,,,,,,,,,,,,,,,,,,,,,,,,,,,,,,,,,,,,,,,,,,,,,,,,,,,,,,,,,,,,,,,,,,,,,,,,,,,,,,,,,,,,,,,,
1725715981.212683,1725715981.214631,152.0,0.0,4278.077148,4288.333496,4247.563965,4295.256348,4242.179688,4218.717773,4318.974121,4263.333496,4262.94873,4246.025879,4459.358887,4505.641113,4359.358887,4411.282227,3391.0,1.0,15.0,,,,0.0,4.0,4.0,4.0,4.0,4.0,4.0,4.0,4.0,4.0,4.0,4.0,4.0,4.0,4.0,100.0,,,,,,,,,,,,,,,,,,,,,,,,,,,,,,,,,,,,,,,,,,,,,,,,,,,,,,,,,,,,,,,,,,,,,,,,,,,,,,,,,,,,,,,,,,,,,,,,,,,,,,,,,,,,,,,,,,,,,,,,,,,,,,,,,,,
1725715981.216587,1725715981.218535,153.0,0.0,4278.077148,4284.487305,4248.205078,4293.077148,4238.205078,4216.922852,4317.563965,4263.333496,4263.333496,4246.025879,4456.153809,4507.307617,4358.974121,4410.512695,3807.0,1.0,15.0,,,,0.0,4.0,4.0,4.0,4.0,4.0,4.0,4.0,4.0,4.0,4.0,4.0,4.0,4.0,4.0,100.0,,,,,,,,,,,,,,,,,,,,,,,,,,,,,,,,,,,,,,,,,,,,,,,,,,,,,,,,,,,,,,,,,,,,,,,,,,,,,,,,,,,,,,,,,,,,,,,,,,,,,,,,,,,,,,,,,,,,,,,,,,,,,,,,,,,
1725715981.220491,1725715981.222439,154.0,0.0,4277.179688,4279.743652,4248.077148,4291.410156,4233.589844,4217.820313,4318.205078,4264.230957,4263.974121,4247.692383,4457.563965,4513.717773,4356.666504,4410.512695,2884.0,1.0,15.0,,,,0.0,4.0,4.0,4.0,4.0,4.0,4.0,4.0,4.0,4.0,4.0,4.0,4.0,4.0,4.0,100.0,,,,,,,,,,,,,,,,,,,,,,,,,,,,,,,,,,,,,,,,,,,,,,,,,,,,,,,,,,,,,,,,,,,,,,,,,,,,,,,,,,,,,,,,,,,,,,,,,,,,,,,,,,,,,,,,,,,,,,,,,,,,,,,,,,,
1725715981.224395,1725715981.226243,155.0,0.0,4276.153809,4277.05127,4247.692383,4291.153809,4231.153809,4220.128418,4320.897461,4266.538574,4264.743652,4250.0,4462.692383,4521.666504,4354.230957,4411.282227,3111.0,1.0,15.0,,,,0.0,4.0,4.0,4.0,4.0,4.0,4.0,4.0,4.0,4.0,4.0,4.0,4.0,4.0,4.0,100.0,,,,,,,,,,,,,,,,,,,,,,,,,,,,,,,,,,,,,,,,,,,,,,,,,,,,,,,,,,,,,,,,,,,,,,,,,,,,,,,,,,,,,,,,,,,,,,,,,,,,,,,,,,,,,,,,,,,,,,,,,,,,,,,,,,,
1725715981.228299,1725715981.230147,156.0,0.0,4275.897461,4278.077148,4248.077148,4292.436035,4232.563965,4222.05127,4324.102539,4267.94873,4264.615234,4251.282227,4468.461426,4526.538574,4354.102539,4411.922852,3391.0,1.0,15.0,,,,0.0,4.0,4.0,4.0,4.0,4.0,4.0,4.0,4.0,4.0,4.0,4.0,4.0,4.0,4.0,100.0,,,,,,,,,,,,,,,,,,,,,,,,,,,,,,,,,,,,,,,,,,,,,,,,,,,,,,,,0.0,0.0,1.0,0.0,1.0,0.0,,,,,,,,,,,,,,,,,,,,,,,,,,,,,,,,,,,,,,,,,,,,,,,,,,,,,,,,,,,,,,,,,,,,,,
1725715981.232203,1725715981.234052,157.0,0.0,4276.922852,4282.307617,4249.871582,4294.102539,4237.179688,4222.307617,4326.538574,4266.025879,4263.589844,4250.512695,4472.692383,4525.897461,4357.179688,4411.922852,3807.0,1.0,15.0,,,,0.0,4.0,4.0,4.0,4.0,4.0,4.0,4.0,4.0,4.0,4.0,4.0,4.0,4.0,4.0,100.0,,,,,,,,,,,,,,,,,,,,,,,,,,,,,,,,,,,,,,,,,,,,,,,,,,,,,,,,,,,,,,,,,,,,,,,,,,,,,,,,,,,,,,,,,,,,,,,,,,,,,,,,,,,,,,,,,,,,,,,,,,,,,,,,,,,
1725715981.236107,1725715981.238056,158.0,0.0,4278.333496,4287.94873,4253.077148,4295.256348,4242.307617,4221.025879,4327.05127,4260.512695,4261.794922,4249.102539,4474.615234,4521.025879,4362.820313,4411.666504,2884.0,1.0,15.0,,,,0.0,4.0,4.0,4.0,4.0,4.0,4.0,4.0,4.0,4.0,4.0,4.0,4.0,4.0,4.0,100.0,,,,,,,,,,,,,,,,,,,,,,,,,,,,,,,,,,,,,,,,,,,,,,,,,,,,,,,,,,,,,,,,,,,,,,,,,,,,,,,,,,,,,,,,,,,,,,,,,,,,,,,,,,,,,,,,,,,,,,,,,,,,,,,,,,,
1725715981.240012,1725715981.24196,159.0,0.0,4279.102539,4292.820313,4256.282227,4296.153809,4245.641113,4219.487305,4326.410156,4254.871582,4260.384766,4248.717773,4475.128418,4516.538574,4368.846191,4411.922852,3111.0,1.0,15.0,,,,0.0,4.0,4.0,4.0,4.0,4.0,4.0,4.0,4.0,4.0,4.0,4.0,4.0,4.0,4.0,100.0,,,,,,,,,,,,,,,,,,,,,,,,,,,,,,,,,,,,,,,,,,,,,,,,,,,,,,,,,,,,,,,,,,,,,,,,,,,,,,,,,,,,,,,,,,,,,,,,,,,,,,,,,,,,,,,,,,,,,,,,,,,,,,,,,,,
1725715981.243916,1725715981.245864,160.0,0.0,4278.974121,4295.512695,4257.563965,4297.307617,4246.410156,4218.717773,4325.897461,4252.94873,4260.256348,4249.871582,4475.384766,4515.897461,4372.820313,4413.077148,3391.0,1.0,15.0,,,,0.0,4.0,4.0,4.0,4.0,4.0,4.0,4.0,4.0,4.0,4.0,4.0,4.0,4.0,4.0,100.0,,,,,,,,,,,,,,,,,,,,,,,,,,,,,,,,,,,,,,,,,,,,,,,,,,,,,,,,,,,,,,,,,,,,,,,,,,,,,,,,,,,,,,,,,,,,,,,,,,,,,,,,,,,,,,,,,,,,,,,,,,,,,,,,,,,
1725715981.24782,1725715981.249768,161.0,0.0,4278.077148,4296.025879,4256.410156,4299.102539,4245.384766,4219.102539,4325.769043,4255.641113,4261.538574,4251.666504,4476.025879,4519.358887,4373.846191,4414.743652,3807.0,1.0,15.0,,,,0.0,4.0,4.0,4.0,4.0,4.0,4.0,4.0,4.0,4.0,4.0,4.0,4.0,4.0,4.0,100.0,,,,,,,,,,,,,,,,,,,,,,,,,,,,,,,,,,,,,,,,,,,,,,,,,,,,,,,,,,,,,,,,,,,,,,,,,,,,,,,,,,,,,,,,,,,,,,,,,,,,,,,,,,,,,,,,,,,,,,,,,,,,,,,,,,,
1725715981.251724,1725715981.253672,162.0,0.0,4276.794922,4295.512695,4253.461426,4300.384766,4243.974121,4220.0,4325.897461,4260.512695,4263.205078,4252.563965,4476.794922,4524.230957,4372.820313,4415.769043,2884.0,1.0,15.0,,,,0.0,4.0,4.0,4.0,4.0,4.0,4.0,4.0,4.0,4.0,4.0,4.0,4.0,4.0,4.0,100.0,,,,,,,,,,,,,,,,,,,,,,,,,,,,,,,,,,,,,,,,,,,,,,,,,,,,,,,,,,,,,,,,,,,,,,,,,,,,,,,,,,,,,,,,,,,,,,,,,,,,,,,,,,,,,,,,,,,,,,,,,,,,,,,,,,,
1725715981.255628,1725715981.257476,163.0,0.0,4275.128418,4294.487305,4250.384766,4300.128418,4243.589844,4221.282227,4325.384766,4264.358887,4264.230957,4252.307617,4477.179688,4526.922852,4371.153809,4415.897461,3111.0,1.0,15.0,,,,0.0,4.0,4.0,4.0,4.0,4.0,4.0,4.0,4.0,4.0,4.0,4.0,4.0,4.0,4.0,100.0,,,,,,,,,,,,,,,,,,,,,,,,,,,,,,,,,,,,,,,,,,,,,,,,,,,,,,,,,,,,,,,,,,,,,,,,,,,,,,,,,,,,,,,,,,,,,,,,,,,,,,,,,,,,,,,,,,,,,,,,,,,,,,,,,,,
1725715981.259532,1725715981.26138,164.0,0.0,4272.820313,4293.846191,4249.487305,4299.230957,4244.615234,4223.589844,4323.974121,4265.256348,4264.230957,4251.410156,4477.05127,4526.153809,4370.256348,4415.512695,3391.0,1.0,15.0,,,,0.0,4.0,4.0,4.0,4.0,4.0,4.0,4.0,4.0,4.0,4.0,4.0,4.0,4.0,4.0,100.0,,,,,,,,,,,,,,,,,,,,,,,,,,,,,,,,,,,,,,,,,,,,,,,,,,,,,,,,0.0,0.0,1.0,0.0,1.0,0.0,,,,,,,,,,,,,,,,,,,,,,,,,,,,,,,,,,,,,,,,,,,,,,,,,,,,,,,,,,,,,,,,,,,,,,
1725715981.263436,1725715981.265384,165.0,0.0,4269.743652,4293.974121,4252.179688,4299.871582,4246.153809,4227.179688,4322.692383,4263.846191,4263.974121,4250.512695,4477.05127,4523.717773,4370.897461,4415.384766,3807.0,1.0,15.0,,,,0.0,4.0,4.0,4.0,4.0,4.0,4.0,4.0,4.0,4.0,4.0,4.0,4.0,4.0,4.0,100.0,,,,,,,,,,,,,,,,,,,,,,,,,,,,,,,,,,,,,,,,,,,,,,,,,,,,,,,,,,,,,,,,,,,,,,,,,,,,,,,,,,,,,,,,,,,,,,,,,,,,,,,,,,,,,,,,,,,,,,,,,,,,,,,,,,,
1725715981.26734,1725715981.269288,166.0,0.0,4266.666504,4295.128418,4257.820313,4303.461426,4246.794922,4230.769043,4322.436035,4262.692383,4264.102539,4250.128418,4477.307617,4522.563965,4373.333496,4416.025879,2884.0,1.0,15.0,,,,0.0,4.0,4.0,4.0,4.0,4.0,4.0,4.0,4.0,4.0,4.0,4.0,4.0,4.0,4.0,100.0,,,,,,,,,,,,,,,,,,,,,,,,,,,,,,,,,,,,,,,,,,,,,,,,,,,,,,,,,,,,,,,,,,,,,,,,,,,,,,,,,,,,,,,,,,,,,,,,,,,,,,,,,,,,,,,,,,,,,,,,,,,,,,,,,,,
1725715981.271244,1725715981.273192,167.0,0.0,4263.461426,4296.538574,4263.589844,4308.333496,4245.641113,4232.307617,4323.589844,4263.333496,4265.0,4250.128418,4477.307617,4523.846191,4376.282227,4417.179688,3111.0,1.0,15.0,,,,0.0,4.0,4.0,4.0,4.0,4.0,4.0,4.0,4.0,4.0,4.0,4.0,4.0,4.0,4.0,100.0,,,,,,,,,,,,,,,,,,,,,,,,,,,,,,,,,,,,,,,,,,,,,,,,,,,,,,,,,,,,,,,,,,,,,,,,,,,,,,,,,,,,,,,,,,,,,,,,,,,,,,,,,,,,,,,,,,,,,,,,,,,,,,,,,,,
1725715981.275149,1725715981.277097,168.0,0.0,4259.230957,4297.05127,4265.384766,4311.410156,4242.692383,4230.512695,4325.0,4265.769043,4266.153809,4250.256348,4476.922852,4525.512695,4378.077148,4417.692383,3391.0,1.0,15.0,,,,0.0,4.0,4.0,4.0,4.0,4.0,4.0,4.0,4.0,4.0,4.0,4.0,4.0,4.0,4.0,100.0,,,,,,,,,,,,,,,,,,,,,,,,,,,,,,,,,,,,,,,,,,,,,,,,,,,,,,,,,,,,,,,,,,,,,,,,,,,,,,,,,,,,,,,,,,,,,,,,,,,,,,,,,,,,,,,,,,,,,,,,,,,,,,,,,,,
1725715981.279053,1725715981.281001,169.0,0.0,4253.717773,4296.025879,4261.922852,4310.128418,4238.974121,4226.153809,4324.743652,4267.94873,4266.922852,4250.128418,4476.794922,4524.743652,4376.794922,4416.538574,3807.0,1.0,15.0,,,,0.0,4.0,4.0,4.0,4.0,4.0,4.0,4.0,4.0,4.0,4.0,4.0,4.0,4.0,4.0,100.0,,,,,,,,,,,,,,,,,,,,,,,,,,,,,,,,,,,,,,,,,,,,,,,,,,,,,,,,,,,,,,,,,,,,,,,,,,,,,,,,,,,,,,,,,,,,,,,,,,,,,,,,,,,,,,,,,,,,,,,,,,,,,,,,,,,
1725715981.282957,1725715981.285005,170.0,0.0,4247.94873,4294.358887,4255.641113,4304.487305,4235.897461,4222.05127,4322.179688,4268.205078,4266.794922,4249.487305,4476.666504,4520.384766,4372.05127,4413.974121,2884.0,1.0,15.0,,,,0.0,4.0,4.0,4.0,4.0,4.0,4.0,4.0,4.0,4.0,4.0,4.0,4.0,4.0,4.0,100.0,,,,,,,,,,,,,,,,,,,,,,,,,,,,,,,,,,,,,,,,,,,,,,,,,,,,,,,,,,,,,,,,,,,,,,,,,,,,,,,,,,,,,,,,,,,,,,,,,,,,,,,,,,,,,,,,,,,,,,,,,,,,,,,,,,,
1725715981.286861,1725715981.288909,171.0,0.0,4243.974121,4293.461426,4250.512695,4296.922852,4234.487305,4220.641113,4318.846191,4266.410156,4266.410156,4248.974121,4476.410156,4514.230957,4364.871582,4411.794922,3111.0,1.0,15.0,,,,0.0,4.0,4.0,4.0,4.0,4.0,4.0,4.0,4.0,4.0,4.0,4.0,4.0,4.0,4.0,100.0,,,,,,,,,,,,,,,,,,,,,,,,,,,,,,,,,,,,,,,,,,,,,,,,,,,,,,,,,,,,,,,,,,,,,,,,,,,,,,,,,,,,,,,,,,,,,,,,,,,,,,,,,,,,,,,,,,,,,,,,,,,,,,,,,,,
1725715981.290765,1725715981.292813,172.0,0.0,4242.563965,4294.487305,4249.743652,4291.153809,4234.743652,4222.820313,4317.05127,4264.358887,4266.153809,4248.846191,4475.0,4509.102539,4358.333496,4411.538574,3391.0,1.0,15.0,,,,0.0,4.0,4.0,4.0,4.0,4.0,4.0,4.0,4.0,4.0,4.0,4.0,4.0,4.0,4.0,100.0,,,,,,,,,,,,,,,,,,,,,,,,,,,,,,,,,,,,,,,,,,,,,,,,,,,,,,,,0.0,0.0,1.0,0.0,1.0,0.0,,,,,,,,,,,,,,,,,,,,,,,,,,,,,,,,,,,,,,,,,,,,,,,,,,,,,,,,,,,,,,,,,,,,,,
1725715981.294669,1725715981.296717,173.0,0.0,4242.820313,4296.922852,4253.077148,4289.358887,4235.769043,4227.436035,4318.077148,4263.846191,4266.153809,4249.230957,4471.922852,4506.794922,4355.384766,4413.333496,3807.0,1.0,15.0,,,,0.0,4.0,4.0,4.0,4.0,4.0,4.0,4.0,4.0,4.0,4.0,4.0,4.0,4.0,4.0,100.0,,,,,,,,,,,,,,,,,,,,,,,,,,,,,,,,,,,,,,,,,,,,,,,,,,,,,,,,,,,,,,,,,,,,,,,,,,,,,,,,,,,,,,,,,,,,,,,,,,,,,,,,,,,,,,,,,,,,,,,,,,,,,,,,,,,
1725715981.298573,1725715981.300721,174.0,0.0,4242.820313,4298.974121,4258.077148,4291.410156,4236.922852,4231.922852,4320.897461,4264.615234,4266.410156,4249.743652,4467.692383,4506.922852,4356.666504,4415.256348,2884.0,1.0,15.0,,,,0.0,4.0,4.0,4.0,4.0,4.0,4.0,4.0,4.0,4.0,4.0,4.0,4.0,4.0,4.0,100.0,,,,,,,,,,,,,,,,,,,,,,,,,,,,,,,,,,,,,,,,,,,,,,,,,,,,,,,,,,,,,,,,,,,,,,,,,,,,,,,,,,,,,,,,,,,,,,,,,,,,,,,,,,,,,,,,,,,,,,,,,,,,,,,,,,,
1725715981.302477,1725715981.304625,175.0,0.0,4241.794922,4299.358887,4261.666504,4294.487305,4238.333496,4234.102539,4323.461426,4265.128418,4266.410156,4250.256348,4463.974121,4507.692383,4360.384766,4415.384766,3111.0,1.0,15.0,,,,0.0,4.0,4.0,4.0,4.0,4.0,4.0,4.0,4.0,4.0,4.0,4.0,4.0,4.0,4.0,100.0,,,,,,,,,,,,,,,,,,,,,,,,,,,,,,,,,,,,,,,,,,,,,,,,,,,,,,,,,,,,,,,,,,,,,,,,,,,,,,,,,,,,,,,,,,,,,,,,,,,,,,,,,,,,,,,,,,,,,,,,,,,,,,,,,,,
1725715981.306381,1725715981.308529,176.0,0.0,4240.256348,4297.94873,4262.05127,4295.897461,4239.743652,4233.717773,4324.230957,4264.487305,4266.153809,4250.128418,4462.94873,4507.94873,4363.461426,4413.205078,3391.0,1.0,15.0,,,,0.0,4.0,4.0,4.0,4.0,4.0,4.0,4.0,4.0,4.0,4.0,4.0,4.0,4.0,4.0,100.0,,,,,,,,,,,,,,,,,,,,,,,,,,,,,,,,,,,,,,,,,,,,,,,,,,,,,,,,,,,,,,,,,,,,,,,,,,,,,,,,,,,,,,,,,,,,,,,,,,,,,,,,,,,,,,,,,,,,,,,,,,,,,,,,,,,
1725715981.310285,1725715981.312433,177.0,0.0,4239.743652,4296.410156,4259.743652,4294.743652,4241.282227,4231.922852,4323.077148,4263.846191,4266.025879,4249.615234,4466.025879,4508.717773,4364.487305,4410.769043,3807.0,1.0,15.0,,,,0.0,4.0,4.0,4.0,4.0,4.0,4.0,4.0,4.0,4.0,4.0,4.0,4.0,4.0,4.0,100.0,,,,,,,,,,,,,,,,,,,,,,,,,,,,,,,,,,,,,,,,,,,,,,,,,,,,,,,,,,,,,,,,,,,,,,,,,,,,,,,,,,,,,,,,,,,,,,,,,,,,,,,,,,,,,,,,,,,,,,,,,,,,,,,,,,,
1725715981.314189,1725715981.316337,178.0,0.0,4241.282227,4297.05127,4256.410156,4293.205078,4242.563965,4230.769043,4321.538574,4264.102539,4266.282227,4249.487305,4471.922852,4511.538574,4364.871582,4410.897461,2884.0,1.0,15.0,,,,0.0,4.0,4.0,4.0,4.0,4.0,4.0,4.0,4.0,4.0,4.0,4.0,4.0,4.0,4.0,100.0,,,,,,,,,,,,,,,,,,,,,,,,,,,,,,,,,,,,,,,,,,,,,,,,,,,,,,,,,,,,,,,,,,,,,,,,,,,,,,,,,,,,,,,,,,,,,,,,,,,,,,,,,,,,,,,,,,,,,,,,,,,,,,,,,,,
1725715981.318093,1725715981.320142,179.0,0.0,4244.871582,4300.641113,4253.333496,4294.230957,4243.461426,4231.410156,4321.410156,4264.102539,4266.153809,4250.128418,4477.820313,4516.282227,4366.794922,4414.615234,3111.0,1.0,15.0,,,,0.0,4.0,4.0,4.0,4.0,4.0,4.0,4.0,4.0,4.0,4.0,4.0,4.0,4.0,4.0,100.0,,,,,,,,,,,,,,,,,,,,,,,,,,,,,,,,,,,,,,,,,,,,,,,,,,,,,,,,,,,,,,,,,,,,,,,,,,,,,,,,,,,,,,,,,,,,,,,,,,,,,,,,,,,,,,,,,,,,,,,,,,,,,,,,,,,
1725715981.321998,1725715981.324046,180.0,0.0,4248.846191,4304.487305,4251.025879,4298.333496,4243.974121,4233.717773,4323.205078,4261.794922,4265.0,4250.641113,4480.512695,4520.897461,4370.897461,4418.974121,3391.0,1.0,15.0,,,,0.0,4.0,4.0,4.0,4.0,4.0,4.0,4.0,4.0,4.0,4.0,4.0,4.0,4.0,4.0,100.0,1.0,83.333336,4.0,4.0,3.0,4.0,4.0,4.0,3.0,4.0,4.0,4.0,4.0,4.0,4.0,4.0,1.0,0.0,0.0,,,,,,,,,,,,,,,,,,,,,,,,,,,,,,,,,,,,,0.0,0.0,1.0,0.0,1.0,0.0,14.896464,1.298398,0.616622,0.251416,0.079413,1.972276,0.870884,0.385283,0.160335,0.056764,2.937366,0.467331,0.194313,0.114099,0.038672,1.371401,1.573582,0.336106,0.132893,0.043543,0.411328,0.235062,0.142634,0.095453,0.04445,0.403309,0.262487,0.173465,0.041755,0.03321,4.454778,0.763922,0.212165,0.145575,0.037034,1.269484,0.500664,0.230937,0.12417,0.099278,1.102314,1.103547,0.625773,0.155304,0.12527,1.891917,0.894015,0.558715,0.245182,0.086829,2.90809,1.688479,0.97083,0.346538,0.109393,3.263192,2.082019,0.537716,0.255478,0.132746,2.856985,1.409123,0.855493,0.234377,0.061059,2.526935,1.774887,0.660256,0.25706,0.080663
1725715981.325902,1725715981.32795,181.0,0.0,4251.282227,4305.0,4248.974121,4302.820313,4244.615234,4235.512695,4325.256348,4257.436035,4262.820313,4250.128418,4479.487305,4523.077148,4375.256348,4420.384766,3807.0,1.0,15.0,,,,0.0,4.0,4.0,4.0,4.0,4.0,4.0,4.0,4.0,4.0,4.0,4.0,4.0,4.0,4.0,100.0,,,,,,,,,,,,,,,,,,,,,,,,,,,,,,,,,,,,,,,,,,,,,,,,,,,,,,,,,,,,,,,,,,,,,,,,,,,,,,,,,,,,,,,,,,,,,,,,,,,,,,,,,,,,,,,,,,,,,,,,,,,,,,,,,,,
1725715981.329806,1725715981.331754,182.0,0.0,4252.436035,4300.641113,4246.666504,4304.487305,4245.384766,4235.641113,4325.641113,4254.230957,4261.153809,4248.717773,4476.410156,4523.077148,4377.436035,4418.077148,2884.0,1.0,15.0,,,,0.0,4.0,4.0,4.0,4.0,4.0,4.0,4.0,4.0,4.0,4.0,4.0,4.0,4.0,4.0,100.0,,,,,,,,,,,,,,,,,,,,,,,,,,,,,,,,,,,,,,,,,,,,,,,,,,,,,,,,,,,,,,,,,,,,,,,,,,,,,,,,,,,,,,,,,,,,,,,,,,,,,,,,,,,,,,,,,,,,,,,,,,,,,,,,,,,
1725715981.33371,1725715981.335658,183.0,0.0,4254.358887,4294.102539,4245.128418,4302.94873,4246.538574,4234.230957,4323.846191,4255.512695,4261.666504,4248.205078,4474.358887,4522.94873,4376.538574,4414.871582,3111.0,1.0,15.0,,,,0.0,4.0,4.0,4.0,4.0,4.0,4.0,4.0,4.0,4.0,4.0,4.0,4.0,4.0,4.0,100.0,,,,,,,,,,,,,,,,,,,,,,,,,,,,,,,,,,,,,,,,,,,,,,,,,,,,,,,,,,,,,,,,,,,,,,,,,,,,,,,,,,,,,,,,,,,,,,,,,,,,,,,,,,,,,,,,,,,,,,,,,,,,,,,,,,,
1725715981.337614,1725715981.339562,184.0,0.0,4257.94873,4290.897461,4245.512695,4301.666504,4247.94873,4232.820313,4321.153809,4261.025879,4264.102539,4249.871582,4473.846191,4524.615234,4373.846191,4413.846191,3391.0,1.0,15.0,,,,0.0,4.0,4.0,4.0,4.0,4.0,4.0,4.0,4.0,4.0,4.0,4.0,4.0,4.0,4.0,100.0,,,,,,,,,,,,,,,,,,,,,,,,,,,,,,,,,,,,,,,,,,,,,,,,,,,,,,,,,,,,,,,,,,,,,,,,,,,,,,,,,,,,,,,,,,,,,,,,,,,,,,,,,,,,,,,,,,,,,,,,,,,,,,,,,,,
1725715981.341518,1725715981.343566,185.0,0.0,4261.922852,4294.487305,4248.077148,4303.589844,4249.102539,4232.94873,4319.487305,4267.307617,4266.794922,4253.461426,4474.102539,4527.563965,4371.794922,4416.025879,3807.0,1.0,15.0,,,,0.0,4.0,4.0,4.0,4.0,4.0,4.0,4.0,4.0,4.0,4.0,4.0,4.0,4.0,4.0,100.0,,,,,,,,,,,,,,,,,,,,,,,,,,,,,,,,,,,,,,,,,,,,,,,,,,,,,,,,,,,,,,,,,,,,,,,,,,,,,,,,,,,,,,,,,,,,,,,,,,,,,,,,,,,,,,,,,,,,,,,,,,,,,,,,,,,
1725715981.345422,1725715981.34747,186.0,0.0,4263.589844,4304.230957,4251.282227,4309.230957,4249.615234,4235.128418,4319.615234,4270.256348,4268.077148,4257.692383,4474.871582,4529.615234,4372.05127,4420.256348,2884.0,1.0,15.0,,,,0.0,4.0,4.0,4.0,4.0,4.0,4.0,4.0,4.0,4.0,4.0,4.0,4.0,4.0,4.0,100.0,,,,,,,,,,,,,,,,,,,,,,,,,,,,,,,,,,,,,,,,,,,,,,,,,,,,,,,,,,,,,,,,,,,,,,,,,,,,,,,,,,,,,,,,,,,,,,,,,,,,,,,,,,,,,,,,,,,,,,,,,,,,,,,,,,,
1725715981.349326,1725715981.351374,187.0,0.0,4261.922852,4314.615234,4252.94873,4316.153809,4249.871582,4238.461426,4321.025879,4269.487305,4267.94873,4260.897461,4477.179688,4529.615234,4374.871582,4424.230957,3111.0,1.0,15.0,,,,0.0,4.0,4.0,4.0,4.0,4.0,4.0,4.0,4.0,4.0,4.0,4.0,4.0,4.0,4.0,100.0,,,,,,,,,,,,,,,,,,,,,,,,,,,,,,,,,,,,,,,,,,,,,,,,,,,,,,,,,,,,,,,,,,,,,,,,,,,,,,,,,,,,,,,,,,,,,,,,,,,,,,,,,,,,,,,,,,,,,,,,,,,,,,,,,,,
1725715981.35323,1725715981.355279,188.0,0.0,4258.077148,4320.256348,4252.563965,4320.641113,4250.128418,4242.05127,4322.05127,4267.436035,4267.820313,4262.307617,4481.922852,4528.461426,4378.717773,4425.769043,3391.0,1.0,15.0,,,,0.0,4.0,4.0,4.0,4.0,4.0,4.0,4.0,4.0,4.0,4.0,4.0,4.0,4.0,4.0,100.0,,,,,,,,,,,,,,,,,,,,,,,,,,,,,,,,,,,,,,,,,,,,,,,,,,,,,,,,0.0,0.0,1.0,0.0,1.0,0.0,,,,,,,,,,,,,,,,,,,,,,,,,,,,,,,,,,,,,,,,,,,,,,,,,,,,,,,,,,,,,,,,,,,,,,
1725715981.357134,1725715981.359183,189.0,0.0,4254.358887,4319.230957,4251.153809,4321.153809,4250.256348,4244.743652,4320.897461,4267.563965,4269.487305,4261.794922,4487.436035,4528.077148,4381.922852,4424.743652,3807.0,1.0,15.0,,,,0.0,4.0,4.0,4.0,4.0,4.0,4.0,4.0,4.0,4.0,4.0,4.0,4.0,4.0,4.0,100.0,,,,,,,,,,,,,,,,,,,,,,,,,,,,,,,,,,,,,,,,,,,,,,,,,,,,,,,,,,,,,,,,,,,,,,,,,,,,,,,,,,,,,,,,,,,,,,,,,,,,,,,,,,,,,,,,,,,,,,,,,,,,,,,,,,,
1725715981.361039,1725715981.362987,190.0,0.0,4252.436035,4313.974121,4250.0,4317.692383,4250.256348,4246.153809,4316.666504,4271.282227,4272.692383,4260.384766,4490.256348,4530.0,4382.94873,4422.307617,2884.0,1.0,15.0,,,,0.0,4.0,4.0,4.0,4.0,4.0,4.0,4.0,4.0,4.0,4.0,4.0,4.0,4.0,4.0,100.0,,,,,,,,,,,,,,,,,,,,,,,,,,,,,,,,,,,,,,,,,,,,,,,,,,,,,,,,,,,,,,,,,,,,,,,,,,,,,,,,,,,,,,,,,,,,,,,,,,,,,,,,,,,,,,,,,,,,,,,,,,,,,,,,,,,
1725715981.364943,1725715981.366891,191.0,0.0,4252.179688,4308.846191,4249.743652,4312.820313,4249.743652,4246.410156,4310.641113,4276.794922,4275.897461,4259.487305,4488.589844,4533.333496,4382.307617,4420.897461,3111.0,1.0,15.0,,,,0.0,4.0,4.0,4.0,4.0,4.0,4.0,4.0,4.0,4.0,4.0,4.0,4.0,4.0,4.0,100.0,,,,,,,,,,,,,,,,,,,,,,,,,,,,,,,,,,,,,,,,,,,,,,,,,,,,,,,,,,,,,,,,,,,,,,,,,,,,,,,,,,,,,,,,,,,,,,,,,,,,,,,,,,,,,,,,,,,,,,,,,,,,,,,,,,,
1725715981.368847,1725715981.370795,192.0,0.0,4252.563965,4307.179688,4250.128418,4309.487305,4248.974121,4246.666504,4305.0,4281.025879,4277.563965,4260.256348,4484.487305,4536.410156,4381.282227,4421.666504,3391.0,1.0,15.0,,,,0.0,4.0,4.0,4.0,4.0,4.0,4.0,4.0,4.0,4.0,4.0,4.0,4.0,4.0,4.0,100.0,,,,,,,,,,,,,,,,,,,,,,,,,,,,,,,,,,,,,,,,,,,,,,,,,,,,,,,,,,,,,,,,,,,,,,,,,,,,,,,,,,,,,,,,,,,,,,,,,,,,,,,,,,,,,,,,,,,,,,,,,,,,,,,,,,,
1725715981.372751,1725715981.374699,193.0,0.0,4252.692383,4309.487305,4250.769043,4309.871582,4248.333496,4247.563965,4301.410156,4282.307617,4277.820313,4262.307617,4482.179688,4538.589844,4380.384766,4423.974121,3807.0,1.0,15.0,,,,0.0,4.0,4.0,4.0,4.0,4.0,4.0,4.0,4.0,4.0,4.0,4.0,4.0,4.0,4.0,100.0,,,,,,,,,,,,,,,,,,,,,,,,,,,,,,,,,,,,,,,,,,,,,,,,,,,,,,,,,,,,,,,,,,,,,,,,,,,,,,,,,,,,,,,,,,,,,,,,,,,,,,,,,,,,,,,,,,,,,,,,,,,,,,,,,,,
1725715981.376655,1725715981.378503,194.0,0.0,4252.820313,4313.589844,4251.410156,4313.461426,4248.717773,4249.102539,4299.743652,4281.794922,4277.692383,4263.846191,4483.974121,4540.0,4378.846191,4425.769043,2884.0,1.0,15.0,,,,0.0,4.0,4.0,4.0,4.0,4.0,4.0,4.0,4.0,4.0,4.0,4.0,4.0,4.0,4.0,100.0,,,,,,,,,,,,,,,,,,,,,,,,,,,,,,,,,,,,,,,,,,,,,,,,,,,,,,,,,,,,,,,,,,,,,,,,,,,,,,,,,,,,,,,,,,,,,,,,,,,,,,,,,,,,,,,,,,,,,,,,,,,,,,,,,,,
1725715981.380559,1725715981.382407,195.0,0.0,4252.820313,4316.025879,4251.410156,4316.922852,4250.0,4250.256348,4298.205078,4281.666504,4278.717773,4262.563965,4487.436035,4540.641113,4375.641113,4425.512695,3111.0,1.0,15.0,,,,0.0,4.0,4.0,4.0,4.0,4.0,4.0,4.0,4.0,4.0,4.0,4.0,4.0,4.0,4.0,100.0,,,,,,,,,,,,,,,,,,,,,,,,,,,,,,,,,,,,,,,,,,,,,,,,,,,,,,,,,,,,,,,,,,,,,,,,,,,,,,,,,,,,,,,,,,,,,,,,,,,,,,,,,,,,,,,,,,,,,,,,,,,,,,,,,,,
1725715981.384463,1725715981.386411,196.0,0.0,4252.436035,4314.615234,4250.512695,4316.922852,4250.897461,4250.256348,4294.615234,4282.692383,4280.769043,4257.820313,4487.563965,4539.358887,4370.512695,4422.179688,3391.0,1.0,15.0,,,,0.0,4.0,4.0,4.0,4.0,4.0,4.0,4.0,4.0,4.0,4.0,4.0,4.0,4.0,4.0,100.0,,,,,,,,,,,,,,,,,,,,,,,,,,,,,,,,,,,,,,,,,,,,,,,,,,,,,,,,0.0,0.0,1.0,0.0,1.0,0.0,,,,,,,,,,,,,,,,,,,,,,,,,,,,,,,,,,,,,,,,,,,,,,,,,,,,,,,,,,,,,,,,,,,,,,
1725715981.388367,1725715981.390316,197.0,0.0,4251.025879,4309.102539,4248.461426,4312.436035,4249.102539,4248.717773,4288.589844,4282.179688,4281.282227,4251.025879,4481.282227,4535.0,4364.487305,4416.794922,3807.0,1.0,15.0,,,,0.0,4.0,4.0,4.0,4.0,4.0,4.0,4.0,4.0,4.0,4.0,4.0,4.0,4.0,4.0,100.0,,,,,,,,,,,,,,,,,,,,,,,,,,,,,,,,,,,,,,,,,,,,,,,,,,,,,,,,,,,,,,,,,,,,,,,,,,,,,,,,,,,,,,,,,,,,,,,,,,,,,,,,,,,,,,,,,,,,,,,,,,,,,,,,,,,
1725715981.392271,1725715981.39422,198.0,0.0,4248.846191,4302.179688,4245.897461,4305.641113,4243.846191,4246.794922,4282.05127,4277.563965,4277.436035,4244.871582,4470.384766,4528.717773,4359.358887,4411.282227,2884.0,1.0,15.0,,,,0.0,4.0,4.0,4.0,4.0,4.0,4.0,4.0,4.0,4.0,4.0,4.0,4.0,4.0,4.0,100.0,,,,,,,,,,,,,,,,,,,,,,,,,,,,,,,,,,,,,,,,,,,,,,,,,,,,,,,,,,,,,,,,,,,,,,,,,,,,,,,,,,,,,,,,,,,,,,,,,,,,,,,,,,,,,,,,,,,,,,,,,,,,,,,,,,,
1725715981.396176,1725715981.398124,199.0,0.0,4246.794922,4297.563965,4243.717773,4300.641113,4236.922852,4245.384766,4277.820313,4269.358887,4269.615234,4241.794922,4461.282227,4523.461426,4356.794922,4408.589844,3111.0,1.0,15.0,,,,0.0,4.0,4.0,4.0,4.0,4.0,4.0,4.0,4.0,4.0,4.0,4.0,4.0,4.0,4.0,100.0,,,,,,,,,,,,,,,,,,,,,,,,,,,,,,,,,,,,,,,,,,,,,,,,,,,,,,,,,,,,,,,,,,,,,,,,,,,,,,,,,,,,,,,,,,,,,,,,,,,,,,,,,,,,,,,,,,,,,,,,,,,,,,,,,,,
1725715981.40008,1725715981.402028,200.0,0.0,4245.769043,4296.922852,4243.589844,4299.743652,4231.922852,4245.256348,4277.05127,4262.436035,4262.05127,4242.563965,4460.128418,4522.94873,4358.077148,4410.512695,3391.0,1.0,15.0,,,,0.0,4.0,4.0,4.0,4.0,4.0,4.0,4.0,4.0,4.0,4.0,4.0,4.0,4.0,4.0,100.0,,,,,,,,,,,,,,,,,,,,,,,,,,,,,,,,,,,,,,,,,,,,,,,,,,,,,,,,,,,,,,,,,,,,,,,,,,,,,,,,,,,,,,,,,,,,,,,,,,,,,,,,,,,,,,,,,,,,,,,,,,,,,,,,,,,
1725715981.403984,1725715981.406032,201.0,0.0,4246.153809,4298.974121,4245.897461,4302.05127,4231.794922,4245.897461,4278.205078,4262.05127,4259.615234,4246.025879,4467.692383,4528.333496,4362.179688,4416.666504,3807.0,1.0,15.0,,,,0.0,4.0,4.0,4.0,4.0,4.0,4.0,4.0,4.0,4.0,4.0,4.0,4.0,4.0,4.0,100.0,,,,,,,,,,,,,,,,,,,,,,,,,,,,,,,,,,,,,,,,,,,,,,,,,,,,,,,,,,,,,,,,,,,,,,,,,,,,,,,,,,,,,,,,,,,,,,,,,,,,,,,,,,,,,,,,,,,,,,,,,,,,,,,,,,,
1725715981.407888,1725715981.409936,202.0,0.0,4247.179688,4301.282227,4250.641113,4305.256348,4236.794922,4246.538574,4279.615234,4268.333496,4263.461426,4249.743652,4478.717773,4537.05127,4366.666504,4424.358887,2884.0,1.0,15.0,,,,0.0,4.0,4.0,4.0,4.0,4.0,4.0,4.0,4.0,4.0,4.0,4.0,4.0,4.0,4.0,100.0,,,,,,,,,,,,,,,,,,,,,,,,,,,,,,,,,,,,,,,,,,,,,,,,,,,,,,,,,,,,,,,,,,,,,,,,,,,,,,,,,,,,,,,,,,,,,,,,,,,,,,,,,,,,,,,,,,,,,,,,,,,,,,,,,,,
1725715981.411792,1725715981.41384,203.0,0.0,4247.820313,4301.538574,4256.153809,4307.436035,4244.102539,4246.794922,4280.256348,4275.769043,4270.384766,4251.025879,4485.641113,4543.589844,4369.230957,4429.743652,3111.0,1.0,15.0,,,,0.0,4.0,4.0,4.0,4.0,4.0,4.0,4.0,4.0,4.0,4.0,4.0,4.0,4.0,4.0,100.0,,,,,,,,,,,,,,,,,,,,,,,,,,,,,,,,,,,,,,,,,,,,,,,,,,,,,,,,,,,,,,,,,,,,,,,,,,,,,,,,,,,,,,,,,,,,,,,,,,,,,,,,,,,,,,,,,,,,,,,,,,,,,,,,,,,
1725715981.415696,1725715981.417744,204.0,0.0,4247.436035,4299.871582,4260.641113,4307.692383,4250.0,4246.666504,4280.641113,4277.820313,4275.384766,4249.487305,4484.230957,4544.615234,4368.974121,4430.384766,3391.0,1.0,15.0,,,,0.0,4.0,4.0,4.0,4.0,4.0,4.0,4.0,4.0,4.0,4.0,4.0,4.0,4.0,4.0,100.0,,,,,,,,,,,,,,,,,,,,,,,,,,,,,,,,,,,,,,,,,,,,,,,,,,,,,,,,0.0,0.0,1.0,0.0,1.0,0.0,,,,,,,,,,,,,,,,,,,,,,,,,,,,,,,,,,,,,,,,,,,,,,,,,,,,,,,,,,,,,,,,,,,,,,
1725715981.4196,1725715981.421648,205.0,0.0,4246.794922,4297.820313,4262.692383,4307.307617,4252.05127,4246.410156,4280.641113,4273.077148,4276.538574,4247.179688,4477.179688,4541.025879,4367.436035,4427.179688,3807.0,1.0,15.0,,,,0.0,4.0,4.0,4.0,4.0,4.0,4.0,4.0,4.0,4.0,4.0,4.0,4.0,4.0,4.0,100.0,,,,,,,,,,,,,,,,,,,,,,,,,,,,,,,,,,,,,,,,,,,,,,,,,,,,,,,,,,,,,,,,,,,,,,,,,,,,,,,,,,,,,,,,,,,,,,,,,,,,,,,,,,,,,,,,,,,,,,,,,,,,,,,,,,,
1725715981.423504,1725715981.425453,206.0,0.0,4246.794922,4297.692383,4262.563965,4307.563965,4250.256348,4246.282227,4279.615234,4265.641113,4275.256348,4247.436035,4471.025879,4537.563965,4365.897461,4423.846191,2884.0,1.0,15.0,,,,0.0,4.0,4.0,4.0,4.0,4.0,4.0,4.0,4.0,4.0,4.0,4.0,4.0,4.0,4.0,100.0,,,,,,,,,,,,,,,,,,,,,,,,,,,,,,,,,,,,,,,,,,,,,,,,,,,,,,,,,,,,,,,,,,,,,,,,,,,,,,,,,,,,,,,,,,,,,,,,,,,,,,,,,,,,,,,,,,,,,,,,,,,,,,,,,,,
1725715981.427408,1725715981.429357,207.0,0.0,4247.820313,4300.0,4261.794922,4309.358887,4246.794922,4246.794922,4276.922852,4261.666504,4274.358887,4251.410156,4470.128418,4537.692383,4365.512695,4423.589844,3111.0,1.0,15.0,,,,0.0,4.0,4.0,4.0,4.0,4.0,4.0,4.0,4.0,4.0,4.0,4.0,4.0,4.0,4.0,100.0,,,,,,,,,,,,,,,,,,,,,,,,,,,,,,,,,,,,,,,,,,,,,,,,,,,,,,,,,,,,,,,,,,,,,,,,,,,,,,,,,,,,,,,,,,,,,,,,,,,,,,,,,,,,,,,,,,,,,,,,,,,,,,,,,,,
1725715981.431312,1725715981.433261,208.0,0.0,4248.974121,4302.820313,4261.538574,4311.794922,4244.743652,4247.94873,4272.94873,4263.846191,4275.256348,4257.05127,4473.717773,4540.512695,4366.282227,4426.410156,3391.0,1.0,15.0,,,,0.0,4.0,4.0,4.0,4.0,4.0,4.0,4.0,4.0,4.0,4.0,4.0,4.0,4.0,4.0,100.0,,,,,,,,,,,,,,,,,,,,,,,,,,,,,,,,,,,,,,,,,,,,,,,,,,,,,,,,,,,,,,,,,,,,,,,,,,,,,,,,,,,,,,,,,,,,,,,,,,,,,,,,,,,,,,,,,,,,,,,,,,,,,,,,,,,
1725715981.435217,1725715981.437065,209.0,0.0,4249.358887,4303.205078,4261.922852,4312.820313,4245.256348,4249.102539,4268.846191,4270.128418,4277.307617,4261.025879,4477.307617,4542.820313,4367.692383,4429.743652,3807.0,1.0,15.0,,,,0.0,4.0,4.0,4.0,4.0,4.0,4.0,4.0,4.0,4.0,4.0,4.0,4.0,4.0,4.0,100.0,,,,,,,,,,,,,,,,,,,,,,,,,,,,,,,,,,,,,,,,,,,,,,,,,,,,,,,,,,,,,,,,,,,,,,,,,,,,,,,,,,,,,,,,,,,,,,,,,,,,,,,,,,,,,,,,,,,,,,,,,,,,,,,,,,,
1725715981.439121,1725715981.440969,210.0,0.0,4249.358887,4300.384766,4262.179688,4311.282227,4247.563965,4249.487305,4266.922852,4276.153809,4278.717773,4261.794922,4478.333496,4542.563965,4369.102539,4431.410156,2884.0,1.0,15.0,,,,0.0,4.0,4.0,4.0,4.0,4.0,4.0,4.0,4.0,4.0,4.0,4.0,4.0,4.0,4.0,100.0,,,,,,,,,,,,,,,,,,,,,,,,,,,,,,,,,,,,,,,,,,,,,,,,,,,,,,,,,,,,,,,,,,,,,,,,,,,,,,,,,,,,,,,,,,,,,,,,,,,,,,,,,,,,,,,,,,,,,,,,,,,,,,,,,,,
1725715981.443025,1725715981.444873,211.0,0.0,4250.641113,4296.153809,4261.666504,4308.461426,4249.102539,4248.974121,4268.461426,4278.205078,4278.461426,4260.512695,4477.692383,4540.769043,4370.0,4430.769043,3111.0,1.0,15.0,,,,0.0,4.0,4.0,4.0,4.0,4.0,4.0,4.0,4.0,4.0,4.0,4.0,4.0,4.0,4.0,100.0,,,,,,,,,,,,,,,,,,,,,,,,,,,,,,,,,,,,,,,,,,,,,,,,,,,,,,,,,,,,,,,,,,,,,,,,,,,,,,,,,,,,,,,,,,,,,,,,,,,,,,,,,,,,,,,,,,,,,,,,,,,,,,,,,,,
1725715981.446929,1725715981.448877,212.0,0.0,4254.102539,4293.717773,4260.769043,4306.922852,4248.717773,4247.820313,4272.820313,4276.538574,4277.05127,4259.102539,4477.563965,4540.641113,4370.897461,4428.717773,3391.0,1.0,15.0,,,,0.0,4.0,4.0,4.0,4.0,4.0,4.0,4.0,4.0,4.0,4.0,4.0,4.0,4.0,4.0,100.0,,,,,,,,,,,,,,,,,1.0,0.0,0.0,,,,,,,,,,,,,,,,,,,,,,,,,,,,,,,,,,,,,0.0,0.0,1.0,0.0,1.0,0.0,13.469803,1.445706,0.781232,0.243727,0.077919,2.276086,1.093543,0.391611,0.167611,0.061865,3.450333,0.572048,0.16791,0.099712,0.04729,1.134923,1.863,0.333619,0.133126,0.046464,0.415285,0.286566,0.141523,0.097145,0.047024,0.427301,0.264784,0.136451,0.045674,0.032148,3.675584,0.804702,0.221127,0.161506,0.038018,1.179645,0.452387,0.20614,0.137783,0.116012,1.27562,0.917169,0.649941,0.171136,0.129799,2.072554,0.863015,0.607176,0.291932,0.090736,3.335199,1.999093,1.051154,0.415383,0.128004,3.466615,2.819833,0.592028,0.295758,0.151039,3.322808,1.61693,0.933491,0.286566,0.068533,2.909669,2.274824,0.770506,0.297068,0.093517
1725715981.450833,1725715981.452781,213.0,0.0,4259.230957,4294.487305,4260.384766,4308.333496,4247.820313,4246.794922,4277.307617,4274.230957,4276.153809,4258.974121,4479.615234,4543.846191,4372.307617,4427.307617,3807.0,1.0,15.0,,,,0.0,4.0,4.0,4.0,4.0,4.0,4.0,4.0,4.0,4.0,4.0,4.0,4.0,4.0,4.0,100.0,,,,,,,,,,,,,,,,,,,,,,,,,,,,,,,,,,,,,,,,,,,,,,,,,,,,,,,,,,,,,,,,,,,,,,,,,,,,,,,,,,,,,,,,,,,,,,,,,,,,,,,,,,,,,,,,,,,,,,,,,,,,,,,,,,,
1725715981.454737,1725715981.456685,214.0,0.0,4264.102539,4297.179688,4261.282227,4311.538574,4248.846191,4246.538574,4279.230957,4274.487305,4277.179688,4260.512695,4483.077148,4549.487305,4374.358887,4427.94873,2884.0,1.0,15.0,,,,0.0,4.0,4.0,4.0,4.0,4.0,4.0,4.0,4.0,4.0,4.0,4.0,4.0,4.0,4.0,100.0,,,,,,,,,,,,,,,,,,,,,,,,,,,,,,,,,,,,,,,,,,,,,,,,,,,,,,,,,,,,,,,,,,,,,,,,,,,,,,,,,,,,,,,,,,,,,,,,,,,,,,,,,,,,,,,,,,,,,,,,,,,,,,,,,,,
1725715981.458641,1725715981.460589,215.0,0.0,4266.922852,4299.230957,4263.461426,4313.589844,4252.05127,4247.05127,4277.436035,4277.820313,4280.0,4262.692383,4486.922852,4554.615234,4376.794922,4430.641113,3111.0,1.0,15.0,,,,0.0,4.0,4.0,4.0,4.0,4.0,4.0,4.0,4.0,4.0,4.0,4.0,4.0,4.0,4.0,100.0,,,,,,,,,,,,,,,,,,,,,,,,,,,,,,,,,,,,,,,,,,,,,,,,,,,,,,,,,,,,,,,,,,,,,,,,,,,,,,,,,,,,,,,,,,,,,,,,,,,,,,,,,,,,,,,,,,,,,,,,,,,,,,,,,,,
1725715981.462545,1725715981.464593,216.0,0.0,4267.307617,4298.974121,4265.897461,4312.820313,4254.230957,4247.94873,4273.333496,4282.05127,4282.307617,4263.974121,4490.0,4557.179688,4378.333496,4433.589844,3391.0,1.0,15.0,,,,0.0,4.0,4.0,4.0,4.0,4.0,4.0,4.0,4.0,4.0,4.0,4.0,4.0,4.0,4.0,100.0,,,,,,,,,,,,,,,,,,,,,,,,,,,,,,,,,,,,,,,,,,,,,,,,,,,,,,,,,,,,,,,,,,,,,,,,,,,,,,,,,,,,,,,,,,,,,,,,,,,,,,,,,,,,,,,,,,,,,,,,,,,,,,,,,,,
1725715981.466449,1725715981.468498,217.0,0.0,4266.153809,4297.179688,4267.179688,4310.384766,4251.922852,4248.333496,4268.717773,4284.358887,4281.922852,4262.820313,4491.410156,4557.05127,4378.077148,4435.0,3807.0,1.0,15.0,,,,0.0,4.0,4.0,4.0,4.0,4.0,4.0,4.0,4.0,4.0,4.0,4.0,4.0,4.0,4.0,100.0,,,,,,,,,,,,,,,,,,,,,,,,,,,,,,,,,,,,,,,,,,,,,,,,,,,,,,,,,,,,,,,,,,,,,,,,,,,,,,,,,,,,,,,,,,,,,,,,,,,,,,,,,,,,,,,,,,,,,,,,,,,,,,,,,,,
1725715981.470353,1725715981.472402,218.0,0.0,4265.512695,4295.897461,4266.410156,4308.974121,4245.256348,4248.077148,4265.128418,4284.102539,4278.974121,4258.717773,4490.641113,4556.025879,4375.512695,4434.615234,2884.0,1.0,15.0,,,,0.0,4.0,4.0,4.0,4.0,4.0,4.0,4.0,4.0,4.0,4.0,4.0,4.0,4.0,4.0,100.0,,,,,,,,,,,,,,,,,,,,,,,,,,,,,,,,,,,,,,,,,,,,,,,,,,,,,,,,,,,,,,,,,,,,,,,,,,,,,,,,,,,,,,,,,,,,,,,,,,,,,,,,,,,,,,,,,,,,,,,,,,,,,,,,,,,
1725715981.474258,1725715981.476306,219.0,0.0,4266.153809,4295.897461,4264.358887,4309.615234,4237.563965,4247.179688,4263.333496,4282.307617,4275.128418,4253.974121,4487.692383,4555.128418,4371.282227,4432.563965,3111.0,1.0,15.0,,,,0.0,4.0,4.0,4.0,4.0,4.0,4.0,4.0,4.0,4.0,4.0,4.0,4.0,4.0,4.0,100.0,,,,,,,,,,,,,,,,,,,,,,,,,,,,,,,,,,,,,,,,,,,,,,,,,,,,,,,,,,,,,,,,,,,,,,,,,,,,,,,,,,,,,,,,,,,,,,,,,,,,,,,,,,,,,,,,,,,,,,,,,,,,,,,,,,,
1725715981.478162,1725715981.48021,220.0,0.0,4267.307617,4296.282227,4262.05127,4310.512695,4233.461426,4245.897461,4262.692383,4280.897461,4273.077148,4251.410156,4483.846191,4554.871582,4367.179688,4429.871582,3391.0,1.0,15.0,,,,0.0,4.0,4.0,4.0,4.0,4.0,4.0,4.0,4.0,4.0,4.0,4.0,4.0,4.0,4.0,100.0,,,,,,,,,,,,,,,,,,,,,,,,,,,,,,,,,,,,,,,,,,,,,,,,,,,,,,,,0.0,0.0,1.0,0.0,1.0,0.0,,,,,,,,,,,,,,,,,,,,,,,,,,,,,,,,,,,,,,,,,,,,,,,,,,,,,,,,,,,,,,,,,,,,,,
1725715981.482066,1725715981.484014,221.0,0.0,4267.692383,4296.025879,4260.769043,4309.615234,4235.256348,4245.256348,4262.563965,4280.256348,4273.589844,4251.538574,4480.897461,4554.358887,4364.871582,4427.563965,3807.0,1.0,15.0,,,,0.0,4.0,4.0,4.0,4.0,4.0,4.0,4.0,4.0,4.0,4.0,4.0,4.0,4.0,4.0,100.0,,,,,,,,,,,,,,,,,,,,,,,,,,,,,,,,,,,,,,,,,,,,,,,,,,,,,,,,,,,,,,,,,,,,,,,,,,,,,,,,,,,,,,,,,,,,,,,,,,,,,,,,,,,,,,,,,,,,,,,,,,,,,,,,,,,
1725715981.48597,1725715981.487918,222.0,0.0,4267.307617,4295.384766,4261.025879,4306.153809,4241.794922,4245.512695,4263.077148,4279.743652,4275.512695,4252.563965,4480.384766,4553.077148,4364.743652,4426.666504,2884.0,1.0,15.0,,,,0.0,4.0,4.0,4.0,4.0,4.0,4.0,4.0,4.0,4.0,4.0,4.0,4.0,4.0,4.0,100.0,,,,,,,,,,,,,,,,,,,,,,,,,,,,,,,,,,,,,,,,,,,,,,,,,,,,,,,,,,,,,,,,,,,,,,,,,,,,,,,,,,,,,,,,,,,,,,,,,,,,,,,,,,,,,,,,,,,,,,,,,,,,,,,,,,,
1725715981.489874,1725715981.491922,223.0,0.0,4267.307617,4295.0,4262.179688,4301.794922,4248.974121,4246.025879,4264.230957,4278.717773,4277.307617,4252.179688,4482.820313,4551.794922,4366.410156,4427.94873,3111.0,1.0,15.0,,,,0.0,4.0,4.0,4.0,4.0,4.0,4.0,4.0,4.0,4.0,4.0,4.0,4.0,4.0,4.0,100.0,,,,,,,,,,,,,,,,,,,,,,,,,,,,,,,,,,,,,,,,,,,,,,,,,,,,,,,,,,,,,,,,,,,,,,,,,,,,,,,,,,,,,,,,,,,,,,,,,,,,,,,,,,,,,,,,,,,,,,,,,,,,,,,,,,,
1725715981.493778,1725715981.495826,224.0,0.0,4268.974121,4295.384766,4263.846191,4298.974121,4252.179688,4245.769043,4265.128418,4277.692383,4278.205078,4250.256348,4487.307617,4552.436035,4369.230957,4431.794922,3391.0,1.0,15.0,,,,0.0,4.0,4.0,4.0,4.0,4.0,4.0,4.0,4.0,4.0,4.0,4.0,4.0,4.0,4.0,100.0,,,,,,,,,,,,,,,,,,,,,,,,,,,,,,,,,,,,,,,,,,,,,,,,,,,,,,,,,,,,,,,,,,,,,,,,,,,,,,,,,,,,,,,,,,,,,,,,,,,,,,,,,,,,,,,,,,,,,,,,,,,,,,,,,,,
1725715981.497682,1725715981.49973,225.0,0.0,4272.563965,4295.641113,4265.384766,4299.102539,4249.871582,4243.717773,4264.487305,4277.820313,4278.461426,4248.974121,4492.179688,4556.538574,4372.307617,4437.179688,3807.0,1.0,15.0,,,,0.0,4.0,4.0,4.0,4.0,4.0,4.0,4.0,4.0,4.0,4.0,4.0,4.0,4.0,4.0,100.0,,,,,,,,,,,,,,,,,,,,,,,,,,,,,,,,,,,,,,,,,,,,,,,,,,,,,,,,,,,,,,,,,,,,,,,,,,,,,,,,,,,,,,,,,,,,,,,,,,,,,,,,,,,,,,,,,,,,,,,,,,,,,,,,,,,
1725715981.501586,1725715981.503635,226.0,0.0,4276.666504,4295.0,4266.282227,4301.922852,4243.974121,4241.025879,4261.538574,4279.487305,4278.717773,4250.769043,4495.256348,4563.205078,4374.743652,4442.307617,2884.0,1.0,15.0,,,,0.0,4.0,4.0,4.0,4.0,4.0,4.0,4.0,4.0,4.0,4.0,4.0,4.0,4.0,4.0,100.0,,,,,,,,,,,,,,,,,,,,,,,,,,,,,,,,,,,,,,,,,,,,,,,,,,,,,,,,,,,,,,,,,,,,,,,,,,,,,,,,,,,,,,,,,,,,,,,,,,,,,,,,,,,,,,,,,,,,,,,,,,,,,,,,,,,
1725715981.50549,1725715981.507539,227.0,0.0,4279.358887,4293.461426,4266.282227,4306.025879,4238.846191,4240.0,4257.692383,4281.666504,4278.846191,4255.512695,4495.256348,4569.230957,4375.256348,4445.0,3111.0,1.0,15.0,,,,0.0,4.0,4.0,4.0,4.0,4.0,4.0,4.0,4.0,4.0,4.0,4.0,4.0,4.0,4.0,100.0,,,,,,,,,,,,,,,,,,,,,,,,,,,,,,,,,,,,,,,,,,,,,,,,,,,,,,,,,,,,,,,,,,,,,,,,,,,,,,,,,,,,,,,,,,,,,,,,,,,,,,,,,,,,,,,,,,,,,,,,,,,,,,,,,,,
1725715981.509394,1725715981.511343,228.0,0.0,4279.743652,4292.05127,4265.256348,4309.230957,4237.563965,4241.922852,4254.743652,4282.820313,4278.717773,4261.153809,4492.307617,4571.282227,4373.077148,4443.974121,3391.0,1.0,15.0,,,,0.0,4.0,4.0,4.0,4.0,4.0,4.0,4.0,4.0,4.0,4.0,4.0,4.0,4.0,4.0,100.0,,,,,,,,,,,,,,,,,,,,,,,,,,,,,,,,,,,,,,,,,,,,,,,,,,,,,,,,0.0,0.0,1.0,0.0,1.0,0.0,,,,,,,,,,,,,,,,,,,,,,,,,,,,,,,,,,,,,,,,,,,,,,,,,,,,,,,,,,,,,,,,,,,,,,
1725715981.513298,1725715981.515247,229.0,0.0,4278.333496,4291.153809,4263.589844,4309.871582,4240.0,4245.769043,4253.205078,4281.666504,4277.692383,4264.487305,4487.307617,4568.589844,4368.077148,4439.358887,3807.0,1.0,15.0,,,,0.0,4.0,4.0,4.0,4.0,4.0,4.0,4.0,4.0,4.0,4.0,4.0,4.0,4.0,4.0,100.0,,,,,,,,,,,,,,,,,,,,,,,,,,,,,,,,,,,,,,,,,,,,,,,,,,,,,,,,,,,,,,,,,,,,,,,,,,,,,,,,,,,,,,,,,,,,,,,,,,,,,,,,,,,,,,,,,,,,,,,,,,,,,,,,,,,
1725715981.517203,1725715981.519151,230.0,0.0,4276.282227,4290.384766,4261.282227,4307.692383,4243.077148,4248.461426,4252.436035,4278.077148,4275.256348,4263.205078,4481.666504,4562.563965,4360.897461,4432.307617,2884.0,1.0,15.0,,,,0.0,4.0,4.0,4.0,4.0,4.0,4.0,4.0,4.0,4.0,4.0,4.0,4.0,4.0,4.0,100.0,,,,,,,,,,,,,,,,,,,,,,,,,,,,,,,,,,,,,,,,,,,,,,,,,,,,,,,,,,,,,,,,,,,,,,,,,,,,,,,,,,,,,,,,,,,,,,,,,,,,,,,,,,,,,,,,,,,,,,,,,,,,,,,,,,,
1725715981.521107,1725715981.523055,231.0,0.0,4273.461426,4288.717773,4257.94873,4303.205078,4243.589844,4247.563965,4251.410156,4272.563965,4270.897461,4256.794922,4474.871582,4555.0,4352.563965,4424.230957,3111.0,1.0,15.0,,,,0.0,4.0,4.0,4.0,4.0,4.0,4.0,4.0,4.0,4.0,4.0,4.0,4.0,4.0,4.0,100.0,,,,,,,,,,,,,,,,,,,,,,,,,,,,,,,,,,,,,,,,,,,,,,,,,,,,,,,,,,,,,,,,,,,,,,,,,,,,,,,,,,,,,,,,,,,,,,,,,,,,,,,,,,,,,,,,,,,,,,,,,,,,,,,,,,,
1725715981.525011,1725715981.526859,232.0,0.0,4268.205078,4284.871582,4253.333496,4296.922852,4240.128418,4242.563965,4248.717773,4266.153809,4264.743652,4246.153809,4465.897461,4546.153809,4343.589844,4415.384766,3391.0,1.0,15.0,,,,0.0,4.0,4.0,4.0,4.0,4.0,4.0,4.0,4.0,4.0,4.0,4.0,4.0,4.0,4.0,100.0,,,,,,,,,,,,,,,,,,,,,,,,,,,,,,,,,,,,,,,,,,,,,,,,,,,,,,,,,,,,,,,,,,,,,,,,,,,,,,,,,,,,,,,,,,,,,,,,,,,,,,,,,,,,,,,,,,,,,,,,,,,,,,,,,,,
1725715981.528915,1725715981.530763,233.0,0.0,4259.358887,4277.820313,4247.05127,4289.102539,4233.461426,4235.641113,4243.333496,4260.128418,4256.922852,4234.358887,4454.487305,4535.0,4333.333496,4405.128418,3807.0,1.0,15.0,,,,0.0,4.0,4.0,4.0,4.0,4.0,4.0,4.0,4.0,4.0,4.0,4.0,4.0,4.0,4.0,100.0,,,,,,,,,,,,,,,,,,,,,,,,,,,,,,,,,,,,,,,,,,,,,,,,,,,,,,,,,,,,,,,,,,,,,,,,,,,,,,,,,,,,,,,,,,,,,,,,,,,,,,,,,,,,,,,,,,,,,,,,,,,,,,,,,,,
1725715981.532819,1725715981.534668,234.0,0.0,4247.179688,4267.692383,4239.358887,4280.641113,4225.384766,4229.871582,4235.512695,4255.128418,4249.102539,4224.102539,4442.05127,4521.666504,4321.794922,4393.333496,2884.0,1.0,15.0,,,,0.0,4.0,4.0,4.0,4.0,4.0,4.0,4.0,4.0,4.0,4.0,4.0,4.0,4.0,4.0,100.0,,,,,,,,,,,,,,,,,,,,,,,,,,,,,,,,,,,,,,,,,,,,,,,,,,,,,,,,,,,,,,,,,,,,,,,,,,,,,,,,,,,,,,,,,,,,,,,,,,,,,,,,,,,,,,,,,,,,,,,,,,,,,,,,,,,
1725715981.536723,1725715981.538572,235.0,0.0,4234.615234,4256.410156,4231.538574,4273.333496,4217.563965,4227.307617,4227.05127,4252.307617,4243.333496,4217.563965,4432.179688,4509.102539,4311.153809,4382.05127,3111.0,1.0,15.0,,,,0.0,4.0,4.0,4.0,4.0,4.0,4.0,4.0,4.0,4.0,4.0,4.0,4.0,4.0,4.0,100.0,,,,,,,,,,,,,,,,,,,,,,,,,,,,,,,,,,,,,,,,,,,,,,,,,,,,,,,,,,,,,,,,,,,,,,,,,,,,,,,,,,,,,,,,,,,,,,,,,,,,,,,,,,,,,,,,,,,,,,,,,,,,,,,,,,,
1725715981.540627,1725715981.542376,236.0,0.0,4225.769043,4247.179688,4226.025879,4268.846191,4212.05127,4228.205078,4220.641113,4252.563965,4242.563965,4215.769043,4428.205078,4501.794922,4306.025879,4375.512695,3391.0,1.0,15.0,,,,0.0,4.0,4.0,4.0,4.0,4.0,4.0,4.0,4.0,4.0,4.0,4.0,4.0,4.0,4.0,100.0,,,,,,,,,,,,,,,,,,,,,,,,,,,,,,,,,,,,,,,,,,,,,,,,,,,,,,,,0.0,0.0,1.0,0.0,1.0,0.0,,,,,,,,,,,,,,,,,,,,,,,,,,,,,,,,,,,,,,,,,,,,,,,,,,,,,,,,,,,,,,,,,,,,,,
1725715981.544531,1725715981.54628,237.0,0.0,4223.461426,4243.077148,4225.256348,4268.077148,4210.897461,4230.897461,4218.077148,4256.410156,4248.333496,4219.230957,4432.179688,4503.205078,4310.256348,4377.179688,3807.0,1.0,15.0,,,,0.0,4.0,4.0,4.0,4.0,4.0,4.0,4.0,4.0,4.0,4.0,4.0,4.0,4.0,4.0,100.0,,,,,,,,,,,,,,,,,,,,,,,,,,,,,,,,,,,,,,,,,,,,,,,,,,,,,,,,,,,,,,,,,,,,,,,,,,,,,,,,,,,,,,,,,,,,,,,,,,,,,,,,,,,,,,,,,,,,,,,,,,,,,,,,,,,
1725715981.548435,1725715981.550184,238.0,0.0,4227.179688,4245.256348,4229.487305,4270.128418,4214.615234,4233.333496,4218.974121,4263.205078,4259.230957,4227.563965,4442.820313,4512.563965,4323.077148,4386.666504,2884.0,1.0,15.0,,,,0.0,4.0,4.0,4.0,4.0,4.0,4.0,4.0,4.0,4.0,4.0,4.0,4.0,4.0,4.0,100.0,,,,,,,,,,,,,,,,,,,,,,,,,,,,,,,,,,,,,,,,,,,,,,,,,,,,,,,,,,,,,,,,,,,,,,,,,,,,,,,,,,,,,,,,,,,,,,,,,,,,,,,,,,,,,,,,,,,,,,,,,,,,,,,,,,,
1725715981.552339,1725715981.554188,239.0,0.0,4233.461426,4252.05127,4236.666504,4273.717773,4221.538574,4234.615234,4221.538574,4271.538574,4271.538574,4239.615234,4456.410156,4525.641113,4338.974121,4399.743652,3111.0,1.0,15.0,,,,0.0,4.0,4.0,4.0,4.0,4.0,4.0,4.0,4.0,4.0,4.0,4.0,4.0,4.0,4.0,100.0,,,,,,,,,,,,,,,,,,,,,,,,,,,,,,,,,,,,,,,,,,,,,,,,,,,,,,,,,,,,,,,,,,,,,,,,,,,,,,,,,,,,,,,,,,,,,,,,,,,,,,,,,,,,,,,,,,,,,,,,,,,,,,,,,,,
1725715981.556244,1725715981.558092,240.0,0.0,4237.94873,4259.743652,4243.846191,4277.692383,4228.205078,4235.0,4223.205078,4278.974121,4281.153809,4252.436035,4468.717773,4536.922852,4351.410156,4410.641113,3391.0,1.0,15.0,,,,0.0,4.0,4.0,4.0,4.0,4.0,4.0,4.0,4.0,4.0,4.0,4.0,4.0,4.0,4.0,100.0,,,,,,,,,,,,,,,,,,,,,,,,,,,,,,,,,,,,,,,,,,,,,,,,,,,,,,,,,,,,,,,,,,,,,,,,,,,,,,,,,,,,,,,,,,,,,,,,,,,,,,,,,,,,,,,,,,,,,,,,,,,,,,,,,,,
1725715981.560148,1725715981.561996,241.0,0.0,4238.846191,4265.0,4248.077148,4281.666504,4232.05127,4235.256348,4222.820313,4283.589844,4285.769043,4262.179688,4476.153809,4542.820313,4356.538574,4416.025879,3807.0,1.0,15.0,,,,0.0,4.0,4.0,4.0,4.0,4.0,4.0,4.0,4.0,4.0,4.0,4.0,4.0,4.0,4.0,100.0,,,,,,,,,,,,,,,,,,,,,,,,,,,,,,,,,,,,,,,,,,,,,,,,,,,,,,,,,,,,,,,,,,,,,,,,,,,,,,,,,,,,,,,,,,,,,,,,,,,,,,,,,,,,,,,,,,,,,,,,,,,,,,,,,,,
1725715981.564052,1725715981.566,242.0,0.0,4236.794922,4266.794922,4248.333496,4285.0,4232.436035,4235.512695,4220.384766,4285.0,4286.153809,4266.153809,4477.820313,4542.94873,4355.384766,4415.897461,2884.0,1.0,15.0,,,,0.0,4.0,4.0,4.0,4.0,4.0,4.0,4.0,4.0,4.0,4.0,4.0,4.0,4.0,4.0,100.0,,,,,,,,,,,,,,,,,,,,,,,,,,,,,,,,,,,,,,,,,,,,,,,,,,,,,,,,,,,,,,,,,,,,,,,,,,,,,,,,,,,,,,,,,,,,,,,,,,,,,,,,,,,,,,,,,,,,,,,,,,,,,,,,,,,
1725715981.567956,1725715981.569904,243.0,0.0,4233.974121,4266.282227,4245.641113,4287.05127,4230.384766,4235.512695,4217.563965,4283.846191,4284.358887,4264.487305,4475.769043,4539.615234,4351.410156,4412.436035,3111.0,1.0,15.0,,,,0.0,4.0,4.0,4.0,4.0,4.0,4.0,4.0,4.0,4.0,4.0,4.0,4.0,4.0,4.0,100.0,,,,,,,,,,,,,,,,,,,,,,,,,,,,,,,,,,,,,,,,,,,,,,,,,,,,,,,,,,,,,,,,,,,,,,,,,,,,,,,,,,,,,,,,,,,,,,,,,,,,,,,,,,,,,,,,,,,,,,,,,,,,,,,,,,,
1725715981.57186,1725715981.573808,244.0,0.0,4232.436035,4265.256348,4242.563965,4287.563965,4227.820313,4234.743652,4216.282227,4281.922852,4281.666504,4260.0,4473.077148,4536.153809,4348.205078,4408.333496,3391.0,1.0,15.0,,,,0.0,4.0,4.0,4.0,4.0,4.0,4.0,4.0,4.0,4.0,4.0,4.0,4.0,4.0,4.0,100.0,,,,,,,,,,,,,,,,,1.0,0.0,0.0,,,,,,,,,,,,,,,,,,,,,,,,,,,,,,,,,,,,,0.0,0.0,1.0,0.0,1.0,0.0,11.796946,1.666542,0.988332,0.21939,0.074201,2.556965,1.303882,0.411276,0.164418,0.066369,3.703784,0.715636,0.169887,0.089141,0.058399,1.003622,2.142511,0.362467,0.135443,0.050624,0.43691,0.332358,0.15577,0.095223,0.046181,0.433705,0.273623,0.117353,0.053757,0.033035,3.028535,0.848136,0.219904,0.168003,0.038822,1.010381,0.421567,0.195653,0.153236,0.134495,1.37787,0.764804,0.700469,0.188705,0.131687,2.200683,0.842869,0.668103,0.31751,0.091197,3.673601,2.215485,1.129317,0.459614,0.143757,3.574394,3.453765,0.680915,0.332985,0.165097,3.900207,1.778064,1.023911,0.327809,0.077055,3.274083,2.720478,0.866025,0.329198,0.104423
1725715981.575764,1725715981.577713,245.0,0.0,4232.820313,4264.615234,4241.538574,4287.436035,4226.922852,4233.461426,4217.436035,4280.384766,4278.205078,4255.512695,4471.922852,4534.102539,4347.436035,4405.384766,3807.0,1.0,15.0,,,,0.0,4.0,4.0,4.0,4.0,4.0,4.0,4.0,4.0,4.0,4.0,4.0,4.0,4.0,4.0,100.0,,,,,,,,,,,,,,,,,,,,,,,,,,,,,,,,,,,,,,,,,,,,,,,,,,,,,,,,,,,,,,,,,,,,,,,,,,,,,,,,,,,,,,,,,,,,,,,,,,,,,,,,,,,,,,,,,,,,,,,,,,,,,,,,,,,
1725715981.579668,1725715981.581617,246.0,0.0,4234.615234,4264.230957,4242.692383,4287.436035,4228.717773,4232.820313,4221.025879,4279.487305,4273.846191,4252.179688,4472.563965,4533.205078,4348.205078,4403.846191,2884.0,1.0,15.0,,,,0.0,4.0,4.0,4.0,4.0,4.0,4.0,4.0,4.0,4.0,4.0,4.0,4.0,4.0,4.0,100.0,,,,,,,,,,,,,,,,,,,,,,,,,,,,,,,,,,,,,,,,,,,,,,,,,,,,,,,,,,,,,,,,,,,,,,,,,,,,,,,,,,,,,,,,,,,,,,,,,,,,,,,,,,,,,,,,,,,,,,,,,,,,,,,,,,,
1725715981.583572,1725715981.585521,247.0,0.0,4236.025879,4264.358887,4244.743652,4288.589844,4232.436035,4233.205078,4225.384766,4278.717773,4268.974121,4250.384766,4473.717773,4532.436035,4348.717773,4403.205078,3111.0,1.0,15.0,,,,0.0,4.0,4.0,4.0,4.0,4.0,4.0,4.0,4.0,4.0,4.0,4.0,4.0,4.0,4.0,100.0,,,,,,,,,,,,,,,,,,,,,,,,,,,,,,,,,,,,,,,,,,,,,,,,,,,,,,,,,,,,,,,,,,,,,,,,,,,,,,,,,,,,,,,,,,,,,,,,,,,,,,,,,,,,,,,,,,,,,,,,,,,,,,,,,,,
1725715981.587476,1725715981.589325,248.0,0.0,4235.641113,4265.384766,4245.769043,4290.769043,4235.769043,4233.717773,4229.102539,4277.692383,4265.512695,4250.0,4474.358887,4531.794922,4348.077148,4403.589844,3391.0,1.0,15.0,,,,0.0,4.0,4.0,4.0,4.0,4.0,4.0,4.0,4.0,4.0,4.0,4.0,4.0,4.0,4.0,100.0,,,,,,,,,,,,,,,,,,,,,,,,,,,,,,,,,,,,,,,,,,,,,,,,,,,,,,,,,,,,,,,,,,,,,,,,,,,,,,,,,,,,,,,,,,,,,,,,,,,,,,,,,,,,,,,,,,,,,,,,,,,,,,,,,,,
1725715981.59138,1725715981.593229,249.0,0.0,4233.333496,4267.436035,4245.384766,4293.461426,4237.05127,4233.717773,4231.025879,4277.05127,4265.128418,4250.512695,4474.871582,4532.563965,4347.563965,4405.384766,3807.0,1.0,15.0,,,,0.0,4.0,4.0,4.0,4.0,4.0,4.0,4.0,4.0,4.0,4.0,4.0,4.0,4.0,4.0,100.0,,,,,,,,,,,,,,,,,,,,,,,,,,,,,,,,,,,,,,,,,,,,,,,,,,,,,,,,,,,,,,,,,,,,,,,,,,,,,,,,,,,,,,,,,,,,,,,,,,,,,,,,,,,,,,,,,,,,,,,,,,,,,,,,,,,
1725715981.595285,1725715981.597233,250.0,0.0,4229.358887,4269.615234,4244.102539,4295.512695,4235.512695,4233.077148,4231.538574,4277.436035,4267.436035,4251.282227,4475.512695,4534.871582,4348.333496,4408.333496,2884.0,1.0,15.0,,,,0.0,4.0,4.0,4.0,4.0,4.0,4.0,4.0,4.0,4.0,4.0,4.0,4.0,4.0,4.0,100.0,,,,,,,,,,,,,,,,,,,,,,,,,,,,,,,,,,,,,,,,,,,,,,,,,,,,,,,,,,,,,,,,,,,,,,,,,,,,,,,,,,,,,,,,,,,,,,,,,,,,,,,,,,,,,,,,,,,,,,,,,,,,,,,,,,,
1725715981.599189,1725715981.601137,251.0,0.0,4224.358887,4271.153809,4243.077148,4296.410156,4232.692383,4232.692383,4231.538574,4278.589844,4270.512695,4251.538574,4476.794922,4537.563965,4350.0,4411.666504,3111.0,1.0,15.0,,,,0.0,4.0,4.0,4.0,4.0,4.0,4.0,4.0,4.0,4.0,4.0,4.0,4.0,4.0,4.0,100.0,,,,,,,,,,,,,,,,,,,,,,,,,,,,,,,,,,,,,,,,,,,,,,,,,,,,,,,,,,,,,,,,,,,,,,,,,,,,,,,,,,,,,,,,,,,,,,,,,,,,,,,,,,,,,,,,,,,,,,,,,,,,,,,,,,,
1725715981.603093,1725715981.605041,252.0,0.0,4218.974121,4271.666504,4243.205078,4296.538574,4230.0,4232.692383,4231.538574,4279.743652,4271.410156,4251.410156,4478.077148,4538.846191,4351.153809,4413.589844,3391.0,1.0,15.0,,,,0.0,4.0,4.0,4.0,4.0,4.0,4.0,4.0,4.0,4.0,4.0,4.0,4.0,4.0,4.0,100.0,,,,,,,,,,,,,,,,,,,,,,,,,,,,,,,,,,,,,,,,,,,,,,,,,,,,,,,,0.0,0.0,1.0,0.0,1.0,0.0,,,,,,,,,,,,,,,,,,,,,,,,,,,,,,,,,,,,,,,,,,,,,,,,,,,,,,,,,,,,,,,,,,,,,,
1725715981.606997,1725715981.608945,253.0,0.0,4213.846191,4271.922852,4244.230957,4296.153809,4228.974121,4232.820313,4231.794922,4279.487305,4268.974121,4251.025879,4478.717773,4537.436035,4350.641113,4413.589844,3807.0,1.0,15.0,,,,0.0,4.0,4.0,4.0,4.0,4.0,4.0,4.0,4.0,4.0,4.0,4.0,4.0,4.0,4.0,100.0,,,,,,,,,,,,,,,,,,,,,,,,,,,,,,,,,,,,,,,,,,,,,,,,,,,,,,,,,,,,,,,,,,,,,,,,,,,,,,,,,,,,,,,,,,,,,,,,,,,,,,,,,,,,,,,,,,,,,,,,,,,,,,,,,,,
1725715981.610901,1725715981.61285,254.0,0.0,4209.743652,4272.692383,4245.256348,4295.769043,4229.358887,4232.436035,4232.179688,4276.538574,4264.487305,4250.0,4477.94873,4533.205078,4348.461426,4412.179688,2884.0,1.0,15.0,,,,0.0,4.0,4.0,4.0,4.0,4.0,4.0,4.0,4.0,4.0,4.0,4.0,4.0,4.0,4.0,100.0,,,,,,,,,,,,,,,,,,,,,,,,,,,,,,,,,,,,,,,,,,,,,,,,,,,,,,,,,,,,,,,,,,,,,,,,,,,,,,,,,,,,,,,,,,,,,,,,,,,,,,,,,,,,,,,,,,,,,,,,,,,,,,,,,,,
1725715981.614805,1725715981.616654,255.0,0.0,4206.410156,4274.102539,4245.769043,4295.384766,4230.128418,4231.410156,4232.563965,4270.641113,4260.256348,4248.077148,4475.641113,4527.692383,4345.128418,4411.025879,15.0,1.0,15.0,,,,0.0,4.0,4.0,4.0,4.0,4.0,4.0,4.0,4.0,4.0,4.0,4.0,4.0,4.0,4.0,100.0,,,,,,,,,,,,,,,,,,,,,,,,,,,,,,,,,,,,,,,,,,,,,,,,,,,,,,,,,,,,,,,,,,,,,,,,,,,,,,,,,,,,,,,,,,,,,,,,,,,,,,,,,,,,,,,,,,,,,,,,,,,,,,,,,,,
1725715981.618709,1725715981.620558,0.0,0.0,4204.102539,4274.871582,4245.897461,4295.0,4230.256348,4230.0,4232.820313,4263.974121,4258.846191,4245.512695,4472.692383,4523.461426,4341.922852,4411.025879,2680.0,1.0,15.0,,,,0.0,4.0,4.0,4.0,4.0,4.0,4.0,4.0,4.0,4.0,4.0,4.0,4.0,4.0,4.0,100.0,,,,,,,,,,,,,,,,,,,,,,,,,,,,,,,,,,,,,,,,,,,,,,,,,,,,,,,,,,,,,,,,,,,,,,,,,,,,,,,,,,,,,,,,,,,,,,,,,,,,,,,,,,,,,,,,,,,,,,,,,,,,,,,,,,,
1725715981.622613,1725715981.624462,1.0,0.0,4202.436035,4273.461426,4246.282227,4294.615234,4228.974121,4229.102539,4232.692383,4260.0,4260.384766,4243.846191,4471.025879,4523.205078,4339.358887,4412.307617,2556.0,1.0,15.0,,,,0.0,4.0,4.0,4.0,4.0,4.0,4.0,4.0,4.0,4.0,4.0,4.0,4.0,4.0,4.0,100.0,,,,,,,,,,,,,,,,,,,,,,,,,,,,,,,,,,,,,,,,,,,,,,,,,,,,,,,,,,,,,,,,,,,,,,,,,,,,,,,,,,,,,,,,,,,,,,,,,,,,,,,,,,,,,,,,,,,,,,,,,,,,,,,,,,,
1725715981.626517,1725715981.628366,2.0,0.0,4201.538574,4269.487305,4247.05127,4294.743652,4227.179688,4228.846191,4233.205078,4261.538574,4263.717773,4244.615234,4471.794922,4528.205078,4338.461426,4413.846191,2501.0,1.0,15.0,,,,0.0,4.0,4.0,4.0,4.0,4.0,4.0,4.0,4.0,4.0,4.0,4.0,4.0,4.0,4.0,100.0,,,,,,,,,,,,,,,,,,,,,,,,,,,,,,,,,,,,,,,,,,,,,,,,,,,,,,,,,,,,,,,,,,,,,,,,,,,,,,,,,,,,,,,,,,,,,,,,,,,,,,,,,,,,,,,,,,,,,,,,,,,,,,,,,,,
1725715981.630422,1725715981.63217,3.0,0.0,4201.153809,4265.0,4248.205078,4295.641113,4226.025879,4229.102539,4235.384766,4267.820313,4266.538574,4247.436035,4474.487305,4535.897461,4339.487305,4414.871582,2468.0,1.0,15.0,,,,0.0,4.0,4.0,4.0,4.0,4.0,4.0,4.0,4.0,4.0,4.0,4.0,4.0,4.0,4.0,100.0,,,,,,,,,,,,,,,,,,,,,,,,,,,,,,,,,,,,,,,,,,,,,,,,,,,,,,,,,,,,,,,,,,,,,,,,,,,,,,,,,,,,,,,,,,,,,,,,,,,,,,,,,,,,,,,,,,,,,,,,,,,,,,,,,,,
1725715981.634326,1725715981.636074,4.0,0.0,4201.025879,4263.461426,4248.846191,4296.666504,4226.666504,4229.743652,4239.358887,4274.102539,4267.563965,4250.256348,4477.05127,4541.025879,4342.05127,4415.0,2436.0,1.0,15.0,,,,0.0,4.0,4.0,4.0,4.0,4.0,4.0,4.0,4.0,4.0,4.0,4.0,4.0,4.0,4.0,100.0,,,,,,,,,,,,,,,,,,,,,,,,,,,,,,,,,,,,,,,,,,,,,,,,,,,,,,,,0.0,0.0,1.0,0.0,1.0,0.0,,,,,,,,,,,,,,,,,,,,,,,,,,,,,,,,,,,,,,,,,,,,,,,,,,,,,,,,,,,,,,,,,,,,,,
1725715981.63823,1725715981.639978,5.0,0.0,4200.512695,4267.05127,4248.333496,4297.307617,4228.974121,4230.0,4243.589844,4276.025879,4266.666504,4251.153809,4477.94873,4539.871582,4345.256348,4414.102539,2396.0,1.0,15.0,,,,0.0,4.0,4.0,4.0,4.0,4.0,4.0,4.0,4.0,4.0,4.0,4.0,4.0,4.0,4.0,100.0,,,,,,,,,,,,,,,,,,,,,,,,,,,,,,,,,,,,,,,,,,,,,,,,,,,,,,,,,,,,,,,,,,,,,,,,,,,,,,,,,,,,,,,,,,,,,,,,,,,,,,,,,,,,,,,,,,,,,,,,,,,,,,,,,,,
1725715981.642134,1725715981.643883,6.0,0.0,4199.487305,4274.487305,4246.922852,4297.563965,4232.05127,4229.871582,4246.922852,4272.563965,4264.871582,4249.615234,4477.563965,4533.461426,4348.077148,4412.820313,2434.0,1.0,15.0,,,,0.0,4.0,4.0,4.0,4.0,4.0,4.0,4.0,4.0,4.0,4.0,4.0,4.0,4.0,4.0,100.0,,,,,,,,,,,,,,,,,,,,,,,,,,,,,,,,,,,,,,,,,,,,,,,,,,,,,,,,,,,,,,,,,,,,,,,,,,,,,,,,,,,,,,,,,,,,,,,,,,,,,,,,,,,,,,,,,,,,,,,,,,,,,,,,,,,
1725715981.646038,1725715981.647687,7.0,0.0,4198.974121,4281.922852,4245.512695,4297.94873,4233.717773,4229.230957,4248.974121,4267.307617,4263.461426,4247.692383,4477.820313,4527.05127,4350.384766,4412.179688,2493.0,1.0,15.0,,,,0.0,4.0,4.0,4.0,4.0,4.0,4.0,4.0,4.0,4.0,4.0,4.0,4.0,4.0,4.0,100.0,,,,,,,,,,,,,,,,,,,,,,,,,,,,,,,,,,,,,,,,,,,,,,,,,,,,,,,,,,,,,,,,,,,,,,,,,,,,,,,,,,,,,,,,,,,,,,,,,,,,,,,,,,,,,,,,,,,,,,,,,,,,,,,,,,,
1725715981.649942,1725715981.651591,8.0,0.0,4199.358887,4285.512695,4245.128418,4298.589844,4233.077148,4228.461426,4249.743652,4264.871582,4263.461426,4247.307617,4479.487305,4525.641113,4351.922852,4412.94873,2471.0,1.0,15.0,,,,0.0,4.0,4.0,4.0,4.0,4.0,4.0,4.0,4.0,4.0,4.0,4.0,4.0,4.0,4.0,100.0,,,,,,,,,,,,,,,,,,,,,,,,,,,,,,,,,,,,,,,,,,,,,,,,,,,,,,,,,,,,,,,,,,,,,,,,,,,,,,,,,,,,,,,,,,,,,,,,,,,,,,,,,,,,,,,,,,,,,,,,,,,,,,,,,,,
1725715981.653846,1725715981.655495,9.0,0.0,4200.256348,4283.717773,4246.153809,4298.589844,4230.384766,4227.94873,4249.615234,4267.05127,4264.871582,4249.102539,4481.794922,4529.615234,4352.692383,4415.0,2570.0,1.0,15.0,,,,0.0,4.0,4.0,4.0,4.0,4.0,4.0,4.0,4.0,4.0,4.0,4.0,4.0,4.0,4.0,100.0,,,,,,,,,,,,,,,,,,,,,,,,,,,,,,,,,,,,,,,,,,,,,,,,,,,,,,,,,,,,,,,,,,,,,,,,,,,,,,,,,,,,,,,,,,,,,,,,,,,,,,,,,,,,,,,,,,,,,,,,,,,,,,,,,,,
1725715981.65775,1725715981.659499,10.0,0.0,4200.897461,4279.230957,4247.820313,4297.436035,4227.436035,4227.94873,4249.358887,4271.922852,4266.794922,4251.666504,4483.077148,4535.384766,4352.05127,4417.05127,2885.0,1.0,15.0,,,,0.0,4.0,4.0,4.0,4.0,4.0,4.0,4.0,4.0,4.0,4.0,4.0,4.0,4.0,4.0,100.0,,,,,,,,,,,,,,,,,,,,,,,,,,,,,,,,,,,,,,,,,,,,,,,,,,,,,,,,,,,,,,,,,,,,,,,,,,,,,,,,,,,,,,,,,,,,,,,,,,,,,,,,,,,,,,,,,,,,,,,,,,,,,,,,,,,
1725715981.661654,1725715981.663403,11.0,0.0,4200.897461,4276.282227,4248.974121,4295.512695,4225.897461,4228.461426,4249.615234,4275.128418,4267.692383,4252.94873,4482.436035,4538.205078,4350.0,4417.307617,3109.0,1.0,15.0,,,,0.0,4.0,4.0,4.0,4.0,4.0,4.0,4.0,4.0,4.0,4.0,4.0,4.0,4.0,4.0,100.0,,,,,,,,,,,,,,,,,,,,,,,,,,,,,,,,,,,,,,,,,,,,,,,,,,,,,,,,,,,,,,,,,,,,,,,,,,,,,,,,,,,,,,,,,,,,,,,,,,,,,,,,,,,,,,,,,,,,,,,,,,,,,,,,,,,
1725715981.665558,1725715981.667307,12.0,0.0,4200.641113,4277.179688,4248.846191,4294.358887,4226.282227,4229.230957,4250.128418,4274.102539,4266.153809,4251.666504,4480.256348,4535.897461,4347.436035,4415.256348,3393.0,1.0,15.0,,,,0.0,4.0,4.0,4.0,4.0,4.0,4.0,4.0,4.0,4.0,4.0,4.0,4.0,4.0,4.0,100.0,,,,,,,,,,,,,,,,,,,,,,,,,,,,,,,,,,,,,,,,,,,,,,,,,,,,,,,,0.0,0.0,1.0,0.0,1.0,0.0,,,,,,,,,,,,,,,,,,,,,,,,,,,,,,,,,,,,,,,,,,,,,,,,,,,,,,,,,,,,,,,,,,,,,,
1725715981.669463,1725715981.671311,13.0,0.0,4200.512695,4280.256348,4246.922852,4294.615234,4227.436035,4229.743652,4250.641113,4269.871582,4262.563965,4248.589844,4477.94873,4529.487305,4345.0,4411.794922,3809.0,1.0,15.0,,,,0.0,4.0,4.0,4.0,4.0,4.0,4.0,4.0,4.0,4.0,4.0,4.0,4.0,4.0,4.0,100.0,,,,,,,,,,,,,,,,,,,,,,,,,,,,,,,,,,,,,,,,,,,,,,,,,,,,,,,,,,,,,,,,,,,,,,,,,,,,,,,,,,,,,,,,,,,,,,,,,,,,,,,,,,,,,,,,,,,,,,,,,,,,,,,,,,,
1725715981.673367,1725715981.675215,14.0,0.0,4199.615234,4281.666504,4243.589844,4295.384766,4228.077148,4230.128418,4251.153809,4265.256348,4258.846191,4245.384766,4475.641113,4521.922852,4343.205078,4408.077148,2885.0,1.0,15.0,,,,0.0,4.0,4.0,4.0,4.0,4.0,4.0,4.0,4.0,4.0,4.0,4.0,4.0,4.0,4.0,100.0,,,,,,,,,,,,,,,,,,,,,,,,,,,,,,,,,,,,,,,,,,,,,,,,,,,,,,,,,,,,,,,,,,,,,,,,,,,,,,,,,,,,,,,,,,,,,,,,,,,,,,,,,,,,,,,,,,,,,,,,,,,,,,,,,,,
1725715981.677271,1725715981.679119,15.0,0.0,4196.922852,4279.487305,4239.871582,4295.0,4227.563965,4230.384766,4251.794922,4262.820313,4257.179688,4244.230957,4473.205078,4516.538574,4341.794922,4405.384766,3109.0,1.0,15.0,,,,0.0,4.0,4.0,4.0,4.0,4.0,4.0,4.0,4.0,4.0,4.0,4.0,4.0,4.0,4.0,100.0,,,,,,,,,,,,,,,,,,,,,,,,,,,,,,,,,,,,,,,,,,,,,,,,,,,,,,,,,,,,,,,,,,,,,,,,,,,,,,,,,,,,,,,,,,,,,,,,,,,,,,,,,,,,,,,,,,,,,,,,,,,,,,,,,,,
1725715981.681175,1725715981.683024,16.0,0.0,4193.205078,4274.615234,4236.410156,4292.307617,4226.410156,4231.025879,4252.563965,4262.94873,4258.589844,4245.256348,4470.256348,4514.487305,4341.025879,4403.846191,3393.0,1.0,15.0,,,,0.0,4.0,4.0,4.0,4.0,4.0,4.0,4.0,4.0,4.0,4.0,4.0,4.0,4.0,4.0,100.0,,,,,,,,,,,,,,,,,,,,,,,,,,,,,,,,,,,,,,,,,,,,,,,,,,,,,,,,,,,,,,,,,,,,,,,,,,,,,,,,,,,,,,,,,,,,,,,,,,,,,,,,,,,,,,,,,,,,,,,,,,,,,,,,,,,
1725715981.685079,1725715981.686928,17.0,0.0,4189.615234,4269.871582,4233.846191,4287.563965,4225.769043,4232.05127,4253.333496,4264.230957,4261.666504,4247.692383,4467.179688,4514.487305,4340.897461,4402.820313,3809.0,1.0,15.0,,,,0.0,4.0,4.0,4.0,4.0,4.0,4.0,4.0,4.0,4.0,4.0,4.0,4.0,4.0,4.0,100.0,,,,,,,,,,,,,,,,,,,,,,,,,,,,,,,,,,,,,,,,,,,,,,,,,,,,,,,,,,,,,,,,,,,,,,,,,,,,,,,,,,,,,,,,,,,,,,,,,,,,,,,,,,,,,,,,,,,,,,,,,,,,,,,,,,,
1725715981.688983,1725715981.690832,18.0,0.0,4188.205078,4267.692383,4232.05127,4282.563965,4226.538574,4232.820313,4253.077148,4264.743652,4264.615234,4249.615234,4464.871582,4513.846191,4341.282227,4401.538574,2885.0,1.0,15.0,,,,0.0,4.0,4.0,4.0,4.0,4.0,4.0,4.0,4.0,4.0,4.0,4.0,4.0,4.0,4.0,100.0,,,,,,,,,,,,,,,,,,,,,,,,,,,,,,,,,,,,,,,,,,,,,,,,,,,,,,,,,,,,,,,,,,,,,,,,,,,,,,,,,,,,,,,,,,,,,,,,,,,,,,,,,,,,,,,,,,,,,,,,,,,,,,,,,,,
1725715981.692887,1725715981.694636,19.0,0.0,4189.615234,4269.230957,4231.282227,4279.743652,4228.333496,4232.563965,4251.666504,4263.717773,4265.641113,4249.871582,4464.102539,4511.410156,4341.538574,4399.871582,3109.0,1.0,15.0,,,,0.0,4.0,4.0,4.0,4.0,4.0,4.0,4.0,4.0,4.0,4.0,4.0,4.0,4.0,4.0,100.0,,,,,,,,,,,,,,,,,,,,,,,,,,,,,,,,,,,,,,,,,,,,,,,,,,,,,,,,,,,,,,,,,,,,,,,,,,,,,,,,,,,,,,,,,,,,,,,,,,,,,,,,,,,,,,,,,,,,,,,,,,,,,,,,,,,
1725715981.696791,1725715981.69854,20.0,0.0,4193.205078,4273.077148,4231.538574,4279.871582,4229.743652,4231.410156,4250.256348,4262.179688,4264.615234,4248.974121,4465.0,4508.077148,4341.538574,4398.205078,3393.0,1.0,15.0,,,,0.0,4.0,4.0,4.0,4.0,4.0,4.0,4.0,4.0,4.0,4.0,4.0,4.0,4.0,4.0,100.0,,,,,,,,,,,,,,,,,1.0,0.0,0.0,,,,,,,,,,,,,,,,,,,,,,,,,,,,,,,,,,,,,0.0,0.0,64.0,0.032267,1.0,0.0,10.523161,1.899116,1.201554,0.189973,0.068298,2.622608,1.385305,0.408684,0.150707,0.071827,3.584435,0.827245,0.188159,0.083933,0.07186,0.870176,2.22978,0.375766,0.134783,0.056204,0.460419,0.359033,0.183071,0.089488,0.044323,0.427112,0.290692,0.122727,0.065677,0.036554,2.492804,0.892475,0.208525,0.161498,0.040334,0.80134,0.420338,0.187442,0.16306,0.152625,1.356943,0.640247,0.712616,0.200161,0.130343,2.17452,0.801402,0.678086,0.313147,0.087983,3.746347,2.241132,1.132024,0.472477,0.153868,3.533953,3.733851,0.747396,0.360344,0.173152,4.29014,1.817363,1.048466,0.349533,0.085458,3.453683,2.914532,0.880943,0.34299,0.110342
1725715981.700695,1725715981.702544,21.0,0.0,4196.666504,4277.179688,4232.820313,4282.179688,4230.384766,4230.384766,4251.025879,4261.794922,4262.436035,4248.077148,4466.410156,4506.025879,4341.666504,4397.179688,3809.0,1.0,15.0,,,,0.0,4.0,4.0,4.0,4.0,4.0,4.0,4.0,4.0,4.0,4.0,4.0,4.0,4.0,4.0,100.0,,,,,,,,,,,,,,,,,,,,,,,,,,,,,,,,,,,,,,,,,,,,,,,,,,,,,,,,,,,,,,,,,,,,,,,,,,,,,,,,,,,,,,,,,,,,,,,,,,,,,,,,,,,,,,,,,,,,,,,,,,,,,,,,,,,
1725715981.7046,1725715981.706448,22.0,0.0,4197.94873,4278.846191,4233.846191,4284.487305,4230.641113,4230.384766,4255.0,4262.820313,4260.384766,4248.077148,4466.666504,4505.897461,4341.538574,4397.179688,2885.0,1.0,15.0,,,,0.0,4.0,4.0,4.0,4.0,4.0,4.0,4.0,4.0,4.0,4.0,4.0,4.0,4.0,4.0,100.0,,,,,,,,,,,,,,,,,,,,,,,,,,,,,,,,,,,,,,,,,,,,,,,,,,,,,,,,,,,,,,,,,,,,,,,,,,,,,,,,,,,,,,,,,,,,,,,,,,,,,,,,,,,,,,,,,,,,,,,,,,,,,,,,,,,
1725715981.708504,1725715981.710352,23.0,0.0,4196.025879,4277.563965,4233.205078,4285.256348,4231.410156,4231.282227,4260.256348,4263.846191,4258.717773,4248.717773,4464.487305,4506.410156,4340.384766,4397.307617,3109.0,1.0,15.0,,,,0.0,4.0,4.0,4.0,4.0,4.0,4.0,4.0,4.0,4.0,4.0,4.0,4.0,4.0,4.0,100.0,,,,,,,,,,,,,,,,,,,,,,,,,,,,,,,,,,,,,,,,,,,,,,,,,,,,,,,,,,,,,,,,,,,,,,,,,,,,,,,,,,,,,,,,,,,,,,,,,,,,,,,,,,,,,,,,,,,,,,,,,,,,,,,,,,,
1725715981.712407,1725715981.714256,24.0,0.0,4191.666504,4273.974121,4230.0,4284.230957,4232.692383,4231.538574,4263.846191,4262.94873,4257.05127,4248.717773,4460.512695,4505.641113,4337.692383,4396.153809,3393.0,1.0,15.0,,,,0.0,4.0,4.0,4.0,4.0,4.0,4.0,4.0,4.0,4.0,4.0,4.0,4.0,4.0,4.0,100.0,,,,,,,,,,,,,,,,,,,,,,,,,,,,,,,,,,,,,,,,,,,,,,,,,,,,,,,,,,,,,,,,,,,,,,,,,,,,,,,,,,,,,,,,,,,,,,,,,,,,,,,,,,,,,,,,,,,,,,,,,,,,,,,,,,,
1725715981.716312,1725715981.71816,25.0,0.0,4186.794922,4269.615234,4224.615234,4282.179688,4233.717773,4229.743652,4263.589844,4259.743652,4254.871582,4246.666504,4456.922852,4503.205078,4333.846191,4393.205078,3809.0,1.0,15.0,,,,0.0,4.0,4.0,4.0,4.0,4.0,4.0,4.0,4.0,4.0,4.0,4.0,4.0,4.0,4.0,100.0,,,,,,,,,,,,,,,,,,,,,,,,,,,,,,,,,,,,,,,,,,,,,,,,,,,,,,,,,,,,,,,,,,,,,,,,,,,,,,,,,,,,,,,,,,,,,,,,,,,,,,,,,,,,,,,,,,,,,,,,,,,,,,,,,,,
1725715981.720216,1725715981.721965,26.0,0.0,4183.461426,4265.0,4219.102539,4279.615234,4233.846191,4225.512695,4259.487305,4255.769043,4252.179688,4242.436035,4455.641113,4499.230957,4330.128418,4388.461426,2885.0,1.0,15.0,,,,0.0,4.0,4.0,4.0,4.0,4.0,4.0,4.0,4.0,4.0,4.0,4.0,4.0,4.0,4.0,100.0,,,,,,,,,,,,,,,,,,,,,,,,,,,,,,,,,,,,,,,,,,,,,,,,,,,,,,,,,,,,,,,,,,,,,,,,,,,,,,,,,,,,,,,,,,,,,,,,,,,,,,,,,,,,,,,,,,,,,,,,,,,,,,,,,,,
1725715981.72412,1725715981.725869,27.0,0.0,4182.05127,4260.128418,4215.384766,4277.05127,4232.94873,4220.512695,4253.461426,4252.307617,4249.871582,4237.820313,4456.282227,4494.487305,4327.179688,4383.077148,3109.0,1.0,15.0,,,,0.0,4.0,4.0,4.0,4.0,4.0,4.0,4.0,4.0,4.0,4.0,4.0,4.0,4.0,4.0,100.0,,,,,,,,,,,,,,,,,,,,,,,,,,,,,,,,,,,,,,,,,,,,,,,,,,,,,,,,,,,,,,,,,,,,,,,,,,,,,,,,,,,,,,,,,,,,,,,,,,,,,,,,,,,,,,,,,,,,,,,,,,,,,,,,,,,
1725715981.728024,1725715981.729773,28.0,0.0,4182.307617,4255.769043,4214.102539,4274.871582,4231.922852,4216.922852,4248.333496,4250.256348,4248.974121,4234.743652,4457.436035,4490.0,4325.128418,4378.461426,3393.0,1.0,15.0,,,,0.0,4.0,4.0,4.0,4.0,4.0,4.0,4.0,4.0,4.0,4.0,4.0,4.0,4.0,4.0,100.0,,,,,,,,,,,,,,,,,,,,,,,,,,,,,,,,,,,,,,,,,,,,,,,,,,,,,,,,0.0,0.0,64.0,0.032267,1.0,0.0,,,,,,,,,,,,,,,,,,,,,,,,,,,,,,,,,,,,,,,,,,,,,,,,,,,,,,,,,,,,,,,,,,,,,,
1725715981.731928,1725715981.733677,29.0,0.0,4183.333496,4253.205078,4214.615234,4273.333496,4231.666504,4216.410156,4246.153809,4249.615234,4249.102539,4234.102539,4457.820313,4487.436035,4323.333496,4376.025879,3809.0,1.0,15.0,,,,0.0,4.0,4.0,4.0,4.0,4.0,4.0,4.0,4.0,4.0,4.0,4.0,4.0,4.0,4.0,100.0,,,,,,,,,,,,,,,,,,,,,,,,,,,,,,,,,,,,,,,,,,,,,,,,,,,,,,,,,,,,,,,,,,,,,,,,,,,,,,,,,,,,,,,,,,,,,,,,,,,,,,,,,,,,,,,,,,,,,,,,,,,,,,,,,,,
1725715981.735832,1725715981.737481,30.0,0.0,4184.743652,4253.589844,4215.769043,4272.692383,4232.179688,4218.205078,4247.179688,4250.256348,4249.615234,4235.256348,4457.563965,4488.846191,4322.179688,4376.666504,2885.0,1.0,15.0,,,,0.0,4.0,4.0,4.0,4.0,4.0,4.0,4.0,4.0,4.0,4.0,4.0,4.0,4.0,4.0,100.0,,,,,,,,,,,,,,,,,,,,,,,,,,,,,,,,,,,,,,,,,,,,,,,,,,,,,,,,,,,,,,,,,,,,,,,,,,,,,,,,,,,,,,,,,,,,,,,,,,,,,,,,,,,,,,,,,,,,,,,,,,,,,,,,,,,
1725715981.739736,1725715981.741385,31.0,0.0,4186.538574,4256.025879,4216.538574,4273.077148,4233.077148,4220.256348,4249.743652,4251.410156,4249.743652,4236.410156,4457.820313,4493.846191,4322.179688,4380.128418,3109.0,1.0,15.0,,,,0.0,4.0,4.0,4.0,4.0,4.0,4.0,4.0,4.0,4.0,4.0,4.0,4.0,4.0,4.0,100.0,,,,,,,,,,,,,,,,,,,,,,,,,,,,,,,,,,,,,,,,,,,,,,,,,,,,,,,,,,,,,,,,,,,,,,,,,,,,,,,,,,,,,,,,,,,,,,,,,,,,,,,,,,,,,,,,,,,,,,,,,,,,,,,,,,,
1725715981.74364,1725715981.745289,32.0,0.0,4187.94873,4258.333496,4216.794922,4274.487305,4233.333496,4220.512695,4251.922852,4252.179688,4249.358887,4236.025879,4458.846191,4499.871582,4323.589844,4384.487305,0.0,1.0,15.0,,,,0.0,4.0,4.0,4.0,4.0,4.0,4.0,4.0,4.0,4.0,4.0,4.0,4.0,4.0,4.0,100.0,,,,,,,,,,,,,,,,,,,,,,,,,,,,,,,,,,,,,,,,,,,,,,,,,,,,,,,,,,,,,,,,,,,,,,,,,,,,,,,,,,,,,,,,,,,,,,,,,,,,,,,,,,,,,,,,,,,,,,,,,,,,,,,,,,,
1725715981.747544,1725715981.749193,33.0,0.0,4188.333496,4257.94873,4216.794922,4275.897461,4232.820313,4218.589844,4252.820313,4251.922852,4248.974121,4234.230957,4460.512695,4504.230957,4325.512695,4387.179688,0.0,1.0,15.0,,,,0.0,4.0,4.0,4.0,4.0,4.0,4.0,4.0,4.0,4.0,4.0,4.0,4.0,4.0,4.0,100.0,,,,,,,,,,,,,,,,,,,,,,,,,,,,,,,,,,,,,,,,,,,,,,,,,,,,,,,,,,,,,,,,,,,,,,,,,,,,,,,,,,,,,,,,,,,,,,,,,,,,,,,,,,,,,,,,,,,,,,,,,,,,,,,,,,,
1725715981.751449,1725715981.752998,34.0,0.0,4187.820313,4254.871582,4216.666504,4276.538574,4232.05127,4216.153809,4252.563965,4250.769043,4248.846191,4232.05127,4461.538574,4506.025879,4326.538574,4386.922852,0.0,1.0,15.0,,,,0.0,4.0,4.0,4.0,4.0,4.0,4.0,4.0,4.0,4.0,4.0,4.0,4.0,4.0,4.0,100.0,,,,,,,,,,,,,,,,,,,,,,,,,,,,,,,,,,,,,,,,,,,,,,,,,,,,,,,,,,,,,,,,,,,,,,,,,,,,,,,,,,,,,,,,,,,,,,,,,,,,,,,,,,,,,,,,,,,,,,,,,,,,,,,,,,,
1725715981.755353,1725715981.756902,35.0,0.0,4187.820313,4250.769043,4216.410156,4276.025879,4231.666504,4214.615234,4251.666504,4249.230957,4248.717773,4231.025879,4461.282227,4505.897461,4326.025879,4384.230957,0.0,1.0,15.0,,,,0.0,4.0,4.0,4.0,4.0,4.0,4.0,4.0,4.0,4.0,4.0,4.0,4.0,4.0,4.0,100.0,,,,,,,,,,,,,,,,,,,,,,,,,,,,,,,,,,,,,,,,,,,,,,,,,,,,,,,,,,,,,,,,,,,,,,,,,,,,,,,,,,,,,,,,,,,,,,,,,,,,,,,,,,,,,,,,,,,,,,,,,,,,,,,,,,,
1725715981.759257,1725715981.760806,36.0,0.0,4189.871582,4247.94873,4216.538574,4274.871582,4231.794922,4214.743652,4250.641113,4248.077148,4248.333496,4231.282227,4460.128418,4505.0,4324.358887,4381.922852,0.0,1.0,15.0,,,,0.0,4.0,4.0,4.0,4.0,4.0,4.0,4.0,4.0,4.0,4.0,4.0,4.0,4.0,4.0,100.0,,,,,,,,,,,,,,,,,,,,,,,,,,,,,,,,,,,,,,,,,,,,,,,,,,,,,,,,0.0,0.0,64.0,0.032267,1.0,0.0,,,,,,,,,,,,,,,,,,,,,,,,,,,,,,,,,,,,,,,,,,,,,,,,,,,,,,,,,,,,,,,,,,,,,,
1725715981.763161,1725715981.76481,37.0,0.0,4194.102539,4247.563965,4217.692383,4274.230957,4232.179688,4215.384766,4249.871582,4248.077148,4247.436035,4232.563965,4458.461426,4504.743652,4322.820313,4383.077148,0.0,1.0,15.0,,,,0.0,4.0,4.0,4.0,4.0,4.0,4.0,4.0,4.0,4.0,4.0,4.0,4.0,4.0,4.0,100.0,,,,,,,,,,,,,,,,,,,,,,,,,,,,,,,,,,,,,,,,,,,,,,,,,,,,,,,,,,,,,,,,,,,,,,,,,,,,,,,,,,,,,,,,,,,,,,,,,,,,,,,,,,,,,,,,,,,,,,,,,,,,,,,,,,,
1725715981.767065,1725715981.768714,38.0,0.0,4198.974121,4248.717773,4220.769043,4274.743652,4232.94873,4215.897461,4249.615234,4249.487305,4246.538574,4233.717773,4457.563965,4506.025879,4322.692383,4388.461426,0.0,1.0,15.0,,,,0.0,4.0,4.0,4.0,4.0,4.0,4.0,4.0,4.0,4.0,4.0,4.0,4.0,4.0,4.0,100.0,,,,,,,,,,,,,,,,,,,,,,,,,,,,,,,,,,,,,,,,,,,,,,,,,,,,,,,,,,,,,,,,,,,,,,,,,,,,,,,,,,,,,,,,,,,,,,,,,,,,,,,,,,,,,,,,,,,,,,,,,,,,,,,,,,,
1725715981.770969,1725715981.772618,39.0,0.0,4202.05127,4250.128418,4225.384766,4276.282227,4233.589844,4216.025879,4249.615234,4252.05127,4246.410156,4234.102539,4458.205078,4509.102539,4324.871582,4395.641113,0.0,1.0,15.0,,,,0.0,4.0,4.0,4.0,4.0,4.0,4.0,4.0,4.0,4.0,4.0,4.0,4.0,4.0,4.0,100.0,,,,,,,,,,,,,,,,,,,,,,,,,,,,,,,,,,,,,,,,,,,,,,,,,,,,,,,,,,,,,,,,,,,,,,,,,,,,,,,,,,,,,,,,,,,,,,,,,,,,,,,,,,,,,,,,,,,,,,,,,,,,,,,,,,,
1725715981.774873,1725715981.776622,40.0,0.0,4201.794922,4250.641113,4229.615234,4277.436035,4233.846191,4216.794922,4249.743652,4255.256348,4247.179688,4233.461426,4460.128418,4512.692383,4327.94873,4400.897461,0.0,1.0,15.0,,,,0.0,4.0,4.0,4.0,4.0,4.0,4.0,4.0,4.0,4.0,4.0,4.0,4.0,4.0,4.0,100.0,,,,,,,,,,,,,,,,,,,,,,,,,,,,,,,,,,,,,,,,,,,,,,,,,,,,,,,,,,,,,,,,,,,,,,,,,,,,,,,,,,,,,,,,,,,,,,,,,,,,,,,,,,,,,,,,,,,,,,,,,,,,,,,,,,,
1725715981.778777,1725715981.780526,41.0,0.0,4198.461426,4250.128418,4231.282227,4276.282227,4233.589844,4217.307617,4249.871582,4258.333496,4248.205078,4232.436035,4461.794922,4514.743652,4329.743652,4401.410156,0.0,1.0,15.0,,,,0.0,4.0,4.0,4.0,4.0,4.0,4.0,4.0,4.0,4.0,4.0,4.0,4.0,4.0,4.0,100.0,,,,,,,,,,,,,,,,,,,,,,,,,,,,,,,,,,,,,,,,,,,,,,,,,,,,,,,,,,,,,,,,,,,,,,,,,,,,,,,,,,,,,,,,,,,,,,,,,,,,,,,,,,,,,,,,,,,,,,,,,,,,,,,,,,,
1725715981.782681,1725715981.78443,42.0,0.0,4193.589844,4249.358887,4229.230957,4272.692383,4232.94873,4216.794922,4249.615234,4260.128418,4249.102539,4231.538574,4461.794922,4514.230957,4328.333496,4397.436035,0.0,1.0,15.0,,,,0.0,4.0,4.0,4.0,4.0,4.0,4.0,4.0,4.0,4.0,4.0,4.0,4.0,4.0,4.0,100.0,,,,,,,,,,,,,,,,,,,,,,,,,,,,,,,,,,,,,,,,,,,,,,,,,,,,,,,,,,,,,,,,,,,,,,,,,,,,,,,,,,,,,,,,,,,,,,,,,,,,,,,,,,,,,,,,,,,,,,,,,,,,,,,,,,,
1725715981.786585,1725715981.788334,43.0,0.0,4188.846191,4248.589844,4224.487305,4268.205078,4231.794922,4214.871582,4248.461426,4260.256348,4249.487305,4231.153809,4459.615234,4512.179688,4324.358887,4391.153809,0.0,1.0,15.0,,,,0.0,4.0,4.0,4.0,4.0,4.0,4.0,4.0,4.0,4.0,4.0,4.0,4.0,4.0,4.0,100.0,,,,,,,,,,,,,,,,,,,,,,,,,,,,,,,,,,,,,,,,,,,,,,,,,,,,,,,,,,,,,,,,,,,,,,,,,,,,,,,,,,,,,,,,,,,,,,,,,,,,,,,,,,,,,,,,,,,,,,,,,,,,,,,,,,,
1725715981.79049,1725715981.792239,44.0,0.0,4184.871582,4247.307617,4219.743652,4265.128418,4230.384766,4213.589844,4246.666504,4259.743652,4249.487305,4231.410156,4456.282227,4509.871582,4320.0,4385.256348,0.0,1.0,15.0,,,,0.0,4.0,4.0,4.0,4.0,4.0,4.0,4.0,4.0,4.0,4.0,4.0,4.0,4.0,4.0,100.0,,,,,,,,,,,,,,,,,,,,,,,,,,,,,,,,,,,,,,,,,,,,,,,,,,,,,,,,0.0,0.0,64.0,0.032267,1.0,0.0,,,,,,,,,,,,,,,,,,,,,,,,,,,,,,,,,,,,,,,,,,,,,,,,,,,,,,,,,,,,,,,,,,,,,,
1725715981.794394,1725715981.796143,45.0,0.0,4181.282227,4245.0,4217.179688,4264.615234,4229.230957,4215.128418,4245.512695,4260.384766,4249.487305,4232.05127,4453.333496,4508.461426,4317.436035,4381.025879,0.0,1.0,15.0,,,,0.0,4.0,4.0,4.0,4.0,4.0,4.0,4.0,4.0,4.0,4.0,4.0,4.0,4.0,4.0,100.0,,,,,,,,,,,,,,,,,,,,,,,,,,,,,,,,,,,,,,,,,,,,,,,,,,,,,,,,,,,,,,,,,,,,,,,,,,,,,,,,,,,,,,,,,,,,,,,,,,,,,,,,,,,,,,,,,,,,,,,,,,,,,,,,,,,
1725715981.798298,1725715981.799947,46.0,0.0,4177.820313,4241.922852,4217.05127,4265.769043,4229.358887,4219.743652,4246.025879,4262.94873,4249.871582,4232.563965,4451.282227,4507.05127,4316.538574,4378.589844,0.0,1.0,15.0,,,,0.0,4.0,4.0,4.0,4.0,4.0,4.0,4.0,4.0,4.0,4.0,4.0,4.0,4.0,4.0,100.0,,,,,,,,,,,,,,,,,,,,,,,,,,,,,,,,,,,,,,,,,,,,,,,,,,,,,,,,,,,,,,,,,,,,,,,,,,,,,,,,,,,,,,,,,,,,,,,,,,,,,,,,,,,,,,,,,,,,,,,,,,,,,,,,,,,
1725715981.802202,1725715981.803851,47.0,0.0,4173.974121,4238.846191,4218.205078,4267.05127,4230.769043,4225.128418,4247.436035,4266.282227,4250.641113,4233.077148,4449.358887,4504.615234,4315.897461,4376.794922,0.0,1.0,15.0,,,,0.0,4.0,4.0,4.0,4.0,4.0,4.0,4.0,4.0,4.0,4.0,4.0,4.0,4.0,4.0,100.0,,,,,,,,,,,,,,,,,,,,,,,,,,,,,,,,,,,,,,,,,,,,,,,,,,,,,,,,,,,,,,,,,,,,,,,,,,,,,,,,,,,,,,,,,,,,,,,,,,,,,,,,,,,,,,,,,,,,,,,,,,,,,,,,,,,
1725715981.806106,1725715981.807855,48.0,0.0,4170.384766,4236.282227,4218.717773,4267.307617,4232.307617,4228.333496,4248.461426,4267.94873,4251.410156,4232.94873,4446.666504,4500.512695,4314.358887,4375.128418,0.0,1.0,15.0,,,,0.0,4.0,4.0,4.0,4.0,4.0,4.0,4.0,4.0,4.0,4.0,4.0,4.0,4.0,4.0,100.0,,,,,,,,,,,,,,,,,,,,,,,,,,,,,,,,,,,,,,,,,,,,,,,,,,,,,,,,,,,,,,,,,,,,,,,,,,,,,,,,,,,,,,,,,,,,,,,,,,,,,,,,,,,,,,,,,,,,,,,,,,,,,,,,,,,
1725715981.81001,1725715981.811759,49.0,0.0,4168.077148,4234.615234,4217.692383,4266.538574,4232.179688,4227.563965,4247.436035,4266.025879,4251.538574,4232.307617,4443.077148,4495.769043,4311.922852,4373.717773,0.0,1.0,15.0,,,,0.0,4.0,4.0,4.0,4.0,4.0,4.0,4.0,4.0,4.0,4.0,4.0,4.0,4.0,4.0,100.0,,,,,,,,,,,,,,,,,,,,,,,,,,,,,,,,,,,,,,,,,,,,,,,,,,,,,,,,,,,,,,,,,,,,,,,,,,,,,,,,,,,,,,,,,,,,,,,,,,,,,,,,,,,,,,,,,,,,,,,,,,,,,,,,,,,
1725715981.813914,1725715981.815663,50.0,0.0,4167.563965,4233.717773,4215.384766,4265.512695,4228.974121,4223.205078,4243.717773,4260.641113,4251.025879,4231.410156,4440.128418,4491.794922,4309.871582,4372.94873,0.0,1.0,15.0,,,,0.0,4.0,4.0,4.0,4.0,4.0,4.0,4.0,4.0,4.0,4.0,4.0,4.0,4.0,4.0,100.0,,,,,,,,,,,,,,,,,,,,,,,,,,,,,,,,,,,,,,,,,,,,,,,,,,,,,,,,,,,,,,,,,,,,,,,,,,,,,,,,,,,,,,,,,,,,,,,,,,,,,,,,,,,,,,,,,,,,,,,,,,,,,,,,,,,
1725715981.817818,1725715981.819567,51.0,0.0,4168.461426,4234.230957,4213.333496,4265.128418,4223.461426,4218.333496,4238.461426,4254.615234,4249.871582,4230.769043,4439.102539,4489.615234,4309.102539,4372.692383,0.0,1.0,15.0,,,,0.0,4.0,4.0,4.0,4.0,4.0,4.0,4.0,4.0,4.0,4.0,4.0,4.0,4.0,4.0,100.0,,,,,,,,,,,,,,,,,,,,,,,,,,,,,,,,,,,,,,,,,,,,,,,,,,,,,,,,,,,,,,,,,,,,,,,,,,,,,,,,,,,,,,,,,,,,,,,,,,,,,,,,,,,,,,,,,,,,,,,,,,,,,,,,,,,
1725715981.821722,1725715981.823471,52.0,0.0,4169.487305,4236.922852,4212.94873,4265.512695,4218.333496,4216.153809,4233.717773,4250.512695,4248.589844,4230.384766,4439.871582,4489.230957,4310.128418,4372.563965,0.0,1.0,15.0,,,,0.0,4.0,4.0,4.0,4.0,4.0,4.0,4.0,4.0,4.0,4.0,4.0,4.0,4.0,4.0,100.0,1.0,91.666664,4.0,4.0,3.0,4.0,4.0,4.0,4.0,4.0,4.0,4.0,4.0,4.0,4.0,4.0,1.0,0.0,0.0,,,,,,,,,,,,,,,,,,,,,,,,,,,,,,,,,,,,,0.0,0.0,1.0,0.0,1.0,0.0,9.883569,2.104513,1.399703,0.17022,0.061614,2.40836,1.306814,0.389444,0.133685,0.080975,3.161323,0.866415,0.225895,0.086596,0.087047,0.728019,2.075846,0.369799,0.132932,0.063637,0.48231,0.369013,0.230025,0.082721,0.046716,0.414296,0.309611,0.151512,0.08026,0.042457,2.103332,0.913743,0.195288,0.144348,0.043985,0.59505,0.468827,0.185051,0.167348,0.168292,1.201011,0.542754,0.675052,0.207897,0.126128,1.959778,0.7416,0.642425,0.293492,0.083387,3.495149,2.087868,1.07485,0.469471,0.158638,3.34152,3.57092,0.798787,0.388328,0.175483,4.30408,1.75592,1.015329,0.363444,0.093519,3.378657,2.776221,0.838503,0.345563,0.110939
1725715981.825626,1725715981.827276,53.0,0.0,4170.0,4241.538574,4214.102539,4266.025879,4216.538574,4217.436035,4231.282227,4249.615234,4247.820313,4230.128418,4441.025879,4489.487305,4312.820313,4372.436035,0.0,1.0,15.0,,,,0.0,4.0,4.0,4.0,4.0,4.0,4.0,4.0,4.0,4.0,4.0,4.0,4.0,4.0,4.0,100.0,,,,,,,,,,,,,,,,,,,,,,,,,,,,,,,,,,,,,,,,,,,,,,,,,,,,,,,,,,,,,,,,,,,,,,,,,,,,,,,,,,,,,,,,,,,,,,,,,,,,,,,,,,,,,,,,,,,,,,,,,,,,,,,,,,,
1725715981.829531,1725715981.83118,54.0,0.0,4169.743652,4246.025879,4215.641113,4266.666504,4219.230957,4220.128418,4231.153809,4250.769043,4247.563965,4229.871582,4441.538574,4489.615234,4316.922852,4372.692383,0.0,1.0,15.0,,,,0.0,4.0,4.0,4.0,4.0,4.0,4.0,4.0,4.0,4.0,4.0,4.0,4.0,4.0,4.0,100.0,,,,,,,,,,,,,,,,,,,,,,,,,,,,,,,,,,,,,,,,,,,,,,,,,,,,,,,,,,,,,,,,,,,,,,,,,,,,,,,,,,,,,,,,,,,,,,,,,,,,,,,,,,,,,,,,,,,,,,,,,,,,,,,,,,,
1725715981.833435,1725715981.835084,55.0,0.0,4169.358887,4248.717773,4216.410156,4267.820313,4224.743652,4221.538574,4232.179688,4251.538574,4247.820313,4230.256348,4442.307617,4490.256348,4321.922852,4374.230957,0.0,1.0,15.0,,,,0.0,4.0,4.0,4.0,4.0,4.0,4.0,4.0,4.0,4.0,4.0,4.0,4.0,4.0,4.0,100.0,,,,,,,,,,,,,,,,,,,,,,,,,,,,,,,,,,,,,,,,,,,,,,,,,,,,,,,,,,,,,,,,,,,,,,,,,,,,,,,,,,,,,,,,,,,,,,,,,,,,,,,,,,,,,,,,,,,,,,,,,,,,,,,,,,,
1725715981.837339,1725715981.838988,56.0,0.0,4169.871582,4248.974121,4216.666504,4270.641113,4230.0,4220.769043,4233.077148,4250.769043,4248.205078,4231.922852,4445.0,4493.077148,4327.179688,4377.692383,0.0,1.0,15.0,,,,0.0,4.0,4.0,4.0,4.0,4.0,4.0,4.0,4.0,4.0,4.0,4.0,4.0,4.0,4.0,100.0,,,,,,,,,,,,,,,,,,,,,,,,,,,,,,,,,,,,,,,,,,,,,,,,,,,,,,,,,,,,,,,,,,,,,,,,,,,,,,,,,,,,,,,,,,,,,,,,,,,,,,,,,,,,,,,,,,,,,,,,,,,,,,,,,,,
1725715981.841243,1725715981.842792,57.0,0.0,4172.179688,4248.333496,4217.563965,4275.384766,4233.205078,4219.615234,4233.717773,4248.717773,4248.589844,4235.512695,4450.256348,4498.846191,4331.794922,4382.94873,0.0,1.0,15.0,,,,0.0,4.0,4.0,4.0,4.0,4.0,4.0,4.0,4.0,4.0,4.0,4.0,4.0,4.0,4.0,100.0,,,,,,,,,,,,,,,,,,,,,,,,,,,,,,,,,,,,,,,,,,,,,,,,,,,,,,,,,,,,,,,,,,,,,,,,,,,,,,,,,,,,,,,,,,,,,,,,,,,,,,,,,,,,,,,,,,,,,,,,,,,,,,,,,,,
1725715981.845147,1725715981.846696,58.0,0.0,4176.538574,4248.974121,4220.0,4280.256348,4233.846191,4220.256348,4234.230957,4246.794922,4249.230957,4240.512695,4456.153809,4505.512695,4334.871582,4388.589844,0.0,1.0,15.0,,,,0.0,4.0,4.0,4.0,4.0,4.0,4.0,4.0,4.0,4.0,4.0,4.0,4.0,4.0,4.0,100.0,,,,,,,,,,,,,,,,,,,,,,,,,,,,,,,,,,,,,,,,,,,,,,,,,,,,,,,,,,,,,,,,,,,,,,,,,,,,,,,,,,,,,,,,,,,,,,,,,,,,,,,,,,,,,,,,,,,,,,,,,,,,,,,,,,,
1725715981.849051,1725715981.8506,59.0,0.0,4180.512695,4251.410156,4223.333496,4282.307617,4232.692383,4223.077148,4234.743652,4246.025879,4250.128418,4245.128418,4459.743652,4509.615234,4336.025879,4392.179688,0.0,1.0,15.0,,,,0.0,4.0,4.0,4.0,4.0,4.0,4.0,4.0,4.0,4.0,4.0,4.0,4.0,4.0,4.0,100.0,,,,,,,,,,,,,,,,,,,,,,,,,,,,,,,,,,,,,,,,,,,,,,,,,,,,,,,,,,,,,,,,,,,,,,,,,,,,,,,,,,,,,,,,,,,,,,,,,,,,,,,,,,,,,,,,,,,,,,,,,,,,,,,,,,,
1725715981.852955,1725715981.854504,60.0,0.0,4180.512695,4254.487305,4226.153809,4280.384766,4230.641113,4225.897461,4234.487305,4246.282227,4250.897461,4247.692383,4458.461426,4508.077148,4335.384766,4392.179688,0.0,1.0,15.0,,,,0.0,4.0,4.0,4.0,4.0,4.0,4.0,4.0,4.0,4.0,4.0,4.0,4.0,4.0,4.0,100.0,,,,,,,,,,,,,,,,,,,,,,,,,,,,,,,,,,,,,,,,,,,,,,,,,,,,,,,,0.0,0.0,1.0,0.0,1.0,0.0,,,,,,,,,,,,,,,,,,,,,,,,,,,,,,,,,,,,,,,,,,,,,,,,,,,,,,,,,,,,,,,,,,,,,,
1725715981.856859,1725715981.858309,61.0,0.0,4173.461426,4256.666504,4226.538574,4276.410156,4228.077148,4226.153809,4233.461426,4246.410156,4250.897461,4247.692383,4452.820313,4501.282227,4333.717773,4388.589844,0.0,1.0,15.0,,,,0.0,4.0,4.0,4.0,4.0,4.0,4.0,4.0,4.0,4.0,4.0,4.0,4.0,4.0,4.0,100.0,,,,,,,,,,,,,,,,,,,,,,,,,,,,,,,,,,,,,,,,,,,,,,,,,,,,,,,,,,,,,,,,,,,,,,,,,,,,,,,,,,,,,,,,,,,,,,,,,,,,,,,,,,,,,,,,,,,,,,,,,,,,,,,,,,,
1725715981.860763,1725715981.862213,62.0,0.0,4159.230957,4256.410156,4224.615234,4273.717773,4225.769043,4223.333496,4232.692383,4245.512695,4250.0,4246.410156,4445.897461,4493.333496,4332.436035,4383.333496,0.0,1.0,15.0,,,,0.0,4.0,4.0,4.0,4.0,4.0,4.0,4.0,4.0,4.0,4.0,4.0,4.0,4.0,4.0,100.0,,,,,,,,,,,,,,,,,,,,,,,,,,,,,,,,,,,,,,,,,,,,,,,,,,,,,,,,,,,,,,,,,,,,,,,,,,,,,,,,,,,,,,,,,,,,,,,,,,,,,,,,,,,,,,,,,,,,,,,,,,,,,,,,,,,
1725715981.864668,1725715981.866117,63.0,0.0,4141.794922,4253.717773,4221.538574,4274.230957,4223.846191,4219.615234,4234.358887,4244.358887,4249.102539,4245.384766,4441.538574,4488.205078,4332.307617,4378.974121,0.0,1.0,15.0,,,,0.0,4.0,4.0,4.0,4.0,4.0,4.0,4.0,4.0,4.0,4.0,4.0,4.0,4.0,4.0,100.0,,,,,,,,,,,,,,,,,,,,,,,,,,,,,,,,,,,,,,,,,,,,,,,,,,,,,,,,,,,,,,,,,,,,,,,,,,,,,,,,,,,,,,,,,,,,,,,,,,,,,,,,,,,,,,,,,,,,,,,,,,,,,,,,,,,
1725715981.868572,1725715981.870121,64.0,0.0,4126.538574,4250.128418,4219.102539,4276.538574,4222.563965,4217.436035,4238.717773,4244.743652,4249.102539,4245.0,4441.666504,4487.307617,4333.077148,4377.179688,0.0,1.0,15.0,,,,0.0,4.0,4.0,4.0,4.0,4.0,4.0,4.0,4.0,4.0,4.0,4.0,4.0,4.0,4.0,100.0,,,,,,,,,,,,,,,,,,,,,,,,,,,,,,,,,,,,,,,,,,,,,,,,,,,,,,,,,,,,,,,,,,,,,,,,,,,,,,,,,,,,,,,,,,,,,,,,,,,,,,,,,,,,,,,,,,,,,,,,,,,,,,,,,,,
1725715981.872476,1725715981.874025,65.0,0.0,4117.692383,4247.94873,4218.077148,4277.94873,4222.179688,4217.436035,4244.230957,4248.077148,4249.871582,4244.230957,4444.487305,4489.487305,4333.333496,4378.077148,0.0,1.0,15.0,,,,0.0,4.0,4.0,4.0,4.0,4.0,4.0,4.0,4.0,4.0,4.0,4.0,4.0,4.0,4.0,100.0,,,,,,,,,,,,,,,,,,,,,,,,,,,,,,,,,,,,,,,,,,,,,,,,,,,,,,,,,,,,,,,,,,,,,,,,,,,,,,,,,,,,,,,,,,,,,,,,,,,,,,,,,,,,,,,,,,,,,,,,,,,,,,,,,,,
1725715981.87638,1725715981.877929,66.0,0.0,4115.769043,4247.436035,4218.205078,4276.025879,4222.179688,4218.461426,4247.179688,4253.846191,4251.025879,4242.179688,4446.794922,4492.05127,4332.563965,4380.0,0.0,1.0,15.0,,,,0.0,4.0,4.0,4.0,4.0,4.0,4.0,4.0,4.0,4.0,4.0,4.0,4.0,4.0,4.0,100.0,,,,,,,,,,,,,,,,,,,,,,,,,,,,,,,,,,,,,,,,,,,,,,,,,,,,,,,,,,,,,,,,,,,,,,,,,,,,,,,,,,,,,,,,,,,,,,,,,,,,,,,,,,,,,,,,,,,,,,,,,,,,,,,,,,,
1725715981.880284,1725715981.881933,67.0,0.0,4118.717773,4247.436035,4218.589844,4271.410156,4221.538574,4219.230957,4245.384766,4260.0,4252.436035,4238.974121,4446.922852,4493.333496,4331.538574,4381.025879,0.0,1.0,15.0,,,,0.0,4.0,4.0,4.0,4.0,4.0,4.0,4.0,4.0,4.0,4.0,4.0,4.0,4.0,4.0,100.0,,,,,,,,,,,,,,,,,,,,,,,,,,,,,,,,,,,,,,,,,,,,,,,,,,,,,,,,,,,,,,,,,,,,,,,,,,,,,,,,,,,,,,,,,,,,,,,,,,,,,,,,,,,,,,,,,,,,,,,,,,,,,,,,,,,
1725715981.884188,1725715981.885837,68.0,0.0,4123.077148,4246.666504,4218.717773,4266.410156,4219.615234,4218.717773,4239.743652,4264.487305,4254.358887,4235.512695,4445.384766,4493.461426,4332.179688,4380.897461,0.0,1.0,15.0,,,,0.0,4.0,4.0,4.0,4.0,4.0,4.0,4.0,4.0,4.0,4.0,4.0,4.0,4.0,4.0,100.0,,,,,,,,,,,,,,,,,,,,,,,,,,,,,,,,,,,,,,,,,,,,,,,,,,,,,,,,0.0,0.0,1.0,0.0,1.0,0.0,,,,,,,,,,,,,,,,,,,,,,,,,,,,,,,,,,,,,,,,,,,,,,,,,,,,,,,,,,,,,,,,,,,,,,
1725715981.888092,1725715981.889741,69.0,0.0,4126.666504,4245.256348,4218.461426,4263.717773,4217.179688,4217.436035,4233.974121,4266.538574,4256.922852,4233.461426,4444.230957,4493.205078,4335.256348,4380.769043,0.0,1.0,15.0,,,,0.0,4.0,4.0,4.0,4.0,4.0,4.0,4.0,4.0,4.0,4.0,4.0,4.0,4.0,4.0,100.0,,,,,,,,,,,,,,,,,,,,,,,,,,,,,,,,,,,,,,,,,,,,,,,,,,,,,,,,,,,,,,,,,,,,,,,,,,,,,,,,,,,,,,,,,,,,,,,,,,,,,,,,,,,,,,,,,,,,,,,,,,,,,,,,,,,
1725715981.891996,1725715981.893645,70.0,0.0,4129.358887,4244.743652,4218.333496,4263.717773,4216.153809,4216.410156,4231.153809,4266.538574,4259.358887,4233.846191,4445.128418,4493.077148,4339.230957,4381.538574,0.0,1.0,15.0,,,,0.0,4.0,4.0,4.0,4.0,4.0,4.0,4.0,4.0,4.0,4.0,4.0,4.0,4.0,4.0,100.0,,,,,,,,,,,,,,,,,,,,,,,,,,,,,,,,,,,,,,,,,,,,,,,,,,,,,,,,,,,,,,,,,,,,,,,,,,,,,,,,,,,,,,,,,,,,,,,,,,,,,,,,,,,,,,,,,,,,,,,,,,,,,,,,,,,
1725715981.8959,1725715981.897549,71.0,0.0,4132.307617,4246.666504,4218.589844,4265.384766,4217.179688,4216.922852,4231.922852,4265.0,4260.256348,4235.641113,4447.563965,4492.692383,4342.05127,4383.461426,0.0,1.0,15.0,,,,0.0,4.0,4.0,4.0,4.0,4.0,4.0,4.0,4.0,4.0,4.0,4.0,4.0,4.0,4.0,100.0,,,,,,,,,,,,,,,,,,,,,,,,,,,,,,,,,,,,,,,,,,,,,,,,,,,,,,,,,,,,,,,,,,,,,,,,,,,,,,,,,,,,,,,,,,,,,,,,,,,,,,,,,,,,,,,,,,,,,,,,,,,,,,,,,,,
1725715981.899804,1725715981.901454,72.0,0.0,4136.282227,4250.897461,4218.974121,4266.410156,4219.487305,4218.717773,4234.615234,4262.94873,4259.230957,4236.666504,4449.358887,4491.922852,4342.307617,4386.153809,0.0,1.0,15.0,,,,0.0,4.0,4.0,4.0,4.0,4.0,4.0,4.0,4.0,4.0,4.0,4.0,4.0,4.0,4.0,100.0,,,,,,,,,,,,,,,,,,,,,,,,,,,,,,,,,,,,,,,,,,,,,,,,,,,,,,,,,,,,,,,,,,,,,,,,,,,,,,,,,,,,,,,,,,,,,,,,,,,,,,,,,,,,,,,,,,,,,,,,,,,,,,,,,,,
1725715981.903709,1725715981.905258,73.0,0.0,4141.282227,4255.897461,4219.487305,4266.282227,4221.153809,4220.384766,4237.179688,4261.666504,4256.666504,4235.512695,4448.974121,4491.666504,4340.769043,4388.461426,0.0,1.0,15.0,,,,0.0,4.0,4.0,4.0,4.0,4.0,4.0,4.0,4.0,4.0,4.0,4.0,4.0,4.0,4.0,100.0,,,,,,,,,,,,,,,,,,,,,,,,,,,,,,,,,,,,,,,,,,,,,,,,,,,,,,,,,,,,,,,,,,,,,,,,,,,,,,,,,,,,,,,,,,,,,,,,,,,,,,,,,,,,,,,,,,,,,,,,,,,,,,,,,,,
1725715981.907613,1725715981.909162,74.0,0.0,4146.282227,4259.871582,4220.256348,4265.897461,4220.769043,4220.128418,4238.717773,4261.922852,4254.615234,4232.820313,4447.436035,4493.461426,4339.615234,4390.512695,0.0,1.0,15.0,,,,0.0,4.0,4.0,4.0,4.0,4.0,4.0,4.0,4.0,4.0,4.0,4.0,4.0,4.0,4.0,100.0,,,,,,,,,,,,,,,,,,,,,,,,,,,,,,,,,,,,,,,,,,,,,,,,,,,,,,,,,,,,,,,,,,,,,,,,,,,,,,,,,,,,,,,,,,,,,,,,,,,,,,,,,,,,,,,,,,,,,,,,,,,,,,,,,,,
1725715981.911517,1725715981.913166,75.0,0.0,4150.128418,4261.794922,4221.794922,4266.410156,4219.487305,4217.94873,4239.871582,4263.717773,4254.871582,4230.897461,4447.179688,4497.820313,4340.512695,4392.692383,0.0,1.0,15.0,,,,0.0,4.0,4.0,4.0,4.0,4.0,4.0,4.0,4.0,4.0,4.0,4.0,4.0,4.0,4.0,100.0,,,,,,,,,,,,,,,,,,,,,,,,,,,,,,,,,,,,,,,,,,,,,,,,,,,,,,,,,,,,,,,,,,,,,,,,,,,,,,,,,,,,,,,,,,,,,,,,,,,,,,,,,,,,,,,,,,,,,,,,,,,,,,,,,,,
1725715981.915421,1725715981.91707,76.0,0.0,4152.563965,4262.436035,4224.487305,4268.717773,4219.743652,4215.897461,4242.307617,4265.128418,4257.692383,4232.05127,4449.102539,4503.589844,4343.974121,4395.512695,0.0,1.0,15.0,,,,0.0,4.0,4.0,4.0,4.0,4.0,4.0,4.0,4.0,4.0,4.0,4.0,4.0,4.0,4.0,100.0,,,,,,,,,,,,,,,,,,,,,,,,,,,,,,,,,,,,,,,,,,,,,,,,,,,,,,,,0.0,0.0,1.0,0.0,1.0,0.0,,,,,,,,,,,,,,,,,,,,,,,,,,,,,,,,,,,,,,,,,,,,,,,,,,,,,,,,,,,,,,,,,,,,,,
1725715981.919325,1725715981.920974,77.0,0.0,4153.974121,4262.563965,4227.820313,4272.692383,4223.333496,4216.153809,4246.538574,4264.102539,4261.666504,4236.666504,4452.05127,4507.94873,4348.717773,4398.717773,0.0,1.0,15.0,,,,0.0,4.0,4.0,4.0,4.0,4.0,4.0,4.0,4.0,4.0,4.0,4.0,4.0,4.0,4.0,100.0,,,,,,,,,,,,,,,,,,,,,,,,,,,,,,,,,,,,,,,,,,,,,,,,,,,,,,,,,,,,,,,,,,,,,,,,,,,,,,,,,,,,,,,,,,,,,,,,,,,,,,,,,,,,,,,,,,,,,,,,,,,,,,,,,,,
1725715981.923229,1725715981.924878,78.0,0.0,4155.0,4262.820313,4230.897461,4276.666504,4228.974121,4219.487305,4251.153809,4259.871582,4264.615234,4242.563965,4453.717773,4508.974121,4352.563965,4401.025879,0.0,1.0,15.0,,,,0.0,4.0,4.0,4.0,4.0,4.0,4.0,4.0,4.0,4.0,4.0,4.0,4.0,4.0,4.0,100.0,,,,,,,,,,,,,,,,,,,,,,,,,,,,,,,,,,,,,,,,,,,,,,,,,,,,,,,,,,,,,,,,,,,,,,,,,,,,,,,,,,,,,,,,,,,,,,,,,,,,,,,,,,,,,,,,,,,,,,,,,,,,,,,,,,,
1725715981.927133,1725715981.928782,79.0,0.0,4155.128418,4263.205078,4232.820313,4278.717773,4233.461426,4224.871582,4253.717773,4253.717773,4265.512695,4246.922852,4453.077148,4507.179688,4354.230957,4401.666504,0.0,1.0,15.0,,,,0.0,4.0,4.0,4.0,4.0,4.0,4.0,4.0,4.0,4.0,4.0,4.0,4.0,4.0,4.0,100.0,,,,,,,,,,,,,,,,,,,,,,,,,,,,,,,,,,,,,,,,,,,,,,,,,,,,,,,,,,,,,,,,,,,,,,,,,,,,,,,,,,,,,,,,,,,,,,,,,,,,,,,,,,,,,,,,,,,,,,,,,,,,,,,,,,,
1725715981.931037,1725715981.932586,80.0,0.0,4154.230957,4263.846191,4233.589844,4277.820313,4234.102539,4230.256348,4253.333496,4248.333496,4264.358887,4248.589844,4451.153809,4504.615234,4353.589844,4400.641113,0.0,1.0,15.0,,,,0.0,4.0,4.0,4.0,4.0,4.0,4.0,4.0,4.0,4.0,4.0,4.0,4.0,4.0,4.0,100.0,,,,,,,,,,,,,,,,,,,,,,,,,,,,,,,,,,,,,,,,,,,,,,,,,,,,,,,,,,,,,,,,,,,,,,,,,,,,,,,,,,,,,,,,,,,,,,,,,,,,,,,,,,,,,,,,,,,,,,,,,,,,,,,,,,,
1725715981.934941,1725715981.936491,81.0,0.0,4152.94873,4264.102539,4233.717773,4274.487305,4230.769043,4233.077148,4251.153809,4246.025879,4262.563965,4248.461426,4450.512695,4503.461426,4351.538574,4399.230957,0.0,1.0,15.0,,,,0.0,4.0,4.0,4.0,4.0,4.0,4.0,4.0,4.0,4.0,4.0,4.0,4.0,4.0,4.0,100.0,,,,,,,,,,,,,,,,,,,,,,,,,,,,,,,,,,,,,,,,,,,,,,,,,,,,,,,,,,,,,,,,,,,,,,,,,,,,,,,,,,,,,,,,,,,,,,,,,,,,,,,,,,,,,,,,,,,,,,,,,,,,,,,,,,,
