Timestamp,OriginalTimestamp,EEG.Counter,EEG.Interpolated,EEG.AF3,EEG.F7,EEG.F3,EEG.FC5,EEG.T7,EEG.P7,EEG.O1,EEG.O2,EEG.P8,EEG.T8,EEG.FC6,EEG.F4,EEG.F8,EEG.AF4,EEG.RawCq,EEG.Battery,EEG.BatteryPercent,MarkerIndex,MarkerType,MarkerValueInt,EEG.MarkerHardware,CQ.AF3,CQ.F7,CQ.F3,CQ.FC5,CQ.T7,CQ.P7,CQ.O1,CQ.O2,CQ.P8,CQ.T8,CQ.FC6,CQ.F4,CQ.F8,CQ.AF4,CQ.Overall,EQ.SampleRateQuality,EQ.OVERALL,EQ.AF3,EQ.F7,EQ.F3,EQ.FC5,EQ.T7,EQ.P7,EQ.O1,EQ.O2,EQ.P8,EQ.T8,EQ.FC6,EQ.F4,EQ.F8,EQ.AF4,MC.Action,MC.ActionPower,MC.IsActive,PM.Attention.IsActive,PM.Attention.Scaled,PM.Attention.Raw,PM.Attention.Min,PM.Attention.Max,PM.Engagement.IsActive,PM.Engagement.Scaled,PM.Engagement.Raw,PM.Engagement.Min,PM.Engagement.Max,PM.Excitement.IsActive,PM.Excitement.Scaled,PM.Excitement.Raw,PM.Excitement.Min,PM.Excitement.Max,PM.LongTermExcitement,PM.Stress.IsActive,PM.Stress.Scaled,PM.Stress.Raw,PM.Stress.Min,PM.Stress.Max,PM.Relaxation.IsActive,PM.Relaxation.Scaled,PM.Relaxation.Raw,PM.Relaxation.Min,PM.Relaxation.Max,PM.Interest.IsActive,PM.Interest.Scaled,PM.Interest.Raw,PM.Interest.Min,PM.Interest.Max,PM.Focus.IsActive,PM.Focus.Scaled,PM.Focus.Raw,PM.Focus.Min,PM.Focus.Max,FE.BlinkWink,FE.HorizontalEyesDirection,FE.UpperFaceAction,FE.UpperFaceActionPower,FE.LowerFaceAction,FE.LowerFaceActionPower,POW.AF3.Theta,POW.AF3.Alpha,POW.AF3.BetaL,POW.AF3.BetaH,POW.AF3.Gamma,POW.F7.Theta,POW.F7.Alpha,POW.F7.BetaL,POW.F7.BetaH,POW.F7.Gamma,POW.F3.Theta,POW.F3.Alpha,POW.F3.BetaL,POW.F3.BetaH,POW.F3.Gamma,POW.FC5.Theta,POW.FC5.Alpha,POW.FC5.BetaL,POW.FC5.BetaH,POW.FC5.Gamma,POW.T7.Theta,POW.T7.Alpha,POW.T7.BetaL,POW.T7.BetaH,POW.T7.Gamma,POW.P7.Theta,POW.P7.Alpha,POW.P7.BetaL,POW.P7.BetaH,POW.P7.Gamma,POW.O1.Theta,POW.O1.Alpha,POW.O1.BetaL,POW.O1.BetaH,POW.O1.Gamma,POW.O2.Theta,POW.O2.Alpha,POW.O2.BetaL,POW.O2.BetaH,POW.O2.Gamma,POW.P8.Theta,POW.P8.Alpha,POW.P8.BetaL,POW.P8.BetaH,POW.P8.Gamma,POW.T8.Theta,POW.T8.Alpha,POW.T8.BetaL,POW.T8.BetaH,POW.T8.Gamma,POW.FC6.Theta,POW.FC6.Alpha,POW.FC6.BetaL,POW.FC6.BetaH,POW.FC6.Gamma,POW.F4.Theta,POW.F4.Alpha,POW.F4.BetaL,POW.F4.BetaH,POW.F4.Gamma,POW.F8.Theta,POW.F8.Alpha,POW.F8.BetaL,POW.F8.BetaH,POW.F8.Gamma,POW.AF4.Theta,POW.AF4.Alpha,POW.AF4.BetaL,POW.AF4.BetaH,POW.AF4.Gamma
1725717316.804847,1725717316.806001,236.0,0.0,4317.179688,4280.769043,4279.871582,4316.025879,4231.922852,4182.94873,4055.769287,4246.153809,4262.436035,4250.0,4520.0,4538.461426,4401.410156,4443.974121,3391.0,0.0,11.0,13.0,1.0,1.0,0.0,4.0,4.0,4.0,4.0,4.0,4.0,4.0,4.0,4.0,4.0,4.0,4.0,4.0,4.0,100.0,,,,,,,,,,,,,,,,,,,,,,,,,,,,,,,,,,,,,,,,,,,,,,,,,,,,,,,,0.0,0.0,1.0,0.0,1.0,0.0,,,,,,,,,,,,,,,,,,,,,,,,,,,,,,,,,,,,,,,,,,,,,,,,,,,,,,,,,,,,,,,,,,,,,,
1725717316.808751,1725717316.810005,237.0,0.0,4315.897461,4278.589844,4279.615234,4316.538574,4233.589844,4185.0,4058.589844,4247.436035,4262.179688,4248.333496,4519.871582,4535.128418,4399.743652,4441.922852,3887.0,0.0,11.0,,,,0.0,4.0,4.0,4.0,4.0,4.0,4.0,4.0,4.0,4.0,4.0,4.0,4.0,4.0,4.0,100.0,,,,,,,,,,,,,,,,,,,,,,,,,,,,,,,,,,,,,,,,,,,,,,,,,,,,,,,,,,,,,,,,,,,,,,,,,,,,,,,,,,,,,,,,,,,,,,,,,,,,,,,,,,,,,,,,,,,,,,,,,,,,,,,,,,,
1725717316.812655,1725717316.813909,238.0,0.0,4316.282227,4279.358887,4281.153809,4318.077148,4235.384766,4185.769043,4060.0,4249.615234,4263.589844,4249.358887,4521.025879,4535.128418,4395.0,4441.922852,2870.0,0.0,11.0,,,,0.0,4.0,4.0,4.0,4.0,4.0,4.0,4.0,4.0,4.0,4.0,4.0,4.0,4.0,4.0,100.0,,,,,,,,,,,,,,,,,,,,,,,,,,,,,,,,,,,,,,,,,,,,,,,,,,,,,,,,,,,,,,,,,,,,,,,,,,,,,,,,,,,,,,,,,,,,,,,,,,,,,,,,,,,,,,,,,,,,,,,,,,,,,,,,,,,
1725717316.816559,1725717316.817813,239.0,0.0,4317.563965,4281.666504,4282.94873,4319.871582,4236.025879,4185.512695,4060.128174,4251.666504,4265.128418,4250.769043,4522.94873,4537.436035,4388.846191,4442.94873,3132.0,0.0,11.0,,,,0.0,4.0,4.0,4.0,4.0,4.0,4.0,4.0,4.0,4.0,4.0,4.0,4.0,4.0,4.0,100.0,,,,,,,,,,,,,,,,,,,,,,,,,,,,,,,,,,,,,,,,,,,,,,,,,,,,,,,,,,,,,,,,,,,,,,,,,,,,,,,,,,,,,,,,,,,,,,,,,,,,,,,,,,,,,,,,,,,,,,,,,,,,,,,,,,,
1725717316.820463,1725717316.821717,240.0,0.0,4319.102539,4283.077148,4283.589844,4320.897461,4235.512695,4185.384766,4059.743652,4252.307617,4265.384766,4250.769043,4523.846191,4540.0,4384.230957,4444.230957,3391.0,0.0,11.0,,,,0.0,4.0,4.0,4.0,4.0,4.0,4.0,4.0,4.0,4.0,4.0,4.0,4.0,4.0,4.0,100.0,,,,,,,,,,,,,,,,,,,,,,,,,,,,,,,,,,,,,,,,,,,,,,,,,,,,,,,,,,,,,,,,,,,,,,,,,,,,,,,,,,,,,,,,,,,,,,,,,,,,,,,,,,,,,,,,,,,,,,,,,,,,,,,,,,,
1725717316.824367,1725717316.825621,241.0,0.0,4320.641113,4282.692383,4282.820313,4320.512695,4234.871582,4186.153809,4059.743652,4250.769043,4264.487305,4249.102539,4521.666504,4540.769043,4383.589844,4444.871582,3887.0,0.0,11.0,,,,0.0,4.0,4.0,4.0,4.0,4.0,4.0,4.0,4.0,4.0,4.0,4.0,4.0,4.0,4.0,100.0,,,,,,,,,,,,,,,,,,,,,,,,,,,,,,,,,,,,,,,,,,,,,,,,,,,,,,,,,,,,,,,,,,,,,,,,,,,,,,,,,,,,,,,,,,,,,,,,,,,,,,,,,,,,,,,,,,,,,,,,,,,,,,,,,,,
1725717316.828271,1725717316.829426,242.0,0.0,4322.05127,4281.025879,4282.05127,4318.589844,4234.743652,4187.307617,4060.641113,4248.205078,4263.205078,4247.436035,4516.025879,4539.487305,4387.307617,4444.358887,2870.0,0.0,11.0,,,,0.0,4.0,4.0,4.0,4.0,4.0,4.0,4.0,4.0,4.0,4.0,4.0,4.0,4.0,4.0,100.0,,,,,,,,,,,,,,,,,,,,,,,,,,,,,,,,,,,,,,,,,,,,,,,,,,,,,,,,,,,,,,,,,,,,,,,,,,,,,,,,,,,,,,,,,,,,,,,,,,,,,,,,,,,,,,,,,,,,,,,,,,,,,,,,,,,
1725717316.832175,1725717316.83333,243.0,0.0,4323.589844,4280.256348,4282.94873,4316.794922,4234.743652,4187.563965,4061.794922,4247.05127,4262.94873,4247.179688,4509.358887,4537.820313,4393.333496,4443.077148,3132.0,0.0,11.0,,,,0.0,4.0,4.0,4.0,4.0,4.0,4.0,4.0,4.0,4.0,4.0,4.0,4.0,4.0,4.0,100.0,,,,,,,,,,,,,,,,,,,,,,,,,,,,,,,,,,,,,,,,,,,,,,,,,,,,,,,,,,,,,,,,,,,,,,,,,,,,,,,,,,,,,,,,,,,,,,,,,,,,,,,,,,,,,,,,,,,,,,,,,,,,,,,,,,,
1725717316.836079,1725717316.837234,244.0,0.0,4325.512695,4282.436035,4286.025879,4316.666504,4234.102539,4186.666504,4062.692383,4249.358887,4264.102539,4248.461426,4504.871582,4537.94873,4398.461426,4442.563965,3391.0,0.0,11.0,,,,0.0,4.0,4.0,4.0,4.0,4.0,4.0,4.0,4.0,4.0,4.0,4.0,4.0,4.0,4.0,100.0,,,,,,,,,,,,,,,,,1.0,0.0,0.0,,,,,,,,,,,,,,,,,,,,,,,,,,,,,,,,,,,,,0.0,0.0,1.0,0.0,1.0,0.0,2.253003,2.027808,1.307027,0.330806,0.101091,1.982183,1.830727,1.360071,0.246231,0.161636,1.964459,1.566699,1.009173,0.249716,0.093555,4.529498,2.003026,1.380408,0.448772,0.118643,0.624491,1.172847,0.377047,0.119258,0.089739,1.208863,0.873629,0.81,0.227617,0.105554,2.29255,0.771032,0.420248,0.093033,0.057628,1.018911,1.119402,0.589258,0.311354,0.163793,1.561854,1.610907,0.711107,0.296352,0.165705,1.467393,2.078642,1.569917,0.565264,0.165058,2.292426,2.472358,1.736449,0.757619,0.562058,4.165269,4.545859,2.121528,0.942468,0.152469,2.301144,2.849012,2.16751,0.767953,0.241994,2.750682,2.800945,1.604414,0.587896,0.094832
1725717316.839984,1725717316.841038,245.0,0.0,4327.307617,4287.563965,4290.256348,4318.974121,4233.333496,4186.025879,4063.461426,4254.230957,4266.025879,4250.384766,4503.974121,4540.0,4399.743652,4444.102539,3887.0,0.0,11.0,,,,0.0,4.0,4.0,4.0,4.0,4.0,4.0,4.0,4.0,4.0,4.0,4.0,4.0,4.0,4.0,100.0,,,,,,,,,,,,,,,,,,,,,,,,,,,,,,,,,,,,,,,,,,,,,,,,,,,,,,,,,,,,,,,,,,,,,,,,,,,,,,,,,,,,,,,,,,,,,,,,,,,,,,,,,,,,,,,,,,,,,,,,,,,,,,,,,,,
1725717316.843888,1725717316.844942,246.0,0.0,4328.333496,4292.94873,4293.717773,4322.820313,4233.333496,4187.692383,4065.0,4257.94873,4267.436035,4250.897461,4506.025879,4542.436035,4397.436035,4447.692383,2870.0,0.0,11.0,,,,0.0,4.0,4.0,4.0,4.0,4.0,4.0,4.0,4.0,4.0,4.0,4.0,4.0,4.0,4.0,100.0,,,,,,,,,,,,,,,,,,,,,,,,,,,,,,,,,,,,,,,,,,,,,,,,,,,,,,,,,,,,,,,,,,,,,,,,,,,,,,,,,,,,,,,,,,,,,,,,,,,,,,,,,,,,,,,,,,,,,,,,,,,,,,,,,,,
1725717316.847792,1725717316.848846,247.0,0.0,4328.205078,4296.025879,4294.871582,4326.153809,4235.0,4191.794922,4067.564209,4256.794922,4267.307617,4249.102539,4508.846191,4543.333496,4394.487305,4451.794922,3132.0,0.0,11.0,,,,0.0,4.0,4.0,4.0,4.0,4.0,4.0,4.0,4.0,4.0,4.0,4.0,4.0,4.0,4.0,100.0,,,,,,,,,,,,,,,,,,,,,,,,,,,,,,,,,,,,,,,,,,,,,,,,,,,,,,,,,,,,,,,,,,,,,,,,,,,,,,,,,,,,,,,,,,,,,,,,,,,,,,,,,,,,,,,,,,,,,,,,,,,,,,,,,,,
1725717316.851696,1725717316.85275,248.0,0.0,4327.307617,4295.641113,4294.358887,4327.820313,4238.077148,4196.922852,4071.025635,4250.0,4265.256348,4245.897461,4510.641113,4541.922852,4394.230957,4453.846191,3391.0,0.0,11.0,,,,0.0,4.0,4.0,4.0,4.0,4.0,4.0,4.0,4.0,4.0,4.0,4.0,4.0,4.0,4.0,100.0,,,,,,,,,,,,,,,,,,,,,,,,,,,,,,,,,,,,,,,,,,,,,,,,,,,,,,,,,,,,,,,,,,,,,,,,,,,,,,,,,,,,,,,,,,,,,,,,,,,,,,,,,,,,,,,,,,,,,,,,,,,,,,,,,,,
1725717316.8556,1725717316.856555,249.0,0.0,4326.153809,4293.717773,4293.589844,4327.436035,4241.153809,4200.769043,4074.230713,4240.641113,4262.563965,4243.974121,4510.897461,4539.743652,4396.794922,4452.820313,3887.0,0.0,11.0,,,,0.0,4.0,4.0,4.0,4.0,4.0,4.0,4.0,4.0,4.0,4.0,4.0,4.0,4.0,4.0,100.0,,,,,,,,,,,,,,,,,,,,,,,,,,,,,,,,,,,,,,,,,,,,,,,,,,,,,,,,,,,,,,,,,,,,,,,,,,,,,,,,,,,,,,,,,,,,,,,,,,,,,,,,,,,,,,,,,,,,,,,,,,,,,,,,,,,
1725717316.859504,1725717316.860459,250.0,0.0,4325.256348,4292.820313,4293.333496,4326.025879,4242.820313,4202.05127,4076.410156,4233.205078,4260.897461,4244.871582,4510.256348,4537.94873,4399.102539,4449.358887,2870.0,0.0,11.0,,,,0.0,4.0,4.0,4.0,4.0,4.0,4.0,4.0,4.0,4.0,4.0,4.0,4.0,4.0,4.0,100.0,,,,,,,,,,,,,,,,,,,,,,,,,,,,,,,,,,,,,,,,,,,,,,,,,,,,,,,,,,,,,,,,,,,,,,,,,,,,,,,,,,,,,,,,,,,,,,,,,,,,,,,,,,,,,,,,,,,,,,,,,,,,,,,,,,,
1725717316.863408,1725717316.864363,251.0,0.0,4324.871582,4293.461426,4293.717773,4324.871582,4241.794922,4201.025879,4077.307617,4230.897461,4260.769043,4247.05127,4510.128418,4537.436035,4397.820313,4445.769043,3132.0,0.0,11.0,,,,0.0,4.0,4.0,4.0,4.0,4.0,4.0,4.0,4.0,4.0,4.0,4.0,4.0,4.0,4.0,100.0,,,,,,,,,,,,,,,,,,,,,,,,,,,,,,,,,,,,,,,,,,,,,,,,,,,,,,,,,,,,,,,,,,,,,,,,,,,,,,,,,,,,,,,,,,,,,,,,,,,,,,,,,,,,,,,,,,,,,,,,,,,,,,,,,,,
1725717316.867312,1725717316.868267,252.0,0.0,4324.871582,4294.230957,4294.230957,4324.358887,4238.589844,4199.102539,4077.435791,4233.077148,4261.282227,4247.692383,4511.025879,4538.077148,4393.205078,4444.358887,3391.0,0.0,11.0,,,,0.0,4.0,4.0,4.0,4.0,4.0,4.0,4.0,4.0,4.0,4.0,4.0,4.0,4.0,4.0,100.0,,,,,,,,,,,,,,,,,,,,,,,,,,,,,,,,,,,,,,,,,,,,,,,,,,,,,,,,0.0,0.0,1.0,0.0,1.0,0.0,,,,,,,,,,,,,,,,,,,,,,,,,,,,,,,,,,,,,,,,,,,,,,,,,,,,,,,,,,,,,,,,,,,,,,
1725717316.871216,1725717316.872071,253.0,0.0,4325.641113,4293.333496,4294.615234,4324.743652,4235.0,4197.820313,4077.307617,4236.025879,4260.897461,4245.0,4512.307617,4539.487305,4388.461426,4445.384766,3887.0,0.0,11.0,,,,0.0,4.0,4.0,4.0,4.0,4.0,4.0,4.0,4.0,4.0,4.0,4.0,4.0,4.0,4.0,100.0,,,,,,,,,,,,,,,,,,,,,,,,,,,,,,,,,,,,,,,,,,,,,,,,,,,,,,,,,,,,,,,,,,,,,,,,,,,,,,,,,,,,,,,,,,,,,,,,,,,,,,,,,,,,,,,,,,,,,,,,,,,,,,,,,,,
1725717316.875121,1725717316.875975,254.0,0.0,4326.538574,4290.641113,4294.871582,4325.641113,4232.820313,4197.820313,4077.179443,4236.922852,4259.102539,4239.871582,4511.922852,4540.769043,4387.179688,4447.563965,2870.0,0.0,11.0,,,,0.0,4.0,4.0,4.0,4.0,4.0,4.0,4.0,4.0,4.0,4.0,4.0,4.0,4.0,4.0,100.0,,,,,,,,,,,,,,,,,,,,,,,,,,,,,,,,,,,,,,,,,,,,,,,,,,,,,,,,,,,,,,,,,,,,,,,,,,,,,,,,,,,,,,,,,,,,,,,,,,,,,,,,,,,,,,,,,,,,,,,,,,,,,,,,,,,
1725717316.879025,1725717316.879879,255.0,0.0,4327.179688,4287.436035,4295.0,4326.666504,4232.692383,4198.717773,4077.435791,4235.256348,4255.769043,4235.0,4508.846191,4541.538574,4390.0,4449.102539,11.0,0.0,11.0,,,,0.0,4.0,4.0,4.0,4.0,4.0,4.0,4.0,4.0,4.0,4.0,4.0,4.0,4.0,4.0,100.0,,,,,,,,,,,,,,,,,,,,,,,,,,,,,,,,,,,,,,,,,,,,,,,,,,,,,,,,,,,,,,,,,,,,,,,,,,,,,,,,,,,,,,,,,,,,,,,,,,,,,,,,,,,,,,,,,,,,,,,,,,,,,,,,,,,
1725717316.882929,1725717316.883883,0.0,0.0,4327.436035,4285.128418,4295.256348,4327.05127,4233.846191,4199.358887,4078.333252,4232.692383,4251.666504,4232.94873,4504.487305,4541.282227,4394.230957,4449.102539,2692.0,0.0,11.0,,,,0.0,4.0,4.0,4.0,4.0,4.0,4.0,4.0,4.0,4.0,4.0,4.0,4.0,4.0,4.0,100.0,,,,,,,,,,,,,,,,,,,,,,,,,,,,,,,,,,,,,,,,,,,,,,,,,,,,,,,,,,,,,,,,,,,,,,,,,,,,,,,,,,,,,,,,,,,,,,,,,,,,,,,,,,,,,,,,,,,,,,,,,,,,,,,,,,,
1725717316.886833,1725717316.887787,1.0,0.0,4327.179688,4284.102539,4296.025879,4326.282227,4235.0,4198.846191,4079.743652,4231.025879,4248.205078,4234.230957,4502.179688,4540.512695,4396.153809,4448.333496,2585.0,0.0,11.0,,,,0.0,4.0,4.0,4.0,4.0,4.0,4.0,4.0,4.0,4.0,4.0,4.0,4.0,4.0,4.0,100.0,,,,,,,,,,,,,,,,,,,,,,,,,,,,,,,,,,,,,,,,,,,,,,,,,,,,,,,,,,,,,,,,,,,,,,,,,,,,,,,,,,,,,,,,,,,,,,,,,,,,,,,,,,,,,,,,,,,,,,,,,,,,,,,,,,,
1725717316.890737,1725717316.891691,2.0,0.0,4326.922852,4283.333496,4297.05127,4325.0,4235.256348,4197.05127,4081.410156,4231.025879,4246.282227,4237.436035,4503.717773,4540.0,4393.846191,4448.077148,2513.0,0.0,11.0,,,,0.0,4.0,4.0,4.0,4.0,4.0,4.0,4.0,4.0,4.0,4.0,4.0,4.0,4.0,4.0,100.0,,,,,,,,,,,,,,,,,,,,,,,,,,,,,,,,,,,,,,,,,,,,,,,,,,,,,,,,,,,,,,,,,,,,,,,,,,,,,,,,,,,,,,,,,,,,,,,,,,,,,,,,,,,,,,,,,,,,,,,,,,,,,,,,,,,
1725717316.894641,1725717316.895596,3.0,0.0,4326.538574,4282.179688,4297.820313,4324.358887,4234.615234,4195.897461,4083.076904,4231.666504,4246.410156,4241.025879,4507.179688,4539.487305,4388.333496,4448.589844,2466.0,0.0,11.0,,,,0.0,4.0,4.0,4.0,4.0,4.0,4.0,4.0,4.0,4.0,4.0,4.0,4.0,4.0,4.0,100.0,,,,,,,,,,,,,,,,,,,,,,,,,,,,,,,,,,,,,,,,,,,,,,,,,,,,,,,,,,,,,,,,,,,,,,,,,,,,,,,,,,,,,,,,,,,,,,,,,,,,,,,,,,,,,,,,,,,,,,,,,,,,,,,,,,,
1725717316.898545,1725717316.8996,4.0,0.0,4326.153809,4280.897461,4298.077148,4325.512695,4233.717773,4197.307617,4084.358887,4232.436035,4248.846191,4244.102539,4508.846191,4539.487305,4382.179688,4449.230957,2438.0,0.0,11.0,,,,0.0,4.0,4.0,4.0,4.0,4.0,4.0,4.0,4.0,4.0,4.0,4.0,4.0,4.0,4.0,100.0,,,,,,,,,,,,,,,,,,,,,,,,,,,,,,,,,,,,,,,,,,,,,,,,,,,,,,,,0.0,0.0,1.0,0.0,1.0,0.0,,,,,,,,,,,,,,,,,,,,,,,,,,,,,,,,,,,,,,,,,,,,,,,,,,,,,,,,,,,,,,,,,,,,,,
1725717316.902449,1725717316.903504,5.0,0.0,4326.538574,4280.384766,4297.94873,4327.436035,4233.333496,4201.153809,4085.256348,4234.871582,4253.205078,4246.922852,4505.512695,4540.0,4378.461426,4449.102539,2389.0,0.0,11.0,,,,0.0,4.0,4.0,4.0,4.0,4.0,4.0,4.0,4.0,4.0,4.0,4.0,4.0,4.0,4.0,100.0,,,,,,,,,,,,,,,,,,,,,,,,,,,,,,,,,,,,,,,,,,,,,,,,,,,,,,,,,,,,,,,,,,,,,,,,,,,,,,,,,,,,,,,,,,,,,,,,,,,,,,,,,,,,,,,,,,,,,,,,,,,,,,,,,,,
1725717316.906353,1725717316.907408,6.0,0.0,4327.436035,4280.897461,4297.820313,4328.333496,4233.974121,4205.512695,4085.128174,4240.256348,4258.333496,4248.974121,4498.077148,4541.153809,4378.846191,4447.94873,2429.0,0.0,11.0,,,,0.0,4.0,4.0,4.0,4.0,4.0,4.0,4.0,4.0,4.0,4.0,4.0,4.0,4.0,4.0,100.0,,,,,,,,,,,,,,,,,,,,,,,,,,,,,,,,,,,,,,,,,,,,,,,,,,,,,,,,,,,,,,,,,,,,,,,,,,,,,,,,,,,,,,,,,,,,,,,,,,,,,,,,,,,,,,,,,,,,,,,,,,,,,,,,,,,
1725717316.910257,1725717316.911312,7.0,0.0,4328.205078,4282.05127,4297.307617,4326.538574,4234.743652,4208.205078,4083.846191,4246.794922,4262.179688,4249.102539,4490.512695,4541.794922,4381.538574,4446.153809,2499.0,0.0,11.0,,,,0.0,4.0,4.0,4.0,4.0,4.0,4.0,4.0,4.0,4.0,4.0,4.0,4.0,4.0,4.0,100.0,,,,,,,,,,,,,,,,,,,,,,,,,,,,,,,,,,,,,,,,,,,,,,,,,,,,,,,,,,,,,,,,,,,,,,,,,,,,,,,,,,,,,,,,,,,,,,,,,,,,,,,,,,,,,,,,,,,,,,,,,,,,,,,,,,,
1725717316.914162,1725717316.915216,8.0,0.0,4327.436035,4283.205078,4295.641113,4321.666504,4235.128418,4208.589844,4081.666748,4249.871582,4263.205078,4246.666504,4487.179688,4540.128418,4383.205078,4444.102539,2474.0,0.0,11.0,,,,0.0,4.0,4.0,4.0,4.0,4.0,4.0,4.0,4.0,4.0,4.0,4.0,4.0,4.0,4.0,100.0,,,,,,,,,,,,,,,,,,,,,,,,,,,,,,,,,,,,,,,,,,,,,,,,,,,,,,,,,,,,,,,,,,,,,,,,,,,,,,,,,,,,,,,,,,,,,,,,,,,,,,,,,,,,,,,,,,,,,,,,,,,,,,,,,,,
1725717316.918066,1725717316.91912,9.0,0.0,4325.128418,4283.589844,4293.333496,4315.512695,4234.871582,4207.436035,4078.846191,4246.538574,4261.666504,4242.692383,4489.871582,4535.897461,4382.436035,4441.922852,2565.0,0.0,11.0,,,,0.0,4.0,4.0,4.0,4.0,4.0,4.0,4.0,4.0,4.0,4.0,4.0,4.0,4.0,4.0,100.0,,,,,,,,,,,,,,,,,,,,,,,,,,,,,,,,,,,,,,,,,,,,,,,,,,,,,,,,,,,,,,,,,,,,,,,,,,,,,,,,,,,,,,,,,,,,,,,,,,,,,,,,,,,,,,,,,,,,,,,,,,,,,,,,,,,
1725717316.92197,1725717316.923024,10.0,0.0,4322.05127,4283.461426,4291.538574,4311.025879,4233.974121,4206.538574,4076.281982,4239.230957,4259.487305,4239.230957,4497.05127,4531.666504,4380.512695,4440.128418,2889.0,0.0,11.0,,,,0.0,4.0,4.0,4.0,4.0,4.0,4.0,4.0,4.0,4.0,4.0,4.0,4.0,4.0,4.0,100.0,,,,,,,,,,,,,,,,,,,,,,,,,,,,,,,,,,,,,,,,,,,,,,,,,,,,,,,,,,,,,,,,,,,,,,,,,,,,,,,,,,,,,,,,,,,,,,,,,,,,,,,,,,,,,,,,,,,,,,,,,,,,,,,,,,,
1725717316.925874,1725717316.926928,11.0,0.0,4319.871582,4283.846191,4291.025879,4310.641113,4232.692383,4207.05127,4075.0,4233.846191,4258.717773,4238.461426,4505.769043,4530.769043,4381.025879,4439.615234,3132.0,0.0,11.0,,,,0.0,4.0,4.0,4.0,4.0,4.0,4.0,4.0,4.0,4.0,4.0,4.0,4.0,4.0,4.0,100.0,,,,,,,,,,,,,,,,,,,,,,,,,,,,,,,,,,,,,,,,,,,,,,,,,,,,,,,,,,,,,,,,,,,,,,,,,,,,,,,,,,,,,,,,,,,,,,,,,,,,,,,,,,,,,,,,,,,,,,,,,,,,,,,,,,,
1725717316.929778,1725717316.930733,12.0,0.0,4319.102539,4285.641113,4292.05127,4314.230957,4231.538574,4209.487305,4075.641113,4234.743652,4260.0,4240.512695,4512.179688,4534.615234,4385.641113,4441.538574,3408.0,0.0,11.0,,,,0.0,4.0,4.0,4.0,4.0,4.0,4.0,4.0,4.0,4.0,4.0,4.0,4.0,4.0,4.0,100.0,,,,,,,,,,,,,,,,,,,,,,,,,,,,,,,,,,,,,,,,,,,,,,,,,,,,,,,,0.0,0.0,1.0,0.0,1.0,0.0,,,,,,,,,,,,,,,,,,,,,,,,,,,,,,,,,,,,,,,,,,,,,,,,,,,,,,,,,,,,,,,,,,,,,,
1725717316.933682,1725717316.934637,13.0,0.0,4319.358887,4288.589844,4293.461426,4319.102539,4231.410156,4213.461426,4077.435791,4240.512695,4262.820313,4243.589844,4514.230957,4540.897461,4392.820313,4444.871582,3874.0,0.0,11.0,,,,0.0,4.0,4.0,4.0,4.0,4.0,4.0,4.0,4.0,4.0,4.0,4.0,4.0,4.0,4.0,100.0,,,,,,,,,,,,,,,,,,,,,,,,,,,,,,,,,,,,,,,,,,,,,,,,,,,,,,,,,,,,,,,,,,,,,,,,,,,,,,,,,,,,,,,,,,,,,,,,,,,,,,,,,,,,,,,,,,,,,,,,,,,,,,,,,,,
1725717316.937586,1725717316.938541,14.0,0.0,4319.358887,4291.410156,4293.717773,4322.05127,4232.179688,4217.563965,4078.974365,4246.025879,4265.512695,4245.0,4511.922852,4544.615234,4398.333496,4447.820313,2889.0,0.0,11.0,,,,0.0,4.0,4.0,4.0,4.0,4.0,4.0,4.0,4.0,4.0,4.0,4.0,4.0,4.0,4.0,100.0,,,,,,,,,,,,,,,,,,,,,,,,,,,,,,,,,,,,,,,,,,,,,,,,,,,,,,,,,,,,,,,,,,,,,,,,,,,,,,,,,,,,,,,,,,,,,,,,,,,,,,,,,,,,,,,,,,,,,,,,,,,,,,,,,,,
1725717316.94149,1725717316.942445,15.0,0.0,4318.077148,4292.05127,4291.666504,4321.153809,4233.461426,4219.871582,4078.718018,4246.410156,4266.282227,4242.692383,4506.410156,4542.179688,4398.846191,4447.94873,3132.0,0.0,11.0,,,,0.0,4.0,4.0,4.0,4.0,4.0,4.0,4.0,4.0,4.0,4.0,4.0,4.0,4.0,4.0,100.0,,,,,,,,,,,,,,,,,,,,,,,,,,,,,,,,,,,,,,,,,,,,,,,,,,,,,,,,,,,,,,,,,,,,,,,,,,,,,,,,,,,,,,,,,,,,,,,,,,,,,,,,,,,,,,,,,,,,,,,,,,,,,,,,,,,
1725717316.945394,1725717316.946249,16.0,0.0,4315.512695,4289.230957,4287.179688,4317.179688,4234.230957,4218.333496,4076.923096,4241.153809,4264.487305,4237.94873,4500.128418,4533.974121,4393.333496,4444.102539,3408.0,0.0,11.0,,,,0.0,4.0,4.0,4.0,4.0,4.0,4.0,4.0,4.0,4.0,4.0,4.0,4.0,4.0,4.0,100.0,,,,,,,,,,,,,,,,,,,,,,,,,,,,,,,,,,,,,,,,,,,,,,,,,,,,,,,,,,,,,,,,,,,,,,,,,,,,,,,,,,,,,,,,,,,,,,,,,,,,,,,,,,,,,,,,,,,,,,,,,,,,,,,,,,,
1725717316.949299,1725717316.950153,17.0,0.0,4312.179688,4283.717773,4281.538574,4312.692383,4234.102539,4212.692383,4074.487061,4234.102539,4261.025879,4233.461426,4494.871582,4524.615234,4384.871582,4437.563965,3874.0,0.0,11.0,,,,0.0,4.0,4.0,4.0,4.0,4.0,4.0,4.0,4.0,4.0,4.0,4.0,4.0,4.0,4.0,100.0,,,,,,,,,,,,,,,,,,,,,,,,,,,,,,,,,,,,,,,,,,,,,,,,,,,,,,,,,,,,,,,,,,,,,,,,,,,,,,,,,,,,,,,,,,,,,,,,,,,,,,,,,,,,,,,,,,,,,,,,,,,,,,,,,,,
1725717316.953203,1725717316.954057,18.0,0.0,4308.717773,4278.077148,4276.794922,4309.615234,4232.94873,4205.512695,4073.205078,4229.358887,4257.179688,4231.794922,4491.410156,4518.589844,4377.94873,4431.025879,2889.0,0.0,11.0,,,,0.0,4.0,4.0,4.0,4.0,4.0,4.0,4.0,4.0,4.0,4.0,4.0,4.0,4.0,4.0,100.0,,,,,,,,,,,,,,,,,,,,,,,,,,,,,,,,,,,,,,,,,,,,,,,,,,,,,,,,,,,,,,,,,,,,,,,,,,,,,,,,,,,,,,,,,,,,,,,,,,,,,,,,,,,,,,,,,,,,,,,,,,,,,,,,,,,
1725717316.957107,1725717316.957961,19.0,0.0,4306.410156,4275.897461,4274.743652,4308.589844,4231.153809,4200.512695,4073.333252,4228.589844,4253.333496,4232.94873,4490.512695,4517.692383,4376.153809,4427.436035,3132.0,0.0,11.0,,,,0.0,4.0,4.0,4.0,4.0,4.0,4.0,4.0,4.0,4.0,4.0,4.0,4.0,4.0,4.0,100.0,,,,,,,,,,,,,,,,,,,,,,,,,,,,,,,,,,,,,,,,,,,,,,,,,,,,,,,,,,,,,,,,,,,,,,,,,,,,,,,,,,,,,,,,,,,,,,,,,,,,,,,,,,,,,,,,,,,,,,,,,,,,,,,,,,,
1725717316.961011,1725717316.961766,20.0,0.0,4306.025879,4278.974121,4275.897461,4309.102539,4229.615234,4200.384766,4074.615479,4230.256348,4249.743652,4234.871582,4491.794922,4519.487305,4379.358887,4427.436035,3408.0,0.0,11.0,,,,0.0,4.0,4.0,4.0,4.0,4.0,4.0,4.0,4.0,4.0,4.0,4.0,4.0,4.0,4.0,100.0,,,,,,,,,,,,,,,,,1.0,0.0,0.0,,,,,,,,,,,,,,,,,,,,,,,,,,,,,,,,,,,,,0.0,0.0,1.0,0.0,1.0,0.0,2.355171,2.156993,1.105579,0.365643,0.112889,1.859209,2.086655,1.276084,0.244524,0.164545,2.069893,1.813005,0.946728,0.295724,0.086498,2.734169,1.828945,1.14013,0.434781,0.10872,0.58978,1.29287,0.361468,0.136495,0.097974,1.420618,0.895647,0.562271,0.2018,0.104476,1.71393,0.748238,0.451003,0.110147,0.063523,1.024235,0.997779,0.423088,0.336319,0.161883,1.551238,1.420393,0.594966,0.286915,0.152268,1.284503,2.006773,1.475898,0.610411,0.154912,1.781549,2.518684,1.436748,0.807137,0.459823,3.735247,4.595614,1.861157,1.08765,0.150366,1.632907,3.394688,2.174124,0.755536,0.258374,2.248777,2.964384,1.444783,0.615088,0.099321
1725717316.964915,1725717316.96567,21.0,0.0,4307.94873,4286.153809,4278.333496,4310.384766,4229.230957,4205.0,4076.025635,4231.666504,4246.666504,4235.384766,4493.974121,4520.256348,4383.846191,4429.743652,3874.0,0.0,11.0,,,,0.0,4.0,4.0,4.0,4.0,4.0,4.0,4.0,4.0,4.0,4.0,4.0,4.0,4.0,4.0,100.0,,,,,,,,,,,,,,,,,,,,,,,,,,,,,,,,,,,,,,,,,,,,,,,,,,,,,,,,,,,,,,,,,,,,,,,,,,,,,,,,,,,,,,,,,,,,,,,,,,,,,,,,,,,,,,,,,,,,,,,,,,,,,,,,,,,
1725717316.968819,1725717316.969574,22.0,0.0,4311.025879,4293.333496,4279.230957,4312.05127,4230.641113,4210.897461,4076.666748,4231.282227,4244.871582,4233.846191,4494.871582,4517.179688,4385.256348,4431.538574,2889.0,0.0,11.0,,,,0.0,4.0,4.0,4.0,4.0,4.0,4.0,4.0,4.0,4.0,4.0,4.0,4.0,4.0,4.0,100.0,,,,,,,,,,,,,,,,,,,,,,,,,,,,,,,,,,,,,,,,,,,,,,,,,,,,,,,,,,,,,,,,,,,,,,,,,,,,,,,,,,,,,,,,,,,,,,,,,,,,,,,,,,,,,,,,,,,,,,,,,,,,,,,,,,,
1725717316.972723,1725717316.973478,23.0,0.0,4313.077148,4295.641113,4276.922852,4313.461426,4232.692383,4213.846191,4076.410156,4229.230957,4244.487305,4230.897461,4492.94873,4510.897461,4381.922852,4430.512695,3132.0,0.0,11.0,,,,0.0,4.0,4.0,4.0,4.0,4.0,4.0,4.0,4.0,4.0,4.0,4.0,4.0,4.0,4.0,100.0,,,,,,,,,,,,,,,,,,,,,,,,,,,,,,,,,,,,,,,,,,,,,,,,,,,,,,,,,,,,,,,,,,,,,,,,,,,,,,,,,,,,,,,,,,,,,,,,,,,,,,,,,,,,,,,,,,,,,,,,,,,,,,,,,,,
1725717316.976627,1725717316.977282,24.0,0.0,4312.179688,4291.410156,4271.666504,4313.205078,4233.846191,4211.538574,4075.384521,4227.692383,4245.0,4227.307617,4488.717773,4504.743652,4374.871582,4426.538574,3408.0,0.0,11.0,,,,0.0,4.0,4.0,4.0,4.0,4.0,4.0,4.0,4.0,4.0,4.0,4.0,4.0,4.0,4.0,100.0,,,,,,,,,,,,,,,,,,,,,,,,,,,,,,,,,,,,,,,,,,,,,,,,,,,,,,,,,,,,,,,,,,,,,,,,,,,,,,,,,,,,,,,,,,,,,,,,,,,,,,,,,,,,,,,,,,,,,,,,,,,,,,,,,,,
1725717316.980531,1725717316.981186,25.0,0.0,4307.820313,4283.461426,4266.153809,4310.512695,4232.307617,4205.256348,4074.487061,4227.94873,4245.384766,4222.820313,4483.974121,4501.922852,4367.563965,4421.153809,3874.0,0.0,11.0,,,,0.0,4.0,4.0,4.0,4.0,4.0,4.0,4.0,4.0,4.0,4.0,4.0,4.0,4.0,4.0,100.0,,,,,,,,,,,,,,,,,,,,,,,,,,,,,,,,,,,,,,,,,,,,,,,,,,,,,,,,,,,,,,,,,,,,,,,,,,,,,,,,,,,,,,,,,,,,,,,,,,,,,,,,,,,,,,,,,,,,,,,,,,,,,,,,,,,
1725717316.984435,1725717316.98509,26.0,0.0,4302.05127,4276.666504,4262.692383,4305.384766,4227.94873,4199.358887,4074.358887,4229.871582,4245.0,4217.307617,4480.128418,4503.077148,4362.692383,4416.794922,2889.0,0.0,11.0,,,,0.0,4.0,4.0,4.0,4.0,4.0,4.0,4.0,4.0,4.0,4.0,4.0,4.0,4.0,4.0,100.0,,,,,,,,,,,,,,,,,,,,,,,,,,,,,,,,,,,,,,,,,,,,,,,,,,,,,,,,,,,,,,,,,,,,,,,,,,,,,,,,,,,,,,,,,,,,,,,,,,,,,,,,,,,,,,,,,,,,,,,,,,,,,,,,,,,
1725717316.988339,1725717316.989094,27.0,0.0,4296.922852,4274.358887,4262.307617,4299.615234,4222.307617,4198.333496,4074.487061,4231.538574,4244.102539,4212.692383,4477.563965,4506.153809,4361.410156,4414.871582,3132.0,0.0,11.0,,,,0.0,4.0,4.0,4.0,4.0,4.0,4.0,4.0,4.0,4.0,4.0,4.0,4.0,4.0,4.0,100.0,,,,,,,,,,,,,,,,,,,,,,,,,,,,,,,,,,,,,,,,,,,,,,,,,,,,,,,,,,,,,,,,,,,,,,,,,,,,,,,,,,,,,,,,,,,,,,,,,,,,,,,,,,,,,,,,,,,,,,,,,,,,,,,,,,,
1725717316.992243,1725717316.992998,28.0,0.0,4294.358887,4275.897461,4263.974121,4295.128418,4218.077148,4203.077148,4073.974365,4232.179688,4243.846191,4211.666504,4476.153809,4508.461426,4363.205078,4415.897461,3408.0,0.0,11.0,,,,0.0,4.0,4.0,4.0,4.0,4.0,4.0,4.0,4.0,4.0,4.0,4.0,4.0,4.0,4.0,100.0,,,,,,,,,,,,,,,,,,,,,,,,,,,,,,,,,,,,,,,,,,,,,,,,,,,,,,,,0.0,0.0,1.0,0.0,1.0,0.0,,,,,,,,,,,,,,,,,,,,,,,,,,,,,,,,,,,,,,,,,,,,,,,,,,,,,,,,,,,,,,,,,,,,,,
1725717316.996148,1725717316.996903,29.0,0.0,4294.230957,4277.563965,4265.769043,4293.077148,4216.794922,4210.512695,4072.307617,4232.692383,4245.0,4215.897461,4475.769043,4509.102539,4366.282227,4418.205078,3874.0,0.0,11.0,,,,0.0,4.0,4.0,4.0,4.0,4.0,4.0,4.0,4.0,4.0,4.0,4.0,4.0,4.0,4.0,100.0,,,,,,,,,,,,,,,,,,,,,,,,,,,,,,,,,,,,,,,,,,,,,,,,,,,,,,,,,,,,,,,,,,,,,,,,,,,,,,,,,,,,,,,,,,,,,,,,,,,,,,,,,,,,,,,,,,,,,,,,,,,,,,,,,,,
1725717317.000052,1725717317.000907,30.0,0.0,4294.358887,4275.769043,4266.282227,4292.820313,4217.692383,4216.025879,4070.0,4233.974121,4247.436035,4223.077148,4476.666504,4508.205078,4368.974121,4419.615234,2889.0,0.0,11.0,,,,0.0,4.0,4.0,4.0,4.0,4.0,4.0,4.0,4.0,4.0,4.0,4.0,4.0,4.0,4.0,100.0,,,,,,,,,,,,,,,,,,,,,,,,,,,,,,,,,,,,,,,,,,,,,,,,,,,,,,,,,,,,,,,,,,,,,,,,,,,,,,,,,,,,,,,,,,,,,,,,,,,,,,,,,,,,,,,,,,,,,,,,,,,,,,,,,,,
1725717317.003956,1725717317.004811,31.0,0.0,4292.94873,4270.128418,4265.0,4293.077148,4218.333496,4217.179688,4068.333252,4235.512695,4249.743652,4229.230957,4477.94873,4507.05127,4368.974121,4418.846191,3132.0,0.0,11.0,,,,0.0,4.0,4.0,4.0,4.0,4.0,4.0,4.0,4.0,4.0,4.0,4.0,4.0,4.0,4.0,100.0,,,,,,,,,,,,,,,,,,,,,,,,,,,,,,,,,,,,,,,,,,,,,,,,,,,,,,,,,,,,,,,,,,,,,,,,,,,,,,,,,,,,,,,,,,,,,,,,,,,,,,,,,,,,,,,,,,,,,,,,,,,,,,,,,,,
1725717317.00786,1725717317.008715,32.0,0.0,4290.256348,4263.717773,4262.94873,4293.333496,4217.820313,4215.512695,4068.205078,4236.153809,4250.897461,4231.666504,4477.436035,4506.153809,4365.256348,4415.769043,0.0,0.0,11.0,,,,0.0,4.0,4.0,4.0,4.0,4.0,4.0,4.0,4.0,4.0,4.0,4.0,4.0,4.0,4.0,100.0,,,,,,,,,,,,,,,,,,,,,,,,,,,,,,,,,,,,,,,,,,,,,,,,,,,,,,,,,,,,,,,,,,,,,,,,,,,,,,,,,,,,,,,,,,,,,,,,,,,,,,,,,,,,,,,,,,,,,,,,,,,,,,,,,,,
1725717317.011764,1725717317.012619,33.0,0.0,4288.589844,4260.128418,4261.922852,4293.461426,4217.436035,4214.102539,4069.871826,4235.641113,4250.128418,4230.512695,4474.487305,4505.897461,4358.846191,4412.436035,0.0,0.0,11.0,,,,0.0,4.0,4.0,4.0,4.0,4.0,4.0,4.0,4.0,4.0,4.0,4.0,4.0,4.0,4.0,100.0,,,,,,,,,,,,,,,,,,,,,,,,,,,,,,,,,,,,,,,,,,,,,,,,,,,,,,,,,,,,,,,,,,,,,,,,,,,,,,,,,,,,,,,,,,,,,,,,,,,,,,,,,,,,,,,,,,,,,,,,,,,,,,,,,,,
1725717317.015668,1725717317.016523,34.0,0.0,4289.615234,4260.769043,4263.077148,4293.717773,4219.230957,4214.615234,4072.564209,4234.487305,4248.589844,4228.077148,4471.025879,4506.410156,4352.692383,4411.025879,0.0,0.0,11.0,,,,0.0,4.0,4.0,4.0,4.0,4.0,4.0,4.0,4.0,4.0,4.0,4.0,4.0,4.0,4.0,100.0,,,,,,,,,,,,,,,,,,,,,,,,,,,,,,,,,,,,,,,,,,,,,,,,,,,,,,,,,,,,,,,,,,,,,,,,,,,,,,,,,,,,,,,,,,,,,,,,,,,,,,,,,,,,,,,,,,,,,,,,,,,,,,,,,,,
1725717317.019572,1725717317.020327,35.0,0.0,4292.820313,4264.230957,4265.384766,4293.974121,4223.461426,4216.538574,4075.769287,4233.589844,4247.692383,4227.05127,4469.743652,4507.692383,4349.871582,4412.05127,0.0,0.0,11.0,,,,0.0,4.0,4.0,4.0,4.0,4.0,4.0,4.0,4.0,4.0,4.0,4.0,4.0,4.0,4.0,100.0,,,,,,,,,,,,,,,,,,,,,,,,,,,,,,,,,,,,,,,,,,,,,,,,,,,,,,,,,,,,,,,,,,,,,,,,,,,,,,,,,,,,,,,,,,,,,,,,,,,,,,,,,,,,,,,,,,,,,,,,,,,,,,,,,,,
1725717317.023476,1725717317.024231,36.0,0.0,4295.769043,4266.922852,4266.922852,4293.846191,4227.692383,4217.820313,4078.461426,4232.820313,4248.589844,4228.717773,4471.410156,4508.717773,4352.05127,4414.230957,0.0,0.0,11.0,,,,0.0,4.0,4.0,4.0,4.0,4.0,4.0,4.0,4.0,4.0,4.0,4.0,4.0,4.0,4.0,100.0,,,,,,,,,,,,,,,,,,,,,,,,,,,,,,,,,,,,,,,,,,,,,,,,,,,,,,,,0.0,0.0,1.0,0.0,1.0,0.0,,,,,,,,,,,,,,,,,,,,,,,,,,,,,,,,,,,,,,,,,,,,,,,,,,,,,,,,,,,,,,,,,,,,,,
1725717317.02738,1725717317.028135,37.0,0.0,4296.282227,4266.666504,4266.794922,4292.94873,4228.974121,4217.692383,4080.0,4231.794922,4250.769043,4232.436035,4473.846191,4508.461426,4358.077148,4415.641113,0.0,0.0,11.0,,,,0.0,4.0,4.0,4.0,4.0,4.0,4.0,4.0,4.0,4.0,4.0,4.0,4.0,4.0,4.0,100.0,,,,,,,,,,,,,,,,,,,,,,,,,,,,,,,,,,,,,,,,,,,,,,,,,,,,,,,,,,,,,,,,,,,,,,,,,,,,,,,,,,,,,,,,,,,,,,,,,,,,,,,,,,,,,,,,,,,,,,,,,,,,,,,,,,,
1725717317.031284,1725717317.032039,38.0,0.0,4294.102539,4264.230957,4265.128418,4291.922852,4226.153809,4216.794922,4080.769287,4230.256348,4252.179688,4235.512695,4474.102539,4507.05127,4364.230957,4415.512695,0.0,0.0,11.0,,,,0.0,4.0,4.0,4.0,4.0,4.0,4.0,4.0,4.0,4.0,4.0,4.0,4.0,4.0,4.0,100.0,,,,,,,,,,,,,,,,,,,,,,,,,,,,,,,,,,,,,,,,,,,,,,,,,,,,,,,,,,,,,,,,,,,,,,,,,,,,,,,,,,,,,,,,,,,,,,,,,,,,,,,,,,,,,,,,,,,,,,,,,,,,,,,,,,,
1725717317.035189,1725717317.035844,39.0,0.0,4291.153809,4261.666504,4263.717773,4291.666504,4221.025879,4216.282227,4081.794922,4229.102539,4251.282227,4235.512695,4471.794922,4505.641113,4366.153809,4414.487305,0.0,0.0,11.0,,,,0.0,4.0,4.0,4.0,4.0,4.0,4.0,4.0,4.0,4.0,4.0,4.0,4.0,4.0,4.0,100.0,,,,,,,,,,,,,,,,,,,,,,,,,,,,,,,,,,,,,,,,,,,,,,,,,,,,,,,,,,,,,,,,,,,,,,,,,,,,,,,,,,,,,,,,,,,,,,,,,,,,,,,,,,,,,,,,,,,,,,,,,,,,,,,,,,,
1725717317.039093,1725717317.039748,40.0,0.0,4290.384766,4261.153809,4263.974121,4292.692383,4217.692383,4216.410156,4083.461426,4229.358887,4249.102539,4232.436035,4469.743652,4506.153809,4361.922852,4414.615234,0.0,0.0,11.0,,,,0.0,4.0,4.0,4.0,4.0,4.0,4.0,4.0,4.0,4.0,4.0,4.0,4.0,4.0,4.0,100.0,,,,,,,,,,,,,,,,,,,,,,,,,,,,,,,,,,,,,,,,,,,,,,,,,,,,,,,,,,,,,,,,,,,,,,,,,,,,,,,,,,,,,,,,,,,,,,,,,,,,,,,,,,,,,,,,,,,,,,,,,,,,,,,,,,,
1725717317.042997,1725717317.043652,41.0,0.0,4292.436035,4263.717773,4267.05127,4294.487305,4219.487305,4217.179688,4085.641113,4230.641113,4248.333496,4229.743652,4471.153809,4509.743652,4354.230957,4417.179688,0.0,0.0,11.0,,,,0.0,4.0,4.0,4.0,4.0,4.0,4.0,4.0,4.0,4.0,4.0,4.0,4.0,4.0,4.0,100.0,,,,,,,,,,,,,,,,,,,,,,,,,,,,,,,,,,,,,,,,,,,,,,,,,,,,,,,,,,,,,,,,,,,,,,,,,,,,,,,,,,,,,,,,,,,,,,,,,,,,,,,,,,,,,,,,,,,,,,,,,,,,,,,,,,,
1725717317.046901,1725717317.047556,42.0,0.0,4296.410156,4268.846191,4271.922852,4295.512695,4225.769043,4218.077148,4087.692383,4232.179688,4251.025879,4230.897461,4477.05127,4515.512695,4348.717773,4422.436035,0.0,0.0,11.0,,,,0.0,4.0,4.0,4.0,4.0,4.0,4.0,4.0,4.0,4.0,4.0,4.0,4.0,4.0,4.0,100.0,,,,,,,,,,,,,,,,,,,,,,,,,,,,,,,,,,,,,,,,,,,,,,,,,,,,,,,,,,,,,,,,,,,,,,,,,,,,,,,,,,,,,,,,,,,,,,,,,,,,,,,,,,,,,,,,,,,,,,,,,,,,,,,,,,,
1725717317.050805,1725717317.05136,43.0,0.0,4300.641113,4275.256348,4276.794922,4295.641113,4232.94873,4219.487305,4089.230713,4233.333496,4256.666504,4236.794922,4485.128418,4521.538574,4350.128418,4428.846191,0.0,0.0,11.0,,,,0.0,4.0,4.0,4.0,4.0,4.0,4.0,4.0,4.0,4.0,4.0,4.0,4.0,4.0,4.0,100.0,,,,,,,,,,,,,,,,,,,,,,,,,,,,,,,,,,,,,,,,,,,,,,,,,,,,,,,,,,,,,,,,,,,,,,,,,,,,,,,,,,,,,,,,,,,,,,,,,,,,,,,,,,,,,,,,,,,,,,,,,,,,,,,,,,,
1725717317.054709,1725717317.055264,44.0,0.0,4303.974121,4281.153809,4280.128418,4295.256348,4237.436035,4221.794922,4090.897461,4234.615234,4262.563965,4243.461426,4492.179688,4525.769043,4359.615234,4434.487305,0.0,0.0,11.0,,,,0.0,4.0,4.0,4.0,4.0,4.0,4.0,4.0,4.0,4.0,4.0,4.0,4.0,4.0,4.0,100.0,,,,,,,,,,,,,,,,,,,,,,,,,,,,,,,,,,,,,,,,,,,,,,,,,,,,,,,,0.0,0.0,1.0,0.0,1.0,0.0,,,,,,,,,,,,,,,,,,,,,,,,,,,,,,,,,,,,,,,,,,,,,,,,,,,,,,,,,,,,,,,,,,,,,,
1725717317.058613,1725717317.059168,45.0,0.0,4306.410156,4284.615234,4281.538574,4295.769043,4237.820313,4225.0,4092.692383,4236.666504,4266.025879,4246.794922,4495.0,4527.05127,4373.077148,4437.692383,0.0,0.0,11.0,,,,0.0,4.0,4.0,4.0,4.0,4.0,4.0,4.0,4.0,4.0,4.0,4.0,4.0,4.0,4.0,100.0,,,,,,,,,,,,,,,,,,,,,,,,,,,,,,,,,,,,,,,,,,,,,,,,,,,,,,,,,,,,,,,,,,,,,,,,,,,,,,,,,,,,,,,,,,,,,,,,,,,,,,,,,,,,,,,,,,,,,,,,,,,,,,,,,,,
1725717317.062517,1725717317.063072,46.0,0.0,4307.436035,4285.0,4281.410156,4297.307617,4235.641113,4228.717773,4094.102539,4239.230957,4265.769043,4244.871582,4493.077148,4525.256348,4383.589844,4437.307617,0.0,0.0,11.0,,,,0.0,4.0,4.0,4.0,4.0,4.0,4.0,4.0,4.0,4.0,4.0,4.0,4.0,4.0,4.0,100.0,,,,,,,,,,,,,,,,,,,,,,,,,,,,,,,,,,,,,,,,,,,,,,,,,,,,,,,,,,,,,,,,,,,,,,,,,,,,,,,,,,,,,,,,,,,,,,,,,,,,,,,,,,,,,,,,,,,,,,,,,,,,,,,,,,,
1725717317.066421,1725717317.066877,47.0,0.0,4306.410156,4282.820313,4280.769043,4298.589844,4233.589844,4231.666504,4094.487061,4240.897461,4262.820313,4239.615234,4488.205078,4521.538574,4386.282227,4433.589844,0.0,0.0,11.0,,,,0.0,4.0,4.0,4.0,4.0,4.0,4.0,4.0,4.0,4.0,4.0,4.0,4.0,4.0,4.0,100.0,,,,,,,,,,,,,,,,,,,,,,,,,,,,,,,,,,,,,,,,,,,,,,,,,,,,,,,,,,,,,,,,,,,,,,,,,,,,,,,,,,,,,,,,,,,,,,,,,,,,,,,,,,,,,,,,,,,,,,,,,,,,,,,,,,,
1725717317.070325,1725717317.070781,48.0,0.0,4303.717773,4280.256348,4279.615234,4298.461426,4233.077148,4232.94873,4093.461426,4241.153809,4259.358887,4234.230957,4484.358887,4517.94873,4381.282227,4428.205078,0.0,0.0,11.0,,,,0.0,4.0,4.0,4.0,4.0,4.0,4.0,4.0,4.0,4.0,4.0,4.0,4.0,4.0,4.0,100.0,,,,,,,,,,,,,,,,,,,,,,,,,,,,,,,,,,,,,,,,,,,,,,,,,,,,,,,,,,,,,,,,,,,,,,,,,,,,,,,,,,,,,,,,,,,,,,,,,,,,,,,,,,,,,,,,,,,,,,,,,,,,,,,,,,,
1725717317.07423,1725717317.074685,49.0,0.0,4300.641113,4278.974121,4277.05127,4296.922852,4233.717773,4232.436035,4091.923096,4241.538574,4257.436035,4231.410156,4484.743652,4516.538574,4373.461426,4424.615234,0.0,0.0,11.0,,,,0.0,4.0,4.0,4.0,4.0,4.0,4.0,4.0,4.0,4.0,4.0,4.0,4.0,4.0,4.0,100.0,,,,,,,,,,,,,,,,,,,,,,,,,,,,,,,,,,,,,,,,,,,,,,,,,,,,,,,,,,,,,,,,,,,,,,,,,,,,,,,,,,,,,,,,,,,,,,,,,,,,,,,,,,,,,,,,,,,,,,,,,,,,,,,,,,,
1725717317.078134,1725717317.078589,50.0,0.0,4298.589844,4279.615234,4273.589844,4294.871582,4234.487305,4231.153809,4090.641113,4244.615234,4258.717773,4231.538574,4488.846191,4518.461426,4368.846191,4425.897461,0.0,0.0,11.0,,,,0.0,4.0,4.0,4.0,4.0,4.0,4.0,4.0,4.0,4.0,4.0,4.0,4.0,4.0,4.0,100.0,,,,,,,,,,,,,,,,,,,,,,,,,,,,,,,,,,,,,,,,,,,,,,,,,,,,,,,,,,,,,,,,,,,,,,,,,,,,,,,,,,,,,,,,,,,,,,,,,,,,,,,,,,,,,,,,,,,,,,,,,,,,,,,,,,,
1725717317.082038,1725717317.082393,51.0,0.0,4297.692383,4281.153809,4270.128418,4293.461426,4235.0,4230.384766,4090.256348,4251.794922,4262.820313,4233.974121,4493.205078,4523.333496,4370.384766,4432.05127,0.0,0.0,11.0,,,,0.0,4.0,4.0,4.0,4.0,4.0,4.0,4.0,4.0,4.0,4.0,4.0,4.0,4.0,4.0,100.0,,,,,,,,,,,,,,,,,,,,,,,,,,,,,,,,,,,,,,,,,,,,,,,,,,,,,,,,,,,,,,,,,,,,,,,,,,,,,,,,,,,,,,,,,,,,,,,,,,,,,,,,,,,,,,,,,,,,,,,,,,,,,,,,,,,
1725717317.085942,1725717317.086297,52.0,0.0,4297.563965,4282.436035,4268.077148,4293.461426,4235.641113,4231.025879,4091.153809,4260.897461,4267.563965,4237.692383,4494.102539,4528.461426,4376.922852,4439.871582,0.0,0.0,11.0,,,,0.0,4.0,4.0,4.0,4.0,4.0,4.0,4.0,4.0,4.0,4.0,4.0,4.0,4.0,4.0,100.0,1.0,83.333336,4.0,4.0,4.0,4.0,4.0,3.0,3.0,4.0,4.0,4.0,4.0,4.0,4.0,4.0,1.0,0.0,0.0,,,,,,,,,,,,,,,,,,,,,,,,,,,,,,,,,,,,,0.0,0.0,1.0,0.0,1.0,0.0,2.411975,2.398338,1.011585,0.407936,0.121438,1.854852,2.386652,1.240049,0.256311,0.16956,2.182206,2.135537,0.899263,0.342406,0.080791,1.832626,1.875422,1.034818,0.468748,0.103417,0.564229,1.335458,0.364064,0.148589,0.10203,2.458722,1.097357,0.449408,0.219033,0.112344,1.615734,0.814486,0.48293,0.129998,0.067066,1.039083,0.970766,0.344194,0.364014,0.156467,1.56117,1.340109,0.542173,0.288538,0.132298,1.287594,2.058282,1.440803,0.669769,0.147326,1.661231,2.761455,1.378781,0.884687,0.367227,3.577379,4.852762,1.74027,1.188368,0.158838,1.486409,3.940001,2.241259,0.812935,0.284094,2.018432,3.240841,1.382277,0.652219,0.110853
1725717317.089846,1725717317.090201,53.0,0.0,4297.05127,4283.205078,4267.563965,4294.743652,4236.922852,4232.563965,4093.076904,4267.307617,4270.769043,4241.666504,4490.641113,4530.769043,4384.615234,4444.487305,0.0,0.0,11.0,,,,0.0,4.0,4.0,4.0,4.0,4.0,4.0,4.0,4.0,4.0,4.0,4.0,4.0,4.0,4.0,100.0,,,,,,,,,,,,,,,,,,,,,,,,,,,,,,,,,,,,,,,,,,,,,,,,,,,,,,,,,,,,,,,,,,,,,,,,,,,,,,,,,,,,,,,,,,,,,,,,,,,,,,,,,,,,,,,,,,,,,,,,,,,,,,,,,,,
1725717317.09375,1725717317.094205,54.0,0.0,4296.153809,4283.077148,4267.820313,4295.384766,4238.205078,4234.358887,4095.256348,4266.410156,4270.897461,4245.256348,4484.871582,4527.94873,4389.615234,4442.436035,0.0,0.0,11.0,,,,0.0,4.0,4.0,4.0,4.0,4.0,4.0,4.0,4.0,4.0,4.0,4.0,4.0,4.0,4.0,100.0,,,,,,,,,,,,,,,,,,,,,,,,,,,,,,,,,,,,,,,,,,,,,,,,,,,,,,,,,,,,,,,,,,,,,,,,,,,,,,,,,,,,,,,,,,,,,,,,,,,,,,,,,,,,,,,,,,,,,,,,,,,,,,,,,,,
1725717317.097654,1725717317.09811,55.0,0.0,4294.743652,4282.307617,4267.692383,4294.230957,4238.846191,4235.512695,4096.153809,4258.589844,4268.589844,4247.94873,4479.487305,4520.769043,4389.743652,4433.974121,0.0,0.0,11.0,,,,0.0,4.0,4.0,4.0,4.0,4.0,4.0,4.0,4.0,4.0,4.0,4.0,4.0,4.0,4.0,100.0,,,,,,,,,,,,,,,,,,,,,,,,,,,,,,,,,,,,,,,,,,,,,,,,,,,,,,,,,,,,,,,,,,,,,,,,,,,,,,,,,,,,,,,,,,,,,,,,,,,,,,,,,,,,,,,,,,,,,,,,,,,,,,,,,,,
1725717317.101558,1725717317.102014,56.0,0.0,4293.205078,4281.153809,4266.410156,4290.641113,4238.077148,4235.769043,4095.384521,4248.589844,4265.769043,4248.846191,4475.512695,4513.205078,4385.384766,4423.205078,0.0,0.0,11.0,,,,0.0,4.0,4.0,4.0,4.0,4.0,4.0,4.0,4.0,4.0,4.0,4.0,4.0,4.0,4.0,100.0,,,,,,,,,,,,,,,,,,,,,,,,,,,,,,,,,,,,,,,,,,,,,,,,,,,,,,,,,,,,,,,,,,,,,,,,,,,,,,,,,,,,,,,,,,,,,,,,,,,,,,,,,,,,,,,,,,,,,,,,,,,,,,,,,,,
1725717317.105462,1725717317.106018,57.0,0.0,4291.666504,4280.512695,4264.102539,4286.410156,4236.666504,4235.512695,4094.358887,4242.692383,4263.717773,4246.922852,4472.820313,4508.589844,4377.94873,4415.128418,0.0,0.0,11.0,,,,0.0,4.0,4.0,4.0,4.0,4.0,4.0,4.0,4.0,4.0,4.0,4.0,4.0,4.0,4.0,100.0,,,,,,,,,,,,,,,,,,,,,,,,,,,,,,,,,,,,,,,,,,,,,,,,,,,,,,,,,,,,,,,,,,,,,,,,,,,,,,,,,,,,,,,,,,,,,,,,,,,,,,,,,,,,,,,,,,,,,,,,,,,,,,,,,,,
1725717317.109367,1725717317.109922,58.0,0.0,4289.871582,4281.282227,4261.153809,4283.077148,4235.256348,4235.0,4094.615479,4243.077148,4262.436035,4241.153809,4470.641113,4507.563965,4369.230957,4412.436035,0.0,0.0,11.0,,,,0.0,4.0,4.0,4.0,4.0,4.0,4.0,4.0,4.0,4.0,4.0,4.0,4.0,4.0,4.0,100.0,,,,,,,,,,,,,,,,,,,,,,,,,,,,,,,,,,,,,,,,,,,,,,,,,,,,,,,,,,,,,,,,,,,,,,,,,,,,,,,,,,,,,,,,,,,,,,,,,,,,,,,,,,,,,,,,,,,,,,,,,,,,,,,,,,,
1725717317.113271,1725717317.113826,59.0,0.0,4287.436035,4282.692383,4258.717773,4281.922852,4234.487305,4234.743652,4096.922852,4246.666504,4260.512695,4233.077148,4468.333496,4507.436035,4361.153809,4413.333496,0.0,0.0,11.0,,,,0.0,4.0,4.0,4.0,4.0,4.0,4.0,4.0,4.0,4.0,4.0,4.0,4.0,4.0,4.0,100.0,,,,,,,,,,,,,,,,,,,,,,,,,,,,,,,,,,,,,,,,,,,,,,,,,,,,,,,,,,,,,,,,,,,,,,,,,,,,,,,,,,,,,,,,,,,,,,,,,,,,,,,,,,,,,,,,,,,,,,,,,,,,,,,,,,,
1725717317.117175,1725717317.11773,60.0,0.0,4284.358887,4282.94873,4256.922852,4282.179688,4234.230957,4235.0,4099.358887,4247.05127,4256.025879,4225.256348,4465.128418,4504.743652,4354.871582,4413.717773,0.0,0.0,11.0,,,,0.0,4.0,4.0,4.0,4.0,4.0,4.0,4.0,4.0,4.0,4.0,4.0,4.0,4.0,4.0,100.0,,,,,,,,,,,,,,,,,,,,,,,,,,,,,,,,,,,,,,,,,,,,,,,,,,,,,,,,0.0,0.0,1.0,0.0,1.0,0.0,,,,,,,,,,,,,,,,,,,,,,,,,,,,,,,,,,,,,,,,,,,,,,,,,,,,,,,,,,,,,,,,,,,,,,
1725717317.121079,1725717317.121634,61.0,0.0,4280.641113,4280.897461,4254.871582,4281.922852,4234.230957,4235.512695,4100.128418,4240.128418,4248.461426,4219.102539,4459.615234,4497.94873,4349.871582,4410.256348,0.0,0.0,11.0,,,,0.0,4.0,4.0,4.0,4.0,4.0,4.0,4.0,4.0,4.0,4.0,4.0,4.0,4.0,4.0,100.0,,,,,,,,,,,,,,,,,,,,,,,,,,,,,,,,,,,,,,,,,,,,,,,,,,,,,,,,,,,,,,,,,,,,,,,,,,,,,,,,,,,,,,,,,,,,,,,,,,,,,,,,,,,,,,,,,,,,,,,,,,,,,,,,,,,
1725717317.124983,1725717317.125438,62.0,0.0,4275.897461,4276.153809,4251.282227,4278.589844,4233.974121,4235.0,4098.077148,4227.05127,4238.846191,4213.589844,4450.256348,4487.307617,4344.102539,4401.410156,0.0,0.0,11.0,,,,0.0,4.0,4.0,4.0,4.0,4.0,4.0,4.0,4.0,4.0,4.0,4.0,4.0,4.0,4.0,100.0,,,,,,,,,,,,,,,,,,,,,,,,,,,,,,,,,,,,,,,,,,,,,,,,,,,,,,,,,,,,,,,,,,,,,,,,,,,,,,,,,,,,,,,,,,,,,,,,,,,,,,,,,,,,,,,,,,,,,,,,,,,,,,,,,,,
1725717317.128887,1725717317.129342,63.0,0.0,4269.743652,4269.615234,4244.871582,4271.794922,4232.94873,4233.333496,4094.358887,4213.717773,4230.128418,4206.538574,4437.307617,4475.256348,4335.769043,4389.102539,0.0,0.0,11.0,,,,0.0,4.0,4.0,4.0,4.0,4.0,4.0,4.0,4.0,4.0,4.0,4.0,4.0,4.0,4.0,100.0,,,,,,,,,,,,,,,,,,,,,,,,,,,,,,,,,,,,,,,,,,,,,,,,,,,,,,,,,,,,,,,,,,,,,,,,,,,,,,,,,,,,,,,,,,,,,,,,,,,,,,,,,,,,,,,,,,,,,,,,,,,,,,,,,,,
1725717317.132791,1725717317.133246,64.0,0.0,4263.077148,4262.692383,4236.794922,4263.461426,4231.410156,4231.025879,4091.153809,4207.05127,4225.384766,4198.461426,4423.077148,4465.512695,4326.025879,4377.563965,0.0,0.0,11.0,,,,0.0,4.0,4.0,4.0,4.0,4.0,4.0,4.0,4.0,4.0,4.0,4.0,4.0,4.0,4.0,100.0,,,,,,,,,,,,,,,,,,,,,,,,,,,,,,,,,,,,,,,,,,,,,,,,,,,,,,,,,,,,,,,,,,,,,,,,,,,,,,,,,,,,,,,,,,,,,,,,,,,,,,,,,,,,,,,,,,,,,,,,,,,,,,,,,,,
1725717317.136695,1725717317.137151,65.0,0.0,4258.461426,4257.436035,4229.743652,4257.179688,4230.0,4230.256348,4090.384521,4210.384766,4226.538574,4193.205078,4412.436035,4462.05127,4319.102539,4371.794922,0.0,0.0,11.0,,,,0.0,4.0,4.0,4.0,4.0,4.0,4.0,4.0,4.0,4.0,4.0,4.0,4.0,4.0,4.0,100.0,,,,,,,,,,,,,,,,,,,,,,,,,,,,,,,,,,,,,,,,,,,,,,,,,,,,,,,,,,,,,,,,,,,,,,,,,,,,,,,,,,,,,,,,,,,,,,,,,,,,,,,,,,,,,,,,,,,,,,,,,,,,,,,,,,,
1725717317.140599,1725717317.140955,66.0,0.0,4258.589844,4255.512695,4227.307617,4256.025879,4229.358887,4232.692383,4092.692383,4221.922852,4233.717773,4195.0,4410.897461,4467.307617,4320.0,4374.615234,0.0,0.0,11.0,,,,0.0,4.0,4.0,4.0,4.0,4.0,4.0,4.0,4.0,4.0,4.0,4.0,4.0,4.0,4.0,100.0,,,,,,,,,,,,,,,,,,,,,,,,,,,,,,,,,,,,,,,,,,,,,,,,,,,,,,,,,,,,,,,,,,,,,,,,,,,,,,,,,,,,,,,,,,,,,,,,,,,,,,,,,,,,,,,,,,,,,,,,,,,,,,,,,,,
1725717317.144503,1725717317.144859,67.0,0.0,4265.128418,4257.692383,4231.666504,4260.512695,4229.615234,4238.205078,4097.436035,4236.538574,4245.0,4205.384766,4421.538574,4481.153809,4330.769043,4386.153809,0.0,0.0,11.0,,,,0.0,4.0,4.0,4.0,4.0,4.0,4.0,4.0,4.0,4.0,4.0,4.0,4.0,4.0,4.0,100.0,,,,,,,,,,,,,,,,,,,,,,,,,,,,,,,,,,,,,,,,,,,,,,,,,,,,,,,,,,,,,,,,,,,,,,,,,,,,,,,,,,,,,,,,,,,,,,,,,,,,,,,,,,,,,,,,,,,,,,,,,,,,,,,,,,,
1725717317.148408,1725717317.148763,68.0,0.0,4276.666504,4264.102539,4241.922852,4269.102539,4230.769043,4244.487305,4103.333496,4248.974121,4258.333496,4221.153809,4442.436035,4500.256348,4349.102539,4403.461426,0.0,0.0,11.0,,,,0.0,4.0,4.0,4.0,4.0,4.0,4.0,4.0,4.0,4.0,4.0,4.0,4.0,4.0,4.0,100.0,,,,,,,,,,,,,,,,,,,,,,,,,,,,,,,,,,,,,,,,,,,,,,,,,,,,,,,,0.0,0.0,1.0,0.0,1.0,0.0,,,,,,,,,,,,,,,,,,,,,,,,,,,,,,,,,,,,,,,,,,,,,,,,,,,,,,,,,,,,,,,,,,,,,,
1725717317.152311,1725717317.152667,69.0,0.0,4289.487305,4273.846191,4254.615234,4278.717773,4233.077148,4248.974121,4109.871582,4256.153809,4271.410156,4236.922852,4466.922852,4519.743652,4368.974121,4421.922852,0.0,0.0,11.0,,,,0.0,4.0,4.0,4.0,4.0,4.0,4.0,4.0,4.0,4.0,4.0,4.0,4.0,4.0,4.0,100.0,,,,,,,,,,,,,,,,,,,,,,,,,,,,,,,,,,,,,,,,,,,,,,,,,,,,,,,,,,,,,,,,,,,,,,,,,,,,,,,,,,,,,,,,,,,,,,,,,,,,,,,,,,,,,,,,,,,,,,,,,,,,,,,,,,,
1725717317.156216,1725717317.156471,70.0,0.0,4299.743652,4285.0,4265.512695,4286.922852,4236.666504,4250.512695,4116.666504,4257.692383,4281.538574,4248.205078,4487.05127,4534.871582,4384.102539,4436.538574,0.0,0.0,11.0,,,,0.0,4.0,4.0,4.0,4.0,4.0,4.0,4.0,4.0,4.0,4.0,4.0,4.0,4.0,4.0,100.0,,,,,,,,,,,,,,,,,,,,,,,,,,,,,,,,,,,,,,,,,,,,,,,,,,,,,,,,,,,,,,,,,,,,,,,,,,,,,,,,,,,,,,,,,,,,,,,,,,,,,,,,,,,,,,,,,,,,,,,,,,,,,,,,,,,
1725717317.16012,1725717317.160375,71.0,0.0,4305.512695,4294.487305,4272.05127,4292.820313,4240.897461,4249.871582,4122.94873,4255.512695,4286.153809,4253.333496,4497.563965,4543.333496,4391.410156,4445.0,0.0,0.0,11.0,,,,0.0,4.0,4.0,4.0,4.0,4.0,4.0,4.0,4.0,4.0,4.0,4.0,4.0,4.0,4.0,100.0,,,,,,,,,,,,,,,,,,,,,,,,,,,,,,,,,,,,,,,,,,,,,,,,,,,,,,,,,,,,,,,,,,,,,,,,,,,,,,,,,,,,,,,,,,,,,,,,,,,,,,,,,,,,,,,,,,,,,,,,,,,,,,,,,,,
1725717317.164024,1725717317.16428,72.0,0.0,4307.820313,4298.846191,4274.487305,4296.282227,4244.358887,4248.846191,4127.820313,4252.179688,4284.487305,4253.717773,4498.205078,4545.128418,4391.666504,4447.94873,0.0,0.0,11.0,,,,0.0,4.0,4.0,4.0,4.0,4.0,4.0,4.0,4.0,4.0,4.0,4.0,4.0,4.0,4.0,100.0,,,,,,,,,,,,,,,,,,,,,,,,,,,,,,,,,,,,,,,,,,,,,,,,,,,,,,,,,,,,,,,,,,,,,,,,,,,,,,,,,,,,,,,,,,,,,,,,,,,,,,,,,,,,,,,,,,,,,,,,,,,,,,,,,,,
1725717317.167928,1725717317.168184,73.0,0.0,4308.717773,4297.05127,4274.743652,4297.563965,4245.769043,4248.589844,4130.512695,4249.615234,4278.077148,4252.05127,4492.692383,4542.94873,4389.102539,4447.820313,0.0,0.0,11.0,,,,0.0,4.0,4.0,4.0,4.0,4.0,4.0,4.0,4.0,4.0,4.0,4.0,4.0,4.0,4.0,100.0,,,,,,,,,,,,,,,,,,,,,,,,,,,,,,,,,,,,,,,,,,,,,,,,,,,,,,,,,,,,,,,,,,,,,,,,,,,,,,,,,,,,,,,,,,,,,,,,,,,,,,,,,,,,,,,,,,,,,,,,,,,,,,,,,,,
1725717317.171832,1725717317.171988,74.0,0.0,4309.230957,4290.897461,4275.256348,4296.794922,4244.615234,4248.974121,4131.410156,4248.333496,4270.512695,4249.358887,4486.666504,4539.743652,4387.436035,4446.922852,0.0,0.0,11.0,,,,0.0,4.0,4.0,4.0,4.0,4.0,4.0,4.0,4.0,4.0,4.0,4.0,4.0,4.0,4.0,100.0,,,,,,,,,,,,,,,,,,,,,,,,,,,,,,,,,,,,,,,,,,,,,,,,,,,,,,,,,,,,,,,,,,,,,,,,,,,,,,,,,,,,,,,,,,,,,,,,,,,,,,,,,,,,,,,,,,,,,,,,,,,,,,,,,,,
1725717317.175736,1725717317.175892,75.0,0.0,4309.487305,4284.615234,4277.05127,4293.974121,4241.025879,4248.974121,4131.794922,4247.436035,4264.615234,4244.871582,4484.487305,4537.563965,4387.820313,4446.538574,0.0,0.0,11.0,,,,0.0,4.0,4.0,4.0,4.0,4.0,4.0,4.0,4.0,4.0,4.0,4.0,4.0,4.0,4.0,100.0,,,,,,,,,,,,,,,,,,,,,,,,,,,,,,,,,,,,,,,,,,,,,,,,,,,,,,,,,,,,,,,,,,,,,,,,,,,,,,,,,,,,,,,,,,,,,,,,,,,,,,,,,,,,,,,,,,,,,,,,,,,,,,,,,,,
1725717317.17964,1725717317.179796,76.0,0.0,4309.358887,4282.307617,4279.102539,4290.769043,4236.538574,4247.692383,4132.94873,4246.025879,4261.666504,4238.589844,4488.077148,4537.436035,4389.487305,4446.794922,0.0,0.0,11.0,,,,0.0,4.0,4.0,4.0,4.0,4.0,4.0,4.0,4.0,4.0,4.0,4.0,4.0,4.0,4.0,100.0,,,,,,,,,,,,,,,,,,,,,,,,,,,,,,,,,,,,,,,,,,,,,,,,,,,,,,,,0.0,0.0,1.0,0.0,1.0,0.0,,,,,,,,,,,,,,,,,,,,,,,,,,,,,,,,,,,,,,,,,,,,,,,,,,,,,,,,,,,,,,,,,,,,,,
1725717317.183544,1725717317.1837,77.0,0.0,4310.0,4285.512695,4280.384766,4289.487305,4233.205078,4245.769043,4135.256348,4244.487305,4260.897461,4232.820313,4496.410156,4539.615234,4391.282227,4448.461426,0.0,0.0,11.0,,,,0.0,4.0,4.0,4.0,4.0,4.0,4.0,4.0,4.0,4.0,4.0,4.0,4.0,4.0,4.0,100.0,,,,,,,,,,,,,,,,,,,,,,,,,,,,,,,,,,,,,,,,,,,,,,,,,,,,,,,,,,,,,,,,,,,,,,,,,,,,,,,,,,,,,,,,,,,,,,,,,,,,,,,,,,,,,,,,,,,,,,,,,,,,,,,,,,,
1725717317.187448,1725717317.187504,78.0,0.0,4312.692383,4292.436035,4281.025879,4291.538574,4232.820313,4244.487305,4138.077148,4244.487305,4261.794922,4231.794922,4505.641113,4544.102539,4392.307617,4452.307617,0.0,0.0,11.0,,,,0.0,4.0,4.0,4.0,4.0,4.0,4.0,4.0,4.0,4.0,4.0,4.0,4.0,4.0,4.0,100.0,,,,,,,,,,,,,,,,,,,,,,,,,,,,,,,,,,,,,,,,,,,,,,,,,,,,,,,,,,,,,,,,,,,,,,,,,,,,,,,,,,,,,,,,,,,,,,,,,,,,,,,,,,,,,,,,,,,,,,,,,,,,,,,,,,,
1725717317.191352,1725717317.191408,79.0,0.0,4316.922852,4298.589844,4282.179688,4296.153809,4235.512695,4244.743652,4140.641113,4246.538574,4263.461426,4237.179688,4511.410156,4549.743652,4392.179688,4457.307617,0.0,0.0,11.0,,,,0.0,4.0,4.0,4.0,4.0,4.0,4.0,4.0,4.0,4.0,4.0,4.0,4.0,4.0,4.0,100.0,,,,,,,,,,,,,,,,,,,,,,,,,,,,,,,,,,,,,,,,,,,,,,,,,,,,,,,,,,,,,,,,,,,,,,,,,,,,,,,,,,,,,,,,,,,,,,,,,,,,,,,,,,,,,,,,,,,,,,,,,,,,,,,,,,,
1725717317.195257,1725717317.195313,80.0,0.0,4320.512695,4300.512695,4283.717773,4299.615234,4239.230957,4246.153809,4142.436035,4248.589844,4265.256348,4246.282227,4510.256348,4552.94873,4390.128418,4461.025879,0.0,0.0,11.0,,,,0.0,4.0,4.0,4.0,4.0,4.0,4.0,4.0,4.0,4.0,4.0,4.0,4.0,4.0,4.0,100.0,,,,,,,,,,,,,,,,,,,,,,,,,,,,,,,,,,,,,,,,,,,,,,,,,,,,,,,,,,,,,,,,,,,,,,,,,,,,,,,,,,,,,,,,,,,,,,,,,,,,,,,,,,,,,,,,,,,,,,,,,,,,,,,,,,,
1725717317.199161,1725717317.199317,81.0,0.0,4321.410156,4297.179688,4284.487305,4299.102539,4241.666504,4247.563965,4143.333496,4247.692383,4266.282227,4252.436035,4502.307617,4550.128418,4385.897461,4460.512695,0.0,0.0,11.0,,,,0.0,4.0,4.0,4.0,4.0,4.0,4.0,4.0,4.0,4.0,4.0,4.0,4.0,4.0,4.0,100.0,,,,,,,,,,,,,,,,,,,,,,,,,,,,,,,,,,,,,,,,,,,,,,,,,,,,,,,,,,,,,,,,,,,,,,,,,,,,,,,,,,,,,,,,,,,,,,,,,,,,,,,,,,,,,,,,,,,,,,,,,,,,,,,,,,,
1725717317.203065,1725717317.203221,82.0,0.0,4318.589844,4290.897461,4283.205078,4294.487305,4241.410156,4247.820313,4143.974121,4242.05127,4265.512695,4250.512695,4491.153809,4540.769043,4380.512695,4455.0,0.0,0.0,11.0,,,,0.0,4.0,4.0,4.0,4.0,4.0,4.0,4.0,4.0,4.0,4.0,4.0,4.0,4.0,4.0,100.0,,,,,,,,,,,,,,,,,,,,,,,,,,,,,,,,,,,,,,,,,,,,,,,,,,,,,,,,,,,,,,,,,,,,,,,,,,,,,,,,,,,,,,,,,,,,,,,,,,,,,,,,,,,,,,,,,,,,,,,,,,,,,,,,,,,
1725717317.206969,1725717317.207125,83.0,0.0,4313.333496,4284.743652,4280.256348,4288.333496,4238.974121,4247.05127,4144.230957,4234.230957,4262.94873,4240.897461,4482.05127,4528.974121,4376.410156,4447.05127,0.0,0.0,11.0,,,,0.0,4.0,4.0,4.0,4.0,4.0,4.0,4.0,4.0,4.0,4.0,4.0,4.0,4.0,4.0,100.0,,,,,,,,,,,,,,,,,,,,,,,,,,,,,,,,,,,,,,,,,,,,,,,,,,,,,,,,,,,,,,,,,,,,,,,,,,,,,,,,,,,,,,,,,,,,,,,,,,,,,,,,,,,,,,,,,,,,,,,,,,,,,,,,,,,
1725717317.210873,1725717317.211129,84.0,0.0,4308.589844,4280.769043,4277.179688,4283.717773,4235.641113,4246.025879,4143.589844,4228.974121,4260.0,4230.128418,4478.717773,4521.922852,4376.025879,4441.282227,0.0,0.0,11.0,,,,0.0,4.0,4.0,4.0,4.0,4.0,4.0,4.0,4.0,4.0,4.0,4.0,4.0,4.0,4.0,100.0,,,,,,,,,,,,,,,,,1.0,0.0,0.0,,,,,,,,,,,,,,,,,,,,,,,,,,,,,,,,,,,,,0.0,0.0,1.0,0.0,1.0,0.0,2.374013,2.559815,0.970272,0.429196,0.121922,1.874111,2.577679,1.193201,0.262493,0.172749,2.273286,2.338926,0.835218,0.366149,0.076669,1.542567,1.940081,0.966541,0.496271,0.101501,0.540191,1.263617,0.360762,0.149294,0.102756,4.230711,1.40884,0.456638,0.270937,0.127477,1.85201,0.896276,0.499022,0.146216,0.067226,1.057687,0.991772,0.349584,0.377841,0.150744,1.582487,1.302384,0.519912,0.284849,0.110402,1.445802,2.079626,1.371439,0.707213,0.141412,1.864573,2.947033,1.390491,0.929635,0.293748,3.61983,4.952668,1.642461,1.184607,0.173131,1.750396,4.19373,2.198353,0.885066,0.310629,1.959059,3.385298,1.322651,0.660472,0.124727
1725717317.214777,1725717317.215033,85.0,0.0,4306.666504,4279.743652,4275.384766,4282.307617,4233.333496,4245.769043,4141.794922,4230.0,4258.717773,4225.384766,4482.436035,4523.333496,4379.487305,4440.384766,0.0,0.0,11.0,,,,0.0,4.0,4.0,4.0,4.0,4.0,4.0,4.0,4.0,4.0,4.0,4.0,4.0,4.0,4.0,100.0,,,,,,,,,,,,,,,,,,,,,,,,,,,,,,,,,,,,,,,,,,,,,,,,,,,,,,,,,,,,,,,,,,,,,,,,,,,,,,,,,,,,,,,,,,,,,,,,,,,,,,,,,,,,,,,,,,,,,,,,,,,,,,,,,,,
1725717317.218681,1725717317.218937,86.0,0.0,4308.077148,4280.512695,4275.769043,4283.205078,4233.077148,4246.410156,4139.230957,4237.179688,4260.641113,4229.615234,4490.769043,4531.922852,4384.102539,4443.717773,0.0,0.0,11.0,,,,0.0,4.0,4.0,4.0,4.0,4.0,4.0,4.0,4.0,4.0,4.0,4.0,4.0,4.0,4.0,100.0,,,,,,,,,,,,,,,,,,,,,,,,,,,,,,,,,,,,,,,,,,,,,,,,,,,,,,,,,,,,,,,,,,,,,,,,,,,,,,,,,,,,,,,,,,,,,,,,,,,,,,,,,,,,,,,,,,,,,,,,,,,,,,,,,,,
1725717317.222585,1725717317.222841,87.0,0.0,4311.153809,4281.410156,4277.563965,4284.743652,4234.487305,4247.820313,4137.563965,4246.538574,4265.384766,4240.0,4499.358887,4542.436035,4386.538574,4448.333496,0.0,0.0,11.0,,,,0.0,4.0,4.0,4.0,4.0,4.0,4.0,4.0,4.0,4.0,4.0,4.0,4.0,4.0,4.0,100.0,,,,,,,,,,,,,,,,,,,,,,,,,,,,,,,,,,,,,,,,,,,,,,,,,,,,,,,,,,,,,,,,,,,,,,,,,,,,,,,,,,,,,,,,,,,,,,,,,,,,,,,,,,,,,,,,,,,,,,,,,,,,,,,,,,,
1725717317.226489,1725717317.226745,88.0,0.0,4313.461426,4281.538574,4279.487305,4285.384766,4236.025879,4249.358887,4138.461426,4253.846191,4271.794922,4250.384766,4503.333496,4550.256348,4384.615234,4451.410156,0.0,0.0,11.0,,,,0.0,4.0,4.0,4.0,4.0,4.0,4.0,4.0,4.0,4.0,4.0,4.0,4.0,4.0,4.0,100.0,,,,,,,,,,,,,,,,,,,,,,,,,,,,,,,,,,,,,,,,,,,,,,,,,,,,,,,,,,,,,,,,,,,,,,,,,,,,,,,,,,,,,,,,,,,,,,,,,,,,,,,,,,,,,,,,,,,,,,,,,,,,,,,,,,,
1725717317.230394,1725717317.230549,89.0,0.0,4312.436035,4281.025879,4280.0,4284.615234,4236.410156,4250.512695,4142.179688,4256.410156,4277.05127,4255.256348,4500.128418,4552.563965,4378.974121,4451.153809,0.0,0.0,11.0,,,,0.0,4.0,4.0,4.0,4.0,4.0,4.0,4.0,4.0,4.0,4.0,4.0,4.0,4.0,4.0,100.0,,,,,,,,,,,,,,,,,,,,,,,,,,,,,,,,,,,,,,,,,,,,,,,,,,,,,,,,,,,,,,,,,,,,,,,,,,,,,,,,,,,,,,,,,,,,,,,,,,,,,,,,,,,,,,,,,,,,,,,,,,,,,,,,,,,
1725717317.234298,1725717317.234453,90.0,0.0,4307.563965,4280.512695,4278.846191,4282.820313,4235.897461,4250.769043,4147.307617,4254.615234,4278.846191,4253.717773,4490.256348,4549.230957,4372.307617,4447.563965,0.0,0.0,11.0,,,,0.0,4.0,4.0,4.0,4.0,4.0,4.0,4.0,4.0,4.0,4.0,4.0,4.0,4.0,4.0,100.0,,,,,,,,,,,,,,,,,,,,,,,,,,,,,,,,,,,,,,,,,,,,,,,,,,,,,,,,,,,,,,,,,,,,,,,,,,,,,,,,,,,,,,,,,,,,,,,,,,,,,,,,,,,,,,,,,,,,,,,,,,,,,,,,,,,
1725717317.238202,1725717317.238358,91.0,0.0,4300.641113,4280.384766,4276.025879,4281.153809,4235.128418,4249.743652,4151.410156,4250.641113,4276.410156,4248.974121,4477.179688,4542.179688,4367.307617,4442.307617,0.0,0.0,11.0,,,,0.0,4.0,4.0,4.0,4.0,4.0,4.0,4.0,4.0,4.0,4.0,4.0,4.0,4.0,4.0,100.0,,,,,,,,,,,,,,,,,,,,,,,,,,,,,,,,,,,,,,,,,,,,,,,,,,,,,,,,,,,,,,,,,,,,,,,,,,,,,,,,,,,,,,,,,,,,,,,,,,,,,,,,,,,,,,,,,,,,,,,,,,,,,,,,,,,
1725717317.242106,1725717317.242262,92.0,0.0,4295.0,4280.641113,4271.794922,4280.512695,4235.641113,4248.205078,4153.205078,4247.307617,4271.538574,4245.0,4465.128418,4534.102539,4365.512695,4437.307617,0.0,0.0,11.0,,,,0.0,4.0,4.0,4.0,4.0,4.0,4.0,4.0,4.0,4.0,4.0,4.0,4.0,4.0,4.0,100.0,,,,,,,,,,,,,,,,,,,,,,,,,,,,,,,,,,,,,,,,,,,,,,,,,,,,,,,,0.0,0.0,1.0,0.0,1.0,0.0,,,,,,,,,,,,,,,,,,,,,,,,,,,,,,,,,,,,,,,,,,,,,,,,,,,,,,,,,,,,,,,,,,,,,,
1725717317.24601,1725717317.246066,93.0,0.0,4292.820313,4281.410156,4267.820313,4280.897461,4237.94873,4247.307617,4152.820313,4246.538574,4267.179688,4243.717773,4457.563965,4527.94873,4366.153809,4433.974121,0.0,0.0,11.0,,,,0.0,4.0,4.0,4.0,4.0,4.0,4.0,4.0,4.0,4.0,4.0,4.0,4.0,4.0,4.0,100.0,,,,,,,,,,,,,,,,,,,,,,,,,,,,,,,,,,,,,,,,,,,,,,,,,,,,,,,,,,,,,,,,,,,,,,,,,,,,,,,,,,,,,,,,,,,,,,,,,,,,,,,,,,,,,,,,,,,,,,,,,,,,,,,,,,,
1725717317.249914,1725717317.24997,94.0,0.0,4293.589844,4282.563965,4265.769043,4281.794922,4241.410156,4247.94873,4151.666504,4247.692383,4265.0,4244.230957,4455.897461,4525.256348,4366.794922,4432.05127,0.0,0.0,11.0,,,,0.0,4.0,4.0,4.0,4.0,4.0,4.0,4.0,4.0,4.0,4.0,4.0,4.0,4.0,4.0,100.0,,,,,,,,,,,,,,,,,,,,,,,,,,,,,,,,,,,,,,,,,,,,,,,,,,,,,,,,,,,,,,,,,,,,,,,,,,,,,,,,,,,,,,,,,,,,,,,,,,,,,,,,,,,,,,,,,,,,,,,,,,,,,,,,,,,
1725717317.253818,1725717317.253874,95.0,0.0,4295.128418,4283.205078,4266.025879,4282.436035,4244.487305,4249.743652,4150.897461,4248.974121,4265.128418,4244.615234,4458.461426,4525.128418,4365.256348,4430.384766,0.0,0.0,11.0,,,,0.0,4.0,4.0,4.0,4.0,4.0,4.0,4.0,4.0,4.0,4.0,4.0,4.0,4.0,4.0,100.0,,,,,,,,,,,,,,,,,,,,,,,,,,,,,,,,,,,,,,,,,,,,,,,,,,,,,,,,,,,,,,,,,,,,,,,,,,,,,,,,,,,,,,,,,,,,,,,,,,,,,,,,,,,,,,,,,,,,,,,,,,,,,,,,,,,
1725717317.257722,1725717317.257778,96.0,0.0,4294.487305,4282.563965,4266.410156,4282.563965,4246.282227,4251.410156,4151.025879,4248.717773,4265.512695,4243.205078,4461.282227,4525.128418,4362.05127,4427.820313,0.0,0.0,11.0,,,,0.0,4.0,4.0,4.0,4.0,4.0,4.0,4.0,4.0,4.0,4.0,4.0,4.0,4.0,4.0,100.0,,,,,,,,,,,,,,,,,,,,,,,,,,,,,,,,,,,,,,,,,,,,,,,,,,,,,,,,,,,,,,,,,,,,,,,,,,,,,,,,,,,,,,,,,,,,,,,,,,,,,,,,,,,,,,,,,,,,,,,,,,,,,,,,,,,
1725717317.261626,1725717317.261582,97.0,0.0,4290.641113,4281.025879,4264.487305,4282.05127,4246.922852,4251.794922,4152.179688,4246.538574,4264.487305,4240.0,4461.666504,4522.179688,4358.589844,4423.589844,0.0,0.0,11.0,,,,0.0,4.0,4.0,4.0,4.0,4.0,4.0,4.0,4.0,4.0,4.0,4.0,4.0,4.0,4.0,100.0,,,,,,,,,,,,,,,,,,,,,,,,,,,,,,,,,,,,,,,,,,,,,,,,,,,,,,,,,,,,,,,,,,,,,,,,,,,,,,,,,,,,,,,,,,,,,,,,,,,,,,,,,,,,,,,,,,,,,,,,,,,,,,,,,,,
1725717317.26553,1725717317.265487,98.0,0.0,4284.871582,4279.358887,4259.743652,4281.153809,4247.307617,4251.025879,4153.717773,4243.461426,4261.538574,4235.512695,4459.358887,4515.641113,4356.153809,4418.333496,0.0,0.0,11.0,,,,0.0,4.0,4.0,4.0,4.0,4.0,4.0,4.0,4.0,4.0,4.0,4.0,4.0,4.0,4.0,100.0,,,,,,,,,,,,,,,,,,,,,,,,,,,,,,,,,,,,,,,,,,,,,,,,,,,,,,,,,,,,,,,,,,,,,,,,,,,,,,,,,,,,,,,,,,,,,,,,,,,,,,,,,,,,,,,,,,,,,,,,,,,,,,,,,,,
1725717317.269435,1725717317.269391,99.0,0.0,4279.743652,4278.333496,4254.487305,4280.0,4247.563965,4250.256348,4155.0,4240.641113,4257.820313,4230.641113,4456.666504,4508.461426,4354.615234,4413.077148,0.0,0.0,11.0,,,,0.0,4.0,4.0,4.0,4.0,4.0,4.0,4.0,4.0,4.0,4.0,4.0,4.0,4.0,4.0,100.0,,,,,,,,,,,,,,,,,,,,,,,,,,,,,,,,,,,,,,,,,,,,,,,,,,,,,,,,,,,,,,,,,,,,,,,,,,,,,,,,,,,,,,,,,,,,,,,,,,,,,,,,,,,,,,,,,,,,,,,,,,,,,,,,,,,
1725717317.273339,1725717317.273295,100.0,0.0,4277.94873,4278.461426,4251.666504,4278.846191,4247.820313,4251.282227,4155.256348,4239.743652,4255.128418,4226.794922,4455.897461,4504.871582,4353.333496,4409.871582,0.0,0.0,11.0,,,,0.0,4.0,4.0,4.0,4.0,4.0,4.0,4.0,4.0,4.0,4.0,4.0,4.0,4.0,4.0,100.0,,,,,,,,,,,,,,,,,,,,,,,,,,,,,,,,,,,,,,,,,,,,,,,,,,,,,,,,0.0,0.0,1.0,0.0,1.0,0.0,,,,,,,,,,,,,,,,,,,,,,,,,,,,,,,,,,,,,,,,,,,,,,,,,,,,,,,,,,,,,,,,,,,,,,
1725717317.277243,1725717317.277099,101.0,0.0,4279.615234,4279.615234,4252.820313,4278.205078,4248.205078,4255.128418,4154.871582,4242.05127,4255.128418,4225.512695,4457.692383,4507.820313,4351.794922,4410.0,0.0,0.0,11.0,,,,0.0,4.0,4.0,4.0,4.0,4.0,4.0,4.0,4.0,4.0,4.0,4.0,4.0,4.0,4.0,100.0,,,,,,,,,,,,,,,,,,,,,,,,,,,,,,,,,,,,,,,,,,,,,,,,,,,,,,,,,,,,,,,,,,,,,,,,,,,,,,,,,,,,,,,,,,,,,,,,,,,,,,,,,,,,,,,,,,,,,,,,,,,,,,,,,,,
1725717317.281147,1725717317.281003,102.0,0.0,4282.563965,4281.153809,4256.666504,4278.461426,4248.589844,4260.769043,4154.230957,4246.922852,4258.077148,4226.922852,4460.769043,4515.641113,4350.384766,4412.94873,0.0,0.0,11.0,,,,0.0,4.0,4.0,4.0,4.0,4.0,4.0,4.0,4.0,4.0,4.0,4.0,4.0,4.0,4.0,100.0,,,,,,,,,,,,,,,,,,,,,,,,,,,,,,,,,,,,,,,,,,,,,,,,,,,,,,,,,,,,,,,,,,,,,,,,,,,,,,,,,,,,,,,,,,,,,,,,,,,,,,,,,,,,,,,,,,,,,,,,,,,,,,,,,,,
1725717317.285051,1725717317.284907,103.0,0.0,4284.358887,4282.05127,4259.615234,4279.230957,4248.717773,4265.769043,4153.974121,4251.794922,4263.333496,4230.384766,4463.077148,4523.077148,4349.871582,4416.666504,0.0,0.0,11.0,,,,0.0,4.0,4.0,4.0,4.0,4.0,4.0,4.0,4.0,4.0,4.0,4.0,4.0,4.0,4.0,100.0,,,,,,,,,,,,,,,,,,,,,,,,,,,,,,,,,,,,,,,,,,,,,,,,,,,,,,,,,,,,,,,,,,,,,,,,,,,,,,,,,,,,,,,,,,,,,,,,,,,,,,,,,,,,,,,,,,,,,,,,,,,,,,,,,,,
1725717317.288955,1725717317.288911,104.0,0.0,4283.846191,4281.922852,4258.974121,4279.871582,4248.846191,4267.307617,4153.846191,4253.461426,4268.205078,4233.974121,4463.461426,4525.0,4350.0,4418.461426,0.0,0.0,11.0,,,,0.0,4.0,4.0,4.0,4.0,4.0,4.0,4.0,4.0,4.0,4.0,4.0,4.0,4.0,4.0,100.0,,,,,,,,,,,,,,,,,,,,,,,,,,,,,,,,,,,,,,,,,,,,,,,,,,,,,,,,,,,,,,,,,,,,,,,,,,,,,,,,,,,,,,,,,,,,,,,,,,,,,,,,,,,,,,,,,,,,,,,,,,,,,,,,,,,
1725717317.292859,1725717317.292815,105.0,0.0,4281.794922,4280.769043,4254.743652,4279.230957,4248.974121,4264.487305,4153.589844,4250.0,4269.743652,4235.641113,4462.563965,4519.871582,4349.102539,4417.307617,0.0,0.0,11.0,,,,0.0,4.0,4.0,4.0,4.0,4.0,4.0,4.0,4.0,4.0,4.0,4.0,4.0,4.0,4.0,100.0,,,,,,,,,,,,,,,,,,,,,,,,,,,,,,,,,,,,,,,,,,,,,,,,,,,,,,,,,,,,,,,,,,,,,,,,,,,,,,,,,,,,,,,,,,,,,,,,,,,,,,,,,,,,,,,,,,,,,,,,,,,,,,,,,,,
1725717317.296763,1725717317.296719,106.0,0.0,4279.743652,4279.615234,4249.743652,4277.05127,4249.487305,4258.333496,4152.94873,4242.05127,4265.897461,4234.102539,4461.025879,4510.769043,4346.282227,4414.230957,0.0,0.0,11.0,,,,0.0,4.0,4.0,4.0,4.0,4.0,4.0,4.0,4.0,4.0,4.0,4.0,4.0,4.0,4.0,100.0,,,,,,,,,,,,,,,,,,,,,,,,,,,,,,,,,,,,,,,,,,,,,,,,,,,,,,,,,,,,,,,,,,,,,,,,,,,,,,,,,,,,,,,,,,,,,,,,,,,,,,,,,,,,,,,,,,,,,,,,,,,,,,,,,,,
1725717317.300667,1725717317.300623,107.0,0.0,4278.205078,4279.230957,4246.922852,4273.717773,4250.128418,4251.922852,4152.436035,4232.94873,4258.077148,4230.641113,4459.358887,4502.563965,4342.05127,4411.153809,0.0,0.0,11.0,,,,0.0,4.0,4.0,4.0,4.0,4.0,4.0,4.0,4.0,4.0,4.0,4.0,4.0,4.0,4.0,100.0,,,,,,,,,,,,,,,,,,,,,,,,,,,,,,,,,,,,,,,,,,,,,,,,,,,,,,,,,,,,,,,,,,,,,,,,,,,,,,,,,,,,,,,,,,,,,,,,,,,,,,,,,,,,,,,,,,,,,,,,,,,,,,,,,,,
1725717317.304572,1725717317.304627,108.0,0.0,4277.436035,4279.487305,4247.179688,4270.512695,4250.641113,4247.820313,4152.179688,4226.153809,4250.769043,4227.94873,4457.692383,4498.333496,4338.846191,4409.487305,0.0,0.0,11.0,,,,0.0,4.0,4.0,4.0,4.0,4.0,4.0,4.0,4.0,4.0,4.0,4.0,4.0,4.0,4.0,100.0,,,,,,,,,,,,,,,,,,,,,,,,,,,,,,,,,,,,,,,,,,,,,,,,,,,,,,,,0.0,0.0,1.0,0.0,1.0,0.0,,,,,,,,,,,,,,,,,,,,,,,,,,,,,,,,,,,,,,,,,,,,,,,,,,,,,,,,,,,,,,,,,,,,,,
1725717317.308476,1725717317.308532,109.0,0.0,4277.307617,4279.743652,4248.974121,4268.461426,4250.897461,4247.179688,4152.436035,4224.615234,4247.692383,4228.205078,4457.179688,4498.461426,4339.358887,4409.487305,0.0,0.0,11.0,,,,0.0,4.0,4.0,4.0,4.0,4.0,4.0,4.0,4.0,4.0,4.0,4.0,4.0,4.0,4.0,100.0,,,,,,,,,,,,,,,,,,,,,,,,,,,,,,,,,,,,,,,,,,,,,,,,,,,,,,,,,,,,,,,,,,,,,,,,,,,,,,,,,,,,,,,,,,,,,,,,,,,,,,,,,,,,,,,,,,,,,,,,,,,,,,,,,,,
1725717317.31238,1725717317.312436,110.0,0.0,4277.563965,4278.974121,4250.512695,4268.077148,4251.025879,4248.717773,4152.94873,4227.820313,4250.384766,4230.897461,4458.333496,4501.538574,4343.846191,4410.897461,0.0,0.0,11.0,,,,0.0,4.0,4.0,4.0,4.0,4.0,4.0,4.0,4.0,4.0,4.0,4.0,4.0,4.0,4.0,100.0,,,,,,,,,,,,,,,,,,,,,,,,,,,,,,,,,,,,,,,,,,,,,,,,,,,,,,,,,,,,,,,,,,,,,,,,,,,,,,,,,,,,,,,,,,,,,,,,,,,,,,,,,,,,,,,,,,,,,,,,,,,,,,,,,,,
1725717317.316284,1725717317.31644,111.0,0.0,4278.333496,4276.666504,4250.769043,4268.717773,4251.282227,4250.256348,4153.717773,4233.077148,4255.769043,4233.205078,4460.384766,4506.153809,4350.128418,4413.333496,0.0,0.0,11.0,,,,0.0,4.0,4.0,4.0,4.0,4.0,4.0,4.0,4.0,4.0,4.0,4.0,4.0,4.0,4.0,100.0,,,,,,,,,,,,,,,,,,,,,,,,,,,,,,,,,,,,,,,,,,,,,,,,,,,,,,,,,,,,,,,,,,,,,,,,,,,,,,,,,,,,,,,,,,,,,,,,,,,,,,,,,,,,,,,,,,,,,,,,,,,,,,,,,,,
1725717317.320188,1725717317.320344,112.0,0.0,4279.230957,4272.94873,4250.512695,4269.487305,4251.538574,4250.128418,4154.102539,4236.538574,4259.102539,4232.05127,4461.025879,4510.0,4354.487305,4415.384766,0.0,0.0,11.0,,,,0.0,4.0,4.0,4.0,4.0,4.0,4.0,4.0,4.0,4.0,4.0,4.0,4.0,4.0,4.0,100.0,,,,,,,,,,,,,,,,,,,,,,,,,,,,,,,,,,,,,,,,,,,,,,,,,,,,,,,,,,,,,,,,,,,,,,,,,,,,,,,,,,,,,,,,,,,,,,,,,,,,,,,,,,,,,,,,,,,,,,,,,,,,,,,,,,,
1725717317.324092,1725717317.324248,113.0,0.0,4279.615234,4268.846191,4250.384766,4269.230957,4251.922852,4248.333496,4154.102539,4235.769043,4257.563965,4226.282227,4458.846191,4510.897461,4354.615234,4416.153809,0.0,0.0,11.0,,,,0.0,4.0,4.0,4.0,4.0,4.0,4.0,4.0,4.0,4.0,4.0,4.0,4.0,4.0,4.0,100.0,,,,,,,,,,,,,,,,,,,,,,,,,,,,,,,,,,,,,,,,,,,,,,,,,,,,,,,,,,,,,,,,,,,,,,,,,,,,,,,,,,,,,,,,,,,,,,,,,,,,,,,,,,,,,,,,,,,,,,,,,,,,,,,,,,,
1725717317.327996,1725717317.328152,114.0,0.0,4279.230957,4265.641113,4250.769043,4267.94873,4252.436035,4246.410156,4153.589844,4231.538574,4251.794922,4218.205078,4453.974121,4507.436035,4350.0,4414.743652,0.0,0.0,11.0,,,,0.0,4.0,4.0,4.0,4.0,4.0,4.0,4.0,4.0,4.0,4.0,4.0,4.0,4.0,4.0,100.0,,,,,,,,,,,,,,,,,,,,,,,,,,,,,,,,,,,,,,,,,,,,,,,,,,,,,,,,,,,,,,,,,,,,,,,,,,,,,,,,,,,,,,,,,,,,,,,,,,,,,,,,,,,,,,,,,,,,,,,,,,,,,,,,,,,
1725717317.3319,1725717317.332156,115.0,0.0,4278.717773,4264.230957,4250.897461,4266.025879,4252.563965,4245.512695,4153.205078,4227.179688,4245.897461,4212.436035,4448.333496,4501.025879,4342.820313,4411.153809,0.0,0.0,11.0,,,,0.0,4.0,4.0,4.0,4.0,4.0,4.0,4.0,4.0,4.0,4.0,4.0,4.0,4.0,4.0,100.0,,,,,,,,,,,,,,,,,,,,,,,,,,,,,,,,,,,,,,,,,,,,,,,,,,,,,,,,,,,,,,,,,,,,,,,,,,,,,,,,,,,,,,,,,,,,,,,,,,,,,,,,,,,,,,,,,,,,,,,,,,,,,,,,,,,
1725717317.335804,1725717317.33606,116.0,0.0,4278.589844,4264.615234,4250.769043,4264.102539,4252.307617,4246.282227,4153.077148,4225.641113,4243.077148,4211.282227,4443.717773,4495.0,4335.769043,4406.794922,0.0,0.0,11.0,,,,0.0,4.0,4.0,4.0,4.0,4.0,4.0,4.0,4.0,4.0,4.0,4.0,4.0,4.0,4.0,100.0,,,,,,,,,,,,,,,,,1.0,0.0,0.0,,,,,,,,,,,,,,,,,,,,,,,,,,,,,,,,,,,,,0.0,0.0,1.0,0.0,1.0,0.0,2.206995,2.502035,0.921955,0.41401,0.112779,1.811455,2.586008,1.096736,0.253323,0.171581,2.344417,2.294369,0.737089,0.355906,0.074157,1.448467,1.882824,0.857619,0.476787,0.101636,0.51628,1.088415,0.333525,0.137539,0.102459,6.282658,1.719824,0.526115,0.333426,0.145537,2.22404,0.934177,0.488,0.153037,0.063726,1.080509,1.002946,0.448223,0.365531,0.149746,1.586362,1.227962,0.518858,0.269547,0.091976,1.686595,1.946192,1.224852,0.704639,0.138398,2.246094,2.892503,1.327055,0.902239,0.245129,3.75539,4.638837,1.499735,1.063092,0.189183,2.176867,4.014563,1.988778,0.919504,0.332197,1.956759,3.239383,1.212299,0.618308,0.138287
1725717317.339708,1725717317.339964,117.0,0.0,4278.974121,4265.256348,4251.666504,4262.820313,4251.666504,4247.94873,4153.461426,4227.820313,4244.358887,4214.230957,4441.025879,4492.820313,4330.0,4403.589844,0.0,0.0,11.0,,,,0.0,4.0,4.0,4.0,4.0,4.0,4.0,4.0,4.0,4.0,4.0,4.0,4.0,4.0,4.0,100.0,,,,,,,,,,,,,,,,,,,,,,,,,,,,,,,,,,,,,,,,,,,,,,,,,,,,,,,,,,,,,,,,,,,,,,,,,,,,,,,,,,,,,,,,,,,,,,,,,,,,,,,,,,,,,,,,,,,,,,,,,,,,,,,,,,,
1725717317.343612,1725717317.343868,118.0,0.0,4279.487305,4264.230957,4254.487305,4262.94873,4250.769043,4249.102539,4153.974121,4231.666504,4247.94873,4218.333496,4441.025879,4495.641113,4325.897461,4403.205078,0.0,0.0,11.0,,,,0.0,4.0,4.0,4.0,4.0,4.0,4.0,4.0,4.0,4.0,4.0,4.0,4.0,4.0,4.0,100.0,,,,,,,,,,,,,,,,,,,,,,,,,,,,,,,,,,,,,,,,,,,,,,,,,,,,,,,,,,,,,,,,,,,,,,,,,,,,,,,,,,,,,,,,,,,,,,,,,,,,,,,,,,,,,,,,,,,,,,,,,,,,,,,,,,,
1725717317.347516,1725717317.347772,119.0,0.0,4280.0,4260.384766,4258.589844,4263.974121,4249.743652,4248.846191,4154.230957,4234.487305,4251.666504,4220.897461,4443.846191,4501.538574,4323.846191,4405.384766,0.0,0.0,11.0,,,,0.0,4.0,4.0,4.0,4.0,4.0,4.0,4.0,4.0,4.0,4.0,4.0,4.0,4.0,4.0,100.0,,,,,,,,,,,,,,,,,,,,,,,,,,,,,,,,,,,,,,,,,,,,,,,,,,,,,,,,,,,,,,,,,,,,,,,,,,,,,,,,,,,,,,,,,,,,,,,,,,,,,,,,,,,,,,,,,,,,,,,,,,,,,,,,,,,
1725717317.351421,1725717317.351577,120.0,0.0,4280.128418,4255.256348,4262.692383,4265.128418,4248.846191,4247.692383,4154.102539,4235.256348,4253.974121,4221.282227,4448.333496,4507.05127,4324.615234,4408.974121,0.0,0.0,11.0,,,,0.0,4.0,4.0,4.0,4.0,4.0,4.0,4.0,4.0,4.0,4.0,4.0,4.0,4.0,4.0,100.0,,,,,,,,,,,,,,,,,,,,,,,,,,,,,,,,,,,,,,,,,,,,,,,,,,,,,,,,,,,,,,,,,,,,,,,,,,,,,,,,,,,,,,,,,,,,,,,,,,,,,,,,,,,,,,,,,,,,,,,,,,,,,,,,,,,
1725717317.355325,1725717317.355481,121.0,0.0,4280.128418,4251.025879,4265.128418,4265.128418,4248.717773,4246.922852,4153.461426,4234.358887,4255.256348,4220.641113,4451.538574,4509.871582,4327.179688,4411.794922,0.0,0.0,11.0,,,,0.0,4.0,4.0,4.0,4.0,4.0,4.0,4.0,4.0,4.0,4.0,4.0,4.0,4.0,4.0,100.0,,,,,,,,,,,,,,,,,,,,,,,,,,,,,,,,,,,,,,,,,,,,,,,,,,,,,,,,,,,,,,,,,,,,,,,,,,,,,,,,,,,,,,,,,,,,,,,,,,,,,,,,,,,,,,,,,,,,,,,,,,,,,,,,,,,
1725717317.359229,1725717317.359385,122.0,0.0,4280.128418,4248.974121,4265.641113,4262.94873,4249.230957,4247.436035,4152.05127,4232.94873,4255.897461,4220.256348,4450.512695,4510.0,4329.358887,4412.179688,0.0,0.0,11.0,,,,0.0,4.0,4.0,4.0,4.0,4.0,4.0,4.0,4.0,4.0,4.0,4.0,4.0,4.0,4.0,100.0,,,,,,,,,,,,,,,,,,,,,,,,,,,,,,,,,,,,,,,,,,,,,,,,,,,,,,,,,,,,,,,,,,,,,,,,,,,,,,,,,,,,,,,,,,,,,,,,,,,,,,,,,,,,,,,,,,,,,,,,,,,,,,,,,,,
1725717317.363133,1725717317.363289,123.0,0.0,4280.384766,4247.94873,4264.487305,4258.974121,4249.743652,4248.589844,4149.743652,4231.794922,4256.025879,4220.769043,4444.230957,4509.230957,4328.974121,4409.743652,0.0,0.0,11.0,,,,0.0,4.0,4.0,4.0,4.0,4.0,4.0,4.0,4.0,4.0,4.0,4.0,4.0,4.0,4.0,100.0,,,,,,,,,,,,,,,,,,,,,,,,,,,,,,,,,,,,,,,,,,,,,,,,,,,,,,,,,,,,,,,,,,,,,,,,,,,,,,,,,,,,,,,,,,,,,,,,,,,,,,,,,,,,,,,,,,,,,,,,,,,,,,,,,,,
1725717317.367037,1725717317.367093,124.0,0.0,4280.641113,4246.153809,4262.179688,4254.102539,4248.846191,4249.358887,4146.282227,4231.025879,4254.615234,4220.769043,4435.128418,4509.102539,4325.0,4405.256348,0.0,0.0,11.0,,,,0.0,4.0,4.0,4.0,4.0,4.0,4.0,4.0,4.0,4.0,4.0,4.0,4.0,4.0,4.0,100.0,,,,,,,,,,,,,,,,,,,,,,,,,,,,,,,,,,,,,,,,,,,,,,,,,,,,,,,,0.0,0.0,1.0,0.0,1.0,0.0,,,,,,,,,,,,,,,,,,,,,,,,,,,,,,,,,,,,,,,,,,,,,,,,,,,,,,,,,,,,,,,,,,,,,,
1725717317.370941,1725717317.370997,125.0,0.0,4280.128418,4242.307617,4259.871582,4249.615234,4245.769043,4248.974121,4142.692383,4230.512695,4251.153809,4218.717773,4427.820313,4509.615234,4318.461426,4400.128418,0.0,0.0,11.0,,,,0.0,4.0,4.0,4.0,4.0,4.0,4.0,4.0,4.0,4.0,4.0,4.0,4.0,4.0,4.0,100.0,,,,,,,,,,,,,,,,,,,,,,,,,,,,,,,,,,,,,,,,,,,,,,,,,,,,,,,,,,,,,,,,,,,,,,,,,,,,,,,,,,,,,,,,,,,,,,,,,,,,,,,,,,,,,,,,,,,,,,,,,,,,,,,,,,,
1725717317.374845,1725717317.374901,126.0,0.0,4278.205078,4237.179688,4258.974121,4246.666504,4240.897461,4247.307617,4140.128418,4229.871582,4247.05127,4214.358887,4427.307617,4509.743652,4312.05127,4396.282227,0.0,0.0,11.0,,,,0.0,4.0,4.0,4.0,4.0,4.0,4.0,4.0,4.0,4.0,4.0,4.0,4.0,4.0,4.0,100.0,,,,,,,,,,,,,,,,,,,,,,,,,,,,,,,,,,,,,,,,,,,,,,,,,,,,,,,,,,,,,,,,,,,,,,,,,,,,,,,,,,,,,,,,,,,,,,,,,,,,,,,,,,,,,,,,,,,,,,,,,,,,,,,,,,,
1725717317.378749,1725717317.378805,127.0,0.0,4275.641113,4232.94873,4259.615234,4245.641113,4235.512695,4245.641113,4138.461426,4229.358887,4244.871582,4209.871582,4435.769043,4508.461426,4309.871582,4394.871582,0.0,0.0,11.0,,,,0.0,4.0,4.0,4.0,4.0,4.0,4.0,4.0,4.0,4.0,4.0,4.0,4.0,4.0,4.0,100.0,,,,,,,,,,,,,,,,,,,,,,,,,,,,,,,,,,,,,,,,,,,,,,,,,,,,,,,,,,,,,,,,,,,,,,,,,,,,,,,,,,,,,,,,,,,,,,,,,,,,,,,,,,,,,,,,,,,,,,,,,,,,,,,,,,,
1725717317.382653,1725717317.38261,128.0,0.0,4273.846191,4231.410156,4261.025879,4245.512695,4231.666504,4245.641113,4137.436035,4229.487305,4246.282227,4208.717773,4450.384766,4506.666504,4313.717773,4396.282227,2693.0,0.0,11.0,,,,0.0,4.0,4.0,4.0,4.0,4.0,4.0,4.0,4.0,4.0,4.0,4.0,4.0,4.0,4.0,100.0,,,,,,,,,,,,,,,,,,,,,,,,,,,,,,,,,,,,,,,,,,,,,,,,,,,,,,,,,,,,,,,,,,,,,,,,,,,,,,,,,,,,,,,,,,,,,,,,,,,,,,,,,,,,,,,,,,,,,,,,,,,,,,,,,,,
1725717317.386557,1725717317.386514,129.0,0.0,4273.846191,4233.461426,4262.05127,4245.384766,4230.256348,4247.436035,4136.666504,4230.512695,4249.871582,4212.692383,4463.333496,4506.282227,4321.666504,4399.102539,2575.0,0.0,11.0,,,,0.0,4.0,4.0,4.0,4.0,4.0,4.0,4.0,4.0,4.0,4.0,4.0,4.0,4.0,4.0,100.0,,,,,,,,,,,,,,,,,,,,,,,,,,,,,,,,,,,,,,,,,,,,,,,,,,,,,,,,,,,,,,,,,,,,,,,,,,,,,,,,,,,,,,,,,,,,,,,,,,,,,,,,,,,,,,,,,,,,,,,,,,,,,,,,,,,
1725717317.390462,1725717317.390418,130.0,0.0,4275.0,4237.692383,4261.794922,4245.128418,4231.538574,4250.0,4136.282227,4231.794922,4252.94873,4219.743652,4466.794922,4508.461426,4329.230957,4401.922852,2513.0,0.0,11.0,,,,0.0,4.0,4.0,4.0,4.0,4.0,4.0,4.0,4.0,4.0,4.0,4.0,4.0,4.0,4.0,100.0,,,,,,,,,,,,,,,,,,,,,,,,,,,,,,,,,,,,,,,,,,,,,,,,,,,,,,,,,,,,,,,,,,,,,,,,,,,,,,,,,,,,,,,,,,,,,,,,,,,,,,,,,,,,,,,,,,,,,,,,,,,,,,,,,,,
1725717317.394366,1725717317.394422,131.0,0.0,4275.512695,4241.794922,4258.974121,4244.358887,4233.974121,4251.538574,4137.436035,4232.563965,4253.205078,4224.615234,4458.717773,4511.538574,4332.436035,4402.820313,2466.0,0.0,11.0,,,,0.0,4.0,4.0,4.0,4.0,4.0,4.0,4.0,4.0,4.0,4.0,4.0,4.0,4.0,4.0,100.0,,,,,,,,,,,,,,,,,,,,,,,,,,,,,,,,,,,,,,,,,,,,,,,,,,,,,,,,,,,,,,,,,,,,,,,,,,,,,,,,,,,,,,,,,,,,,,,,,,,,,,,,,,,,,,,,,,,,,,,,,,,,,,,,,,,
1725717317.39827,1725717317.398326,132.0,0.0,4274.102539,4243.717773,4253.333496,4243.077148,4235.256348,4251.153809,4140.128418,4232.307617,4251.025879,4223.589844,4445.512695,4511.922852,4330.897461,4401.666504,2438.0,0.0,11.0,,,,0.0,4.0,4.0,4.0,4.0,4.0,4.0,4.0,4.0,4.0,4.0,4.0,4.0,4.0,4.0,100.0,,,,,,,,,,,,,,,,,,,,,,,,,,,,,,,,,,,,,,,,,,,,,,,,,,,,,,,,0.0,0.0,1.0,0.0,1.0,0.0,,,,,,,,,,,,,,,,,,,,,,,,,,,,,,,,,,,,,,,,,,,,,,,,,,,,,,,,,,,,,,,,,,,,,,
1725717317.402174,1725717317.40223,133.0,0.0,4271.922852,4243.846191,4247.307617,4241.666504,4234.230957,4249.743652,4143.589844,4231.666504,4247.94873,4216.922852,4436.666504,4508.461426,4327.94873,4400.384766,2389.0,0.0,11.0,,,,0.0,4.0,4.0,4.0,4.0,4.0,4.0,4.0,4.0,4.0,4.0,4.0,4.0,4.0,4.0,100.0,,,,,,,,,,,,,,,,,,,,,,,,,,,,,,,,,,,,,,,,,,,,,,,,,,,,,,,,,,,,,,,,,,,,,,,,,,,,,,,,,,,,,,,,,,,,,,,,,,,,,,,,,,,,,,,,,,,,,,,,,,,,,,,,,,,
1725717317.406078,1725717317.406134,134.0,0.0,4271.538574,4244.487305,4244.102539,4241.538574,4232.179688,4249.871582,4146.922852,4231.153809,4245.769043,4209.230957,4437.692383,4504.358887,4327.563965,4401.538574,2426.0,0.0,11.0,,,,0.0,4.0,4.0,4.0,4.0,4.0,4.0,4.0,4.0,4.0,4.0,4.0,4.0,4.0,4.0,100.0,,,,,,,,,,,,,,,,,,,,,,,,,,,,,,,,,,,,,,,,,,,,,,,,,,,,,,,,,,,,,,,,,,,,,,,,,,,,,,,,,,,,,,,,,,,,,,,,,,,,,,,,,,,,,,,,,,,,,,,,,,,,,,,,,,,
1725717317.409982,1725717317.410138,135.0,0.0,4274.871582,4247.563965,4246.538574,4244.487305,4231.666504,4252.820313,4149.743652,4231.282227,4245.641113,4205.769043,4446.794922,4504.743652,4331.794922,4406.666504,2503.0,0.0,11.0,,,,0.0,4.0,4.0,4.0,4.0,4.0,4.0,4.0,4.0,4.0,4.0,4.0,4.0,4.0,4.0,100.0,,,,,,,,,,,,,,,,,,,,,,,,,,,,,,,,,,,,,,,,,,,,,,,,,,,,,,,,,,,,,,,,,,,,,,,,,,,,,,,,,,,,,,,,,,,,,,,,,,,,,,,,,,,,,,,,,,,,,,,,,,,,,,,,,,,
1725717317.413886,1725717317.414042,136.0,0.0,4281.025879,4252.563965,4253.205078,4250.256348,4234.102539,4258.333496,4152.820313,4232.307617,4247.436035,4208.717773,4457.820313,4511.025879,4339.358887,4414.487305,2471.0,0.0,11.0,,,,0.0,4.0,4.0,4.0,4.0,4.0,4.0,4.0,4.0,4.0,4.0,4.0,4.0,4.0,4.0,100.0,,,,,,,,,,,,,,,,,,,,,,,,,,,,,,,,,,,,,,,,,,,,,,,,,,,,,,,,,,,,,,,,,,,,,,,,,,,,,,,,,,,,,,,,,,,,,,,,,,,,,,,,,,,,,,,,,,,,,,,,,,,,,,,,,,,
1725717317.41779,1725717317.417946,137.0,0.0,4286.794922,4257.05127,4260.256348,4256.666504,4238.846191,4264.230957,4156.794922,4234.230957,4250.256348,4215.769043,4464.102539,4519.743652,4346.410156,4421.282227,2565.0,0.0,11.0,,,,0.0,4.0,4.0,4.0,4.0,4.0,4.0,4.0,4.0,4.0,4.0,4.0,4.0,4.0,4.0,100.0,,,,,,,,,,,,,,,,,,,,,,,,,,,,,,,,,,,,,,,,,,,,,,,,,,,,,,,,,,,,,,,,,,,,,,,,,,,,,,,,,,,,,,,,,,,,,,,,,,,,,,,,,,,,,,,,,,,,,,,,,,,,,,,,,,,
1725717317.421694,1725717317.42195,138.0,0.0,4289.358887,4259.615234,4263.205078,4260.641113,4243.717773,4267.563965,4162.05127,4236.025879,4252.820313,4222.307617,4463.461426,4523.974121,4349.102539,4422.820313,2899.0,0.0,11.0,,,,0.0,4.0,4.0,4.0,4.0,4.0,4.0,4.0,4.0,4.0,4.0,4.0,4.0,4.0,4.0,100.0,,,,,,,,,,,,,,,,,,,,,,,,,,,,,,,,,,,,,,,,,,,,,,,,,,,,,,,,,,,,,,,,,,,,,,,,,,,,,,,,,,,,,,,,,,,,,,,,,,,,,,,,,,,,,,,,,,,,,,,,,,,,,,,,,,,
1725717317.425599,1725717317.425854,139.0,0.0,4287.307617,4260.128418,4260.384766,4259.743652,4246.794922,4266.282227,4167.179688,4236.282227,4253.205078,4224.615234,4457.563965,4518.717773,4346.538574,4417.436035,3126.0,0.0,11.0,,,,0.0,4.0,4.0,4.0,4.0,4.0,4.0,4.0,4.0,4.0,4.0,4.0,4.0,4.0,4.0,100.0,,,,,,,,,,,,,,,,,,,,,,,,,,,,,,,,,,,,,,,,,,,,,,,,,,,,,,,,,,,,,,,,,,,,,,,,,,,,,,,,,,,,,,,,,,,,,,,,,,,,,,,,,,,,,,,,,,,,,,,,,,,,,,,,,,,
1725717317.429503,1725717317.429759,140.0,0.0,4281.922852,4259.743652,4253.974121,4254.743652,4247.820313,4261.794922,4170.641113,4234.358887,4251.282227,4222.692383,4450.256348,4504.871582,4340.512695,4406.922852,3403.0,0.0,11.0,,,,0.0,4.0,4.0,4.0,4.0,4.0,4.0,4.0,4.0,4.0,4.0,4.0,4.0,4.0,4.0,100.0,,,,,,,,,,,,,,,,,,,,,,,,,,,,,,,,,,,,,,,,,,,,,,,,,,,,,,,,0.0,0.0,1.0,0.0,1.0,0.0,,,,,,,,,,,,,,,,,,,,,,,,,,,,,,,,,,,,,,,,,,,,,,,,,,,,,,,,,,,,,,,,,,,,,,
1725717317.433407,1725717317.433763,141.0,0.0,4276.282227,4259.615234,4247.94873,4248.846191,4247.820313,4257.820313,4171.282227,4231.282227,4248.846191,4219.487305,4445.384766,4489.615234,4333.589844,4396.153809,3867.0,0.0,11.0,,,,0.0,4.0,4.0,4.0,4.0,4.0,4.0,4.0,4.0,4.0,4.0,4.0,4.0,4.0,4.0,100.0,,,,,,,,,,,,,,,,,,,,,,,,,,,,,,,,,,,,,,,,,,,,,,,,,,,,,,,,,,,,,,,,,,,,,,,,,,,,,,,,,,,,,,,,,,,,,,,,,,,,,,,,,,,,,,,,,,,,,,,,,,,,,,,,,,,
1725717317.437311,1725717317.437667,142.0,0.0,4273.077148,4260.256348,4245.128418,4245.641113,4248.205078,4257.436035,4170.128418,4229.230957,4247.94873,4217.436035,4443.974121,4480.897461,4328.333496,4389.230957,2899.0,0.0,11.0,,,,0.0,4.0,4.0,4.0,4.0,4.0,4.0,4.0,4.0,4.0,4.0,4.0,4.0,4.0,4.0,100.0,,,,,,,,,,,,,,,,,,,,,,,,,,,,,,,,,,,,,,,,,,,,,,,,,,,,,,,,,,,,,,,,,,,,,,,,,,,,,,,,,,,,,,,,,,,,,,,,,,,,,,,,,,,,,,,,,,,,,,,,,,,,,,,,,,,
1725717317.441215,1725717317.441571,143.0,0.0,4272.05127,4261.538574,4245.641113,4246.666504,4249.358887,4260.641113,4168.717773,4229.358887,4249.358887,4217.307617,4444.358887,4481.794922,4326.410156,4387.307617,3126.0,0.0,11.0,,,,0.0,4.0,4.0,4.0,4.0,4.0,4.0,4.0,4.0,4.0,4.0,4.0,4.0,4.0,4.0,100.0,,,,,,,,,,,,,,,,,,,,,,,,,,,,,,,,,,,,,,,,,,,,,,,,,,,,,,,,,,,,,,,,,,,,,,,,,,,,,,,,,,,,,,,,,,,,,,,,,,,,,,,,,,,,,,,,,,,,,,,,,,,,,,,,,,,
1725717317.445119,1725717317.445475,144.0,0.0,4271.282227,4262.692383,4247.692383,4250.128418,4250.769043,4264.230957,4168.077148,4230.384766,4250.769043,4218.205078,4443.589844,4487.692383,4326.794922,4388.333496,3403.0,0.0,11.0,,,,0.0,4.0,4.0,4.0,4.0,4.0,4.0,4.0,4.0,4.0,4.0,4.0,4.0,4.0,4.0,100.0,,,,,,,,,,,,,,,,,,,,,,,,,,,,,,,,,,,,,,,,,,,,,,,,,,,,,,,,,,,,,,,,,,,,,,,,,,,,,,,,,,,,,,,,,,,,,,,,,,,,,,,,,,,,,,,,,,,,,,,,,,,,,,,,,,,
1725717317.449023,1725717317.449379,145.0,0.0,4268.589844,4262.05127,4249.102539,4252.692383,4251.666504,4264.743652,4168.077148,4230.0,4250.128418,4218.846191,4440.641113,4491.025879,4327.436035,4389.358887,3867.0,0.0,11.0,,,,0.0,4.0,4.0,4.0,4.0,4.0,4.0,4.0,4.0,4.0,4.0,4.0,4.0,4.0,4.0,100.0,,,,,,,,,,,,,,,,,,,,,,,,,,,,,,,,,,,,,,,,,,,,,,,,,,,,,,,,,,,,,,,,,,,,,,,,,,,,,,,,,,,,,,,,,,,,,,,,,,,,,,,,,,,,,,,,,,,,,,,,,,,,,,,,,,,
1725717317.452927,1725717317.453283,146.0,0.0,4264.615234,4259.102539,4248.717773,4252.436035,4251.153809,4260.769043,4168.846191,4226.666504,4246.666504,4218.846191,4436.666504,4487.436035,4327.307617,4389.102539,2899.0,0.0,11.0,,,,0.0,4.0,4.0,4.0,4.0,4.0,4.0,4.0,4.0,4.0,4.0,4.0,4.0,4.0,4.0,100.0,,,,,,,,,,,,,,,,,,,,,,,,,,,,,,,,,,,,,,,,,,,,,,,,,,,,,,,,,,,,,,,,,,,,,,,,,,,,,,,,,,,,,,,,,,,,,,,,,,,,,,,,,,,,,,,,,,,,,,,,,,,,,,,,,,,
1725717317.456831,1725717317.457087,147.0,0.0,4262.05127,4255.128418,4246.794922,4249.743652,4249.615234,4254.487305,4170.641113,4221.025879,4241.794922,4217.692383,4433.974121,4479.230957,4326.538574,4387.94873,3126.0,0.0,11.0,,,,0.0,4.0,4.0,4.0,4.0,4.0,4.0,4.0,4.0,4.0,4.0,4.0,4.0,4.0,4.0,100.0,,,,,,,,,,,,,,,,,,,,,,,,,,,,,,,,,,,,,,,,,,,,,,,,,,,,,,,,,,,,,,,,,,,,,,,,,,,,,,,,,,,,,,,,,,,,,,,,,,,,,,,,,,,,,,,,,,,,,,,,,,,,,,,,,,,
1725717317.460735,1725717317.460991,148.0,0.0,4262.820313,4251.538574,4244.743652,4246.922852,4248.205078,4249.102539,4173.333496,4215.512695,4238.077148,4215.384766,4432.94873,4472.94873,4326.025879,4387.179688,3403.0,0.0,11.0,,,,0.0,4.0,4.0,4.0,4.0,4.0,4.0,4.0,4.0,4.0,4.0,4.0,4.0,4.0,4.0,100.0,,,,,,,,,,,,,,,,,1.0,0.0,0.0,,,,,,,,,,,,,,,,,,,,,,,,,,,,,,,,,,,,,0.0,0.0,1.0,0.0,1.0,0.0,2.003161,2.226485,0.83082,0.370198,0.097584,1.623161,2.441568,0.9491,0.233966,0.167822,2.438733,2.011106,0.610645,0.319976,0.073741,1.348143,1.701697,0.699626,0.408897,0.104232,0.496515,0.863862,0.282473,0.118257,0.103583,7.988368,1.924358,0.598569,0.380194,0.161468,2.494402,0.906299,0.450379,0.148755,0.057385,1.088919,0.994823,0.656418,0.330862,0.159822,1.560522,1.098462,0.577867,0.257499,0.081606,1.94667,1.649832,1.063022,0.673194,0.141577,2.746837,2.660356,1.162255,0.816918,0.229683,3.95107,3.942025,1.337151,0.86763,0.208612,2.563587,3.534112,1.693914,0.895303,0.349295,2.039139,2.853972,1.064176,0.535988,0.154423
1725717317.46464,1725717317.464896,149.0,0.0,4266.025879,4250.0,4244.358887,4246.025879,4247.820313,4247.05127,4176.794922,4212.692383,4237.307617,4212.307617,4432.820313,4473.717773,4326.025879,4387.94873,3867.0,0.0,11.0,,,,0.0,4.0,4.0,4.0,4.0,4.0,4.0,4.0,4.0,4.0,4.0,4.0,4.0,4.0,4.0,100.0,,,,,,,,,,,,,,,,,,,,,,,,,,,,,,,,,,,,,,,,,,,,,,,,,,,,,,,,,,,,,,,,,,,,,,,,,,,,,,,,,,,,,,,,,,,,,,,,,,,,,,,,,,,,,,,,,,,,,,,,,,,,,,,,,,,
1725717317.468544,1725717317.4688,150.0,0.0,4269.230957,4250.641113,4245.769043,4247.563965,4248.846191,4248.333496,4180.641113,4213.461426,4239.615234,4209.230957,4432.307617,4481.153809,4326.025879,4390.256348,2899.0,0.0,11.0,,,,0.0,4.0,4.0,4.0,4.0,4.0,4.0,4.0,4.0,4.0,4.0,4.0,4.0,4.0,4.0,100.0,,,,,,,,,,,,,,,,,,,,,,,,,,,,,,,,,,,,,,,,,,,,,,,,,,,,,,,,,,,,,,,,,,,,,,,,,,,,,,,,,,,,,,,,,,,,,,,,,,,,,,,,,,,,,,,,,,,,,,,,,,,,,,,,,,,
1725717317.472448,1725717317.472604,151.0,0.0,4270.512695,4252.563965,4247.692383,4249.871582,4250.256348,4250.897461,4184.358887,4216.282227,4243.846191,4207.563965,4431.538574,4489.871582,4326.153809,4393.333496,3126.0,0.0,11.0,,,,0.0,4.0,4.0,4.0,4.0,4.0,4.0,4.0,4.0,4.0,4.0,4.0,4.0,4.0,4.0,100.0,,,,,,,,,,,,,,,,,,,,,,,,,,,,,,,,,,,,,,,,,,,,,,,,,,,,,,,,,,,,,,,,,,,,,,,,,,,,,,,,,,,,,,,,,,,,,,,,,,,,,,,,,,,,,,,,,,,,,,,,,,,,,,,,,,,
1725717317.476352,1725717317.476508,152.0,0.0,4270.256348,4254.615234,4248.333496,4251.025879,4251.282227,4252.307617,4187.436035,4218.077148,4247.307617,4208.077148,4430.641113,4493.974121,4326.025879,4395.641113,3403.0,0.0,11.0,,,,0.0,4.0,4.0,4.0,4.0,4.0,4.0,4.0,4.0,4.0,4.0,4.0,4.0,4.0,4.0,100.0,,,,,,,,,,,,,,,,,,,,,,,,,,,,,,,,,,,,,,,,,,,,,,,,,,,,,,,,,,,,,,,,,,,,,,,,,,,,,,,,,,,,,,,,,,,,,,,,,,,,,,,,,,,,,,,,,,,,,,,,,,,,,,,,,,,
1725717317.480256,1725717317.480412,153.0,0.0,4270.128418,4256.025879,4247.563965,4250.512695,4251.410156,4251.794922,4190.641113,4217.179688,4248.333496,4210.897461,4429.102539,4492.563965,4325.0,4396.282227,3867.0,0.0,11.0,,,,0.0,4.0,4.0,4.0,4.0,4.0,4.0,4.0,4.0,4.0,4.0,4.0,4.0,4.0,4.0,100.0,,,,,,,,,,,,,,,,,,,,,,,,,,,,,,,,,,,,,,,,,,,,,,,,,,,,,,,,,,,,,,,,,,,,,,,,,,,,,,,,,,,,,,,,,,,,,,,,,,,,,,,,,,,,,,,,,,,,,,,,,,,,,,,,,,,
1725717317.48416,1725717317.484316,154.0,0.0,4271.025879,4256.794922,4246.666504,4248.846191,4250.769043,4250.128418,4194.358887,4214.358887,4246.794922,4214.743652,4426.666504,4488.846191,4322.820313,4394.871582,2899.0,0.0,11.0,,,,0.0,4.0,4.0,4.0,4.0,4.0,4.0,4.0,4.0,4.0,4.0,4.0,4.0,4.0,4.0,100.0,,,,,,,,,,,,,,,,,,,,,,,,,,,,,,,,,,,,,,,,,,,,,,,,,,,,,,,,,,,,,,,,,,,,,,,,,,,,,,,,,,,,,,,,,,,,,,,,,,,,,,,,,,,,,,,,,,,,,,,,,,,,,,,,,,,
1725717317.488064,1725717317.48812,155.0,0.0,4273.205078,4257.179688,4247.307617,4246.922852,4249.743652,4248.974121,4198.205078,4212.820313,4245.128418,4217.563965,4425.128418,4487.307617,4320.256348,4392.692383,3126.0,0.0,11.0,,,,0.0,4.0,4.0,4.0,4.0,4.0,4.0,4.0,4.0,4.0,4.0,4.0,4.0,4.0,4.0,100.0,,,,,,,,,,,,,,,,,,,,,,,,,,,,,,,,,,,,,,,,,,,,,,,,,,,,,,,,,,,,,,,,,,,,,,,,,,,,,,,,,,,,,,,,,,,,,,,,,,,,,,,,,,,,,,,,,,,,,,,,,,,,,,,,,,,
1725717317.491968,1725717317.492024,156.0,0.0,4276.153809,4257.563965,4249.871582,4245.512695,4248.717773,4249.743652,4200.897461,4215.512695,4245.641113,4218.205078,4426.666504,4490.0,4319.102539,4392.307617,3403.0,0.0,11.0,,,,0.0,4.0,4.0,4.0,4.0,4.0,4.0,4.0,4.0,4.0,4.0,4.0,4.0,4.0,4.0,100.0,,,,,,,,,,,,,,,,,,,,,,,,,,,,,,,,,,,,,,,,,,,,,,,,,,,,,,,,0.0,0.0,1.0,0.0,1.0,0.0,,,,,,,,,,,,,,,,,,,,,,,,,,,,,,,,,,,,,,,,,,,,,,,,,,,,,,,,,,,,,,,,,,,,,,
1725717317.495872,1725717317.495929,157.0,0.0,4279.358887,4258.589844,4253.974121,4244.743652,4247.94873,4252.820313,4201.153809,4222.563965,4248.333496,4216.794922,4431.282227,4496.282227,4320.641113,4395.641113,3867.0,0.0,11.0,,,,0.0,4.0,4.0,4.0,4.0,4.0,4.0,4.0,4.0,4.0,4.0,4.0,4.0,4.0,4.0,100.0,,,,,,,,,,,,,,,,,,,,,,,,,,,,,,,,,,,,,,,,,,,,,,,,,,,,,,,,,,,,,,,,,,,,,,,,,,,,,,,,,,,,,,,,,,,,,,,,,,,,,,,,,,,,,,,,,,,,,,,,,,,,,,,,,,,
1725717317.499776,1725717317.499933,158.0,0.0,4282.307617,4260.641113,4258.846191,4245.0,4248.205078,4256.922852,4200.0,4230.641113,4251.025879,4215.128418,4436.922852,4503.846191,4324.230957,4402.307617,2899.0,0.0,11.0,,,,0.0,4.0,4.0,4.0,4.0,4.0,4.0,4.0,4.0,4.0,4.0,4.0,4.0,4.0,4.0,100.0,,,,,,,,,,,,,,,,,,,,,,,,,,,,,,,,,,,,,,,,,,,,,,,,,,,,,,,,,,,,,,,,,,,,,,,,,,,,,,,,,,,,,,,,,,,,,,,,,,,,,,,,,,,,,,,,,,,,,,,,,,,,,,,,,,,
1725717317.50368,1725717317.503837,159.0,0.0,4284.743652,4263.077148,4263.333496,4245.897461,4249.102539,4260.384766,4200.128418,4235.641113,4251.922852,4215.0,4441.282227,4510.384766,4327.692383,4409.743652,3126.0,0.0,11.0,,,,0.0,4.0,4.0,4.0,4.0,4.0,4.0,4.0,4.0,4.0,4.0,4.0,4.0,4.0,4.0,100.0,,,,,,,,,,,,,,,,,,,,,,,,,,,,,,,,,,,,,,,,,,,,,,,,,,,,,,,,,,,,,,,,,,,,,,,,,,,,,,,,,,,,,,,,,,,,,,,,,,,,,,,,,,,,,,,,,,,,,,,,,,,,,,,,,,,
1725717317.507584,1725717317.507741,160.0,0.0,4286.282227,4264.358887,4266.666504,4247.05127,4249.871582,4262.307617,4203.077148,4236.153809,4251.025879,4217.307617,4444.230957,4514.871582,4328.717773,4415.0,3403.0,0.0,11.0,,,,0.0,4.0,4.0,4.0,4.0,4.0,4.0,4.0,4.0,4.0,4.0,4.0,4.0,4.0,4.0,100.0,,,,,,,,,,,,,,,,,,,,,,,,,,,,,,,,,,,,,,,,,,,,,,,,,,,,,,,,,,,,,,,,,,,,,,,,,,,,,,,,,,,,,,,,,,,,,,,,,,,,,,,,,,,,,,,,,,,,,,,,,,,,,,,,,,,
1725717317.511489,1725717317.511645,161.0,0.0,4287.436035,4263.717773,4268.974121,4247.692383,4250.256348,4262.692383,4208.461426,4234.487305,4250.384766,4221.538574,4446.922852,4518.205078,4326.666504,4416.666504,3867.0,0.0,11.0,,,,0.0,4.0,4.0,4.0,4.0,4.0,4.0,4.0,4.0,4.0,4.0,4.0,4.0,4.0,4.0,100.0,,,,,,,,,,,,,,,,,,,,,,,,,,,,,,,,,,,,,,,,,,,,,,,,,,,,,,,,,,,,,,,,,,,,,,,,,,,,,,,,,,,,,,,,,,,,,,,,,,,,,,,,,,,,,,,,,,,,,,,,,,,,,,,,,,,
1725717317.515393,1725717317.515549,162.0,0.0,4288.461426,4261.538574,4271.025879,4247.94873,4250.128418,4262.05127,4213.846191,4234.102539,4251.922852,4226.410156,4450.128418,4522.05127,4323.205078,4416.153809,2899.0,0.0,11.0,,,,0.0,4.0,4.0,4.0,4.0,4.0,4.0,4.0,4.0,4.0,4.0,4.0,4.0,4.0,4.0,100.0,,,,,,,,,,,,,,,,,,,,,,,,,,,,,,,,,,,,,,,,,,,,,,,,,,,,,,,,,,,,,,,,,,,,,,,,,,,,,,,,,,,,,,,,,,,,,,,,,,,,,,,,,,,,,,,,,,,,,,,,,,,,,,,,,,,
1725717317.519297,1725717317.519453,163.0,0.0,4290.256348,4258.846191,4273.846191,4247.307617,4250.256348,4261.282227,4216.794922,4236.922852,4255.769043,4231.025879,4453.589844,4527.307617,4320.641113,4416.538574,3126.0,0.0,11.0,,,,0.0,4.0,4.0,4.0,4.0,4.0,4.0,4.0,4.0,4.0,4.0,4.0,4.0,4.0,4.0,100.0,,,,,,,,,,,,,,,,,,,,,,,,,,,,,,,,,,,,,,,,,,,,,,,,,,,,,,,,,,,,,,,,,,,,,,,,,,,,,,,,,,,,,,,,,,,,,,,,,,,,,,,,,,,,,,,,,,,,,,,,,,,,,,,,,,,
1725717317.523201,1725717317.523357,164.0,0.0,4293.205078,4257.05127,4277.692383,4246.282227,4250.897461,4261.538574,4216.922852,4242.436035,4260.384766,4234.230957,4456.538574,4533.461426,4320.769043,4419.871582,3403.0,0.0,11.0,,,,0.0,4.0,4.0,4.0,4.0,4.0,4.0,4.0,4.0,4.0,4.0,4.0,4.0,4.0,4.0,100.0,,,,,,,,,,,,,,,,,,,,,,,,,,,,,,,,,,,,,,,,,,,,,,,,,,,,,,,,0.0,0.0,1.0,0.0,1.0,0.0,,,,,,,,,,,,,,,,,,,,,,,,,,,,,,,,,,,,,,,,,,,,,,,,,,,,,,,,,,,,,,,,,,,,,,
1725717317.527105,1725717317.527361,165.0,0.0,4297.179688,4257.436035,4282.563965,4245.512695,4251.410156,4262.94873,4216.025879,4248.077148,4263.974121,4235.512695,4459.358887,4539.102539,4323.846191,4426.025879,3867.0,0.0,11.0,,,,0.0,4.0,4.0,4.0,4.0,4.0,4.0,4.0,4.0,4.0,4.0,4.0,4.0,4.0,4.0,100.0,,,,,,,,,,,,,,,,,,,,,,,,,,,,,,,,,,,,,,,,,,,,,,,,,,,,,,,,,,,,,,,,,,,,,,,,,,,,,,,,,,,,,,,,,,,,,,,,,,,,,,,,,,,,,,,,,,,,,,,,,,,,,,,,,,,
1725717317.531009,1725717317.531265,166.0,0.0,4301.538574,4260.128418,4287.94873,4246.282227,4251.025879,4265.128418,4216.153809,4251.538574,4265.512695,4234.487305,4462.307617,4543.077148,4329.102539,4432.307617,2899.0,0.0,11.0,,,,0.0,4.0,4.0,4.0,4.0,4.0,4.0,4.0,4.0,4.0,4.0,4.0,4.0,4.0,4.0,100.0,,,,,,,,,,,,,,,,,,,,,,,,,,,,,,,,,,,,,,,,,,,,,,,,,,,,,,,,,,,,,,,,,,,,,,,,,,,,,,,,,,,,,,,,,,,,,,,,,,,,,,,,,,,,,,,,,,,,,,,,,,,,,,,,,,,
1725717317.534913,1725717317.535169,167.0,0.0,4305.0,4263.717773,4293.333496,4248.589844,4250.128418,4266.666504,4217.94873,4252.307617,4265.0,4231.922852,4466.025879,4545.128418,4334.743652,4436.153809,3126.0,0.0,11.0,,,,0.0,4.0,4.0,4.0,4.0,4.0,4.0,4.0,4.0,4.0,4.0,4.0,4.0,4.0,4.0,100.0,,,,,,,,,,,,,,,,,,,,,,,,,,,,,,,,,,,,,,,,,,,,,,,,,,,,,,,,,,,,,,,,,,,,,,,,,,,,,,,,,,,,,,,,,,,,,,,,,,,,,,,,,,,,,,,,,,,,,,,,,,,,,,,,,,,
1725717317.538817,1725717317.539173,168.0,0.0,4305.897461,4265.384766,4297.436035,4250.641113,4249.358887,4266.922852,4220.384766,4251.666504,4263.974121,4230.128418,4470.128418,4545.897461,4339.102539,4436.282227,3403.0,0.0,11.0,,,,0.0,4.0,4.0,4.0,4.0,4.0,4.0,4.0,4.0,4.0,4.0,4.0,4.0,4.0,4.0,100.0,,,,,,,,,,,,,,,,,,,,,,,,,,,,,,,,,,,,,,,,,,,,,,,,,,,,,,,,,,,,,,,,,,,,,,,,,,,,,,,,,,,,,,,,,,,,,,,,,,,,,,,,,,,,,,,,,,,,,,,,,,,,,,,,,,,
1725717317.542721,1725717317.543078,169.0,0.0,4304.102539,4263.461426,4298.846191,4250.256348,4249.102539,4266.282227,4222.05127,4250.897461,4263.974121,4230.641113,4473.717773,4546.282227,4341.666504,4434.230957,3867.0,0.0,11.0,,,,0.0,4.0,4.0,4.0,4.0,4.0,4.0,4.0,4.0,4.0,4.0,4.0,4.0,4.0,4.0,100.0,,,,,,,,,,,,,,,,,,,,,,,,,,,,,,,,,,,,,,,,,,,,,,,,,,,,,,,,,,,,,,,,,,,,,,,,,,,,,,,,,,,,,,,,,,,,,,,,,,,,,,,,,,,,,,,,,,,,,,,,,,,,,,,,,,,
1725717317.546626,1725717317.546982,170.0,0.0,4300.128418,4258.589844,4296.922852,4246.538574,4248.589844,4265.641113,4222.05127,4250.641113,4265.641113,4233.205078,4474.615234,4545.641113,4342.563965,4431.410156,2899.0,0.0,11.0,,,,0.0,4.0,4.0,4.0,4.0,4.0,4.0,4.0,4.0,4.0,4.0,4.0,4.0,4.0,4.0,100.0,,,,,,,,,,,,,,,,,,,,,,,,,,,,,,,,,,,,,,,,,,,,,,,,,,,,,,,,,,,,,,,,,,,,,,,,,,,,,,,,,,,,,,,,,,,,,,,,,,,,,,,,,,,,,,,,,,,,,,,,,,,,,,,,,,,
1725717317.55053,1725717317.550886,171.0,0.0,4295.384766,4252.94873,4291.922852,4240.0,4246.666504,4265.128418,4220.384766,4249.487305,4268.077148,4235.769043,4471.794922,4542.692383,4342.436035,4428.589844,3126.0,0.0,11.0,,,,0.0,4.0,4.0,4.0,4.0,4.0,4.0,4.0,4.0,4.0,4.0,4.0,4.0,4.0,4.0,100.0,,,,,,,,,,,,,,,,,,,,,,,,,,,,,,,,,,,,,,,,,,,,,,,,,,,,,,,,,,,,,,,,,,,,,,,,,,,,,,,,,,,,,,,,,,,,,,,,,,,,,,,,,,,,,,,,,,,,,,,,,,,,,,,,,,,
1725717317.554434,1725717317.55479,172.0,0.0,4290.256348,4248.717773,4285.512695,4233.461426,4242.94873,4265.0,4217.820313,4246.025879,4269.358887,4237.692383,4466.410156,4537.307617,4341.410156,4425.256348,3403.0,0.0,11.0,,,,0.0,4.0,4.0,4.0,4.0,4.0,4.0,4.0,4.0,4.0,4.0,4.0,4.0,4.0,4.0,100.0,,,,,,,,,,,,,,,,,,,,,,,,,,,,,,,,,,,,,,,,,,,,,,,,,,,,,,,,0.0,0.0,1.0,0.0,1.0,0.0,,,,,,,,,,,,,,,,,,,,,,,,,,,,,,,,,,,,,,,,,,,,,,,,,,,,,,,,,,,,,,,,,,,,,,
1725717317.558338,1725717317.558694,173.0,0.0,4285.256348,4246.282227,4280.384766,4229.615234,4238.205078,4264.871582,4215.769043,4240.384766,4268.333496,4239.102539,4462.05127,4530.897461,4339.743652,4421.153809,3867.0,0.0,11.0,,,,0.0,4.0,4.0,4.0,4.0,4.0,4.0,4.0,4.0,4.0,4.0,4.0,4.0,4.0,4.0,100.0,,,,,,,,,,,,,,,,,,,,,,,,,,,,,,,,,,,,,,,,,,,,,,,,,,,,,,,,,,,,,,,,,,,,,,,,,,,,,,,,,,,,,,,,,,,,,,,,,,,,,,,,,,,,,,,,,,,,,,,,,,,,,,,,,,,
1725717317.562242,1725717317.562498,174.0,0.0,4280.897461,4245.384766,4278.589844,4229.358887,4234.230957,4264.871582,4215.897461,4234.871582,4264.871582,4239.871582,4460.897461,4525.897461,4337.820313,4417.563965,2899.0,0.0,11.0,,,,0.0,4.0,4.0,4.0,4.0,4.0,4.0,4.0,4.0,4.0,4.0,4.0,4.0,4.0,4.0,100.0,,,,,,,,,,,,,,,,,,,,,,,,,,,,,,,,,,,,,,,,,,,,,,,,,,,,,,,,,,,,,,,,,,,,,,,,,,,,,,,,,,,,,,,,,,,,,,,,,,,,,,,,,,,,,,,,,,,,,,,,,,,,,,,,,,,
1725717317.566146,1725717317.566402,175.0,0.0,4279.102539,4246.025879,4280.0,4231.410156,4232.820313,4265.128418,4218.846191,4231.922852,4259.871582,4238.461426,4462.307617,4523.333496,4335.512695,4415.256348,3126.0,0.0,11.0,,,,0.0,4.0,4.0,4.0,4.0,4.0,4.0,4.0,4.0,4.0,4.0,4.0,4.0,4.0,4.0,100.0,,,,,,,,,,,,,,,,,,,,,,,,,,,,,,,,,,,,,,,,,,,,,,,,,,,,,,,,,,,,,,,,,,,,,,,,,,,,,,,,,,,,,,,,,,,,,,,,,,,,,,,,,,,,,,,,,,,,,,,,,,,,,,,,,,,
1725717317.57005,1725717317.570306,176.0,0.0,4280.256348,4247.820313,4281.794922,4232.692383,4234.358887,4265.641113,4223.717773,4232.436035,4254.102539,4234.102539,4462.436035,4522.179688,4332.307617,4413.717773,3403.0,0.0,11.0,,,,0.0,4.0,4.0,4.0,4.0,4.0,4.0,4.0,4.0,4.0,4.0,4.0,4.0,4.0,4.0,100.0,,,,,,,,,,,,,,,,,,,,,,,,,,,,,,,,,,,,,,,,,,,,,,,,,,,,,,,,,,,,,,,,,,,,,,,,,,,,,,,,,,,,,,,,,,,,,,,,,,,,,,,,,,,,,,,,,,,,,,,,,,,,,,,,,,,
1725717317.573954,1725717317.57421,177.0,0.0,4282.820313,4249.871582,4280.897461,4230.641113,4237.436035,4266.153809,4228.974121,4233.974121,4249.358887,4227.820313,4458.461426,4520.769043,4327.94873,4411.922852,3867.0,0.0,11.0,,,,0.0,4.0,4.0,4.0,4.0,4.0,4.0,4.0,4.0,4.0,4.0,4.0,4.0,4.0,4.0,100.0,,,,,,,,,,,,,,,,,,,,,,,,,,,,,,,,,,,,,,,,,,,,,,,,,,,,,,,,,,,,,,,,,,,,,,,,,,,,,,,,,,,,,,,,,,,,,,,,,,,,,,,,,,,,,,,,,,,,,,,,,,,,,,,,,,,
1725717317.577858,1725717317.578015,178.0,0.0,4283.589844,4250.256348,4276.410156,4225.512695,4239.230957,4265.897461,4232.820313,4233.333496,4247.05127,4222.307617,4451.666504,4517.692383,4323.461426,4408.589844,2899.0,0.0,11.0,,,,0.0,4.0,4.0,4.0,4.0,4.0,4.0,4.0,4.0,4.0,4.0,4.0,4.0,4.0,4.0,100.0,,,,,,,,,,,,,,,,,,,,,,,,,,,,,,,,,,,,,,,,,,,,,,,,,,,,,,,,,,,,,,,,,,,,,,,,,,,,,,,,,,,,,,,,,,,,,,,,,,,,,,,,,,,,,,,,,,,,,,,,,,,,,,,,,,,
1725717317.581762,1725717317.581919,179.0,0.0,4280.641113,4247.94873,4270.256348,4219.487305,4238.077148,4264.358887,4234.358887,4230.0,4247.563965,4219.102539,4445.769043,4512.307617,4320.512695,4403.589844,3126.0,0.0,11.0,,,,0.0,4.0,4.0,4.0,4.0,4.0,4.0,4.0,4.0,4.0,4.0,4.0,4.0,4.0,4.0,100.0,,,,,,,,,,,,,,,,,,,,,,,,,,,,,,,,,,,,,,,,,,,,,,,,,,,,,,,,,,,,,,,,,,,,,,,,,,,,,,,,,,,,,,,,,,,,,,,,,,,,,,,,,,,,,,,,,,,,,,,,,,,,,,,,,,,
1725717317.585667,1725717317.585823,180.0,0.0,4274.487305,4243.077148,4265.512695,4215.256348,4234.487305,4262.05127,4233.461426,4225.769043,4249.102539,4217.05127,4442.563965,4504.358887,4319.487305,4397.94873,3403.0,0.0,11.0,,,,0.0,4.0,4.0,4.0,4.0,4.0,4.0,4.0,4.0,4.0,4.0,4.0,4.0,4.0,4.0,100.0,1.0,83.333336,4.0,4.0,4.0,4.0,4.0,3.0,3.0,4.0,4.0,4.0,4.0,4.0,4.0,4.0,1.0,0.0,0.0,,,,,,,,,,,,,,,,,,,,,,,,,,,,,,,,,,,,,0.0,0.0,1.0,0.0,1.0,0.0,1.921656,1.866752,0.719828,0.320123,0.083312,1.3308,2.251869,0.797021,0.218749,0.165876,2.696123,1.616585,0.492468,0.278469,0.076434,1.23517,1.484026,0.544024,0.319683,0.110005,0.503161,0.655524,0.220304,0.099434,0.106918,8.650552,1.95615,0.637715,0.393582,0.171112,2.565063,0.835958,0.406383,0.136939,0.049896,1.073269,1.004841,0.972229,0.29355,0.185454,1.504094,0.966539,0.747742,0.274805,0.082546,2.203557,1.296182,1.009818,0.64256,0.156023,3.423786,2.517627,0.989844,0.720932,0.258003,4.274024,3.138493,1.274879,0.676753,0.237817,2.8621,3.068598,1.4986,0.829525,0.366303,2.376558,2.455695,0.973152,0.448291,0.178809
1725717317.589571,1725717317.589727,181.0,0.0,4267.820313,4238.333496,4263.333496,4213.461426,4230.641113,4259.615234,4231.410156,4221.922852,4248.461426,4214.615234,4440.384766,4494.487305,4318.589844,4392.05127,3867.0,0.0,11.0,,,,0.0,4.0,4.0,4.0,4.0,4.0,4.0,4.0,4.0,4.0,4.0,4.0,4.0,4.0,4.0,100.0,,,,,,,,,,,,,,,,,,,,,,,,,,,,,,,,,,,,,,,,,,,,,,,,,,,,,,,,,,,,,,,,,,,,,,,,,,,,,,,,,,,,,,,,,,,,,,,,,,,,,,,,,,,,,,,,,,,,,,,,,,,,,,,,,,,
1725717317.593475,1725717317.593531,182.0,0.0,4263.205078,4236.282227,4262.94873,4213.461426,4229.230957,4258.333496,4230.128418,4218.461426,4243.717773,4210.256348,4436.282227,4484.743652,4315.128418,4386.282227,2899.0,0.0,11.0,,,,0.0,4.0,4.0,4.0,4.0,4.0,4.0,4.0,4.0,4.0,4.0,4.0,4.0,4.0,4.0,100.0,,,,,,,,,,,,,,,,,,,,,,,,,,,,,,,,,,,,,,,,,,,,,,,,,,,,,,,,,,,,,,,,,,,,,,,,,,,,,,,,,,,,,,,,,,,,,,,,,,,,,,,,,,,,,,,,,,,,,,,,,,,,,,,,,,,
1725717317.597379,1725717317.597435,183.0,0.0,4261.922852,4238.461426,4262.307617,4214.102539,4230.641113,4258.461426,4231.153809,4214.230957,4236.025879,4204.743652,4429.615234,4477.563965,4308.461426,4380.769043,3126.0,0.0,11.0,,,,0.0,4.0,4.0,4.0,4.0,4.0,4.0,4.0,4.0,4.0,4.0,4.0,4.0,4.0,4.0,100.0,,,,,,,,,,,,,,,,,,,,,,,,,,,,,,,,,,,,,,,,,,,,,,,,,,,,,,,,,,,,,,,,,,,,,,,,,,,,,,,,,,,,,,,,,,,,,,,,,,,,,,,,,,,,,,,,,,,,,,,,,,,,,,,,,,,
1725717317.601283,1725717317.601339,184.0,0.0,4263.589844,4244.102539,4259.358887,4214.615234,4233.589844,4259.615234,4235.0,4208.974121,4228.846191,4199.743652,4423.461426,4473.717773,4300.769043,4376.025879,3403.0,0.0,11.0,,,,0.0,4.0,4.0,4.0,4.0,4.0,4.0,4.0,4.0,4.0,4.0,4.0,4.0,4.0,4.0,100.0,,,,,,,,,,,,,,,,,,,,,,,,,,,,,,,,,,,,,,,,,,,,,,,,,,,,,,,,,,,,,,,,,,,,,,,,,,,,,,,,,,,,,,,,,,,,,,,,,,,,,,,,,,,,,,,,,,,,,,,,,,,,,,,,,,,
1725717317.605187,1725717317.605343,185.0,0.0,4266.410156,4250.769043,4254.230957,4214.871582,4235.769043,4260.769043,4240.512695,4204.358887,4225.256348,4197.307617,4421.282227,4472.179688,4295.128418,4372.820313,3867.0,0.0,11.0,,,,0.0,4.0,4.0,4.0,4.0,4.0,4.0,4.0,4.0,4.0,4.0,4.0,4.0,4.0,4.0,100.0,,,,,,,,,,,,,,,,,,,,,,,,,,,,,,,,,,,,,,,,,,,,,,,,,,,,,,,,,,,,,,,,,,,,,,,,,,,,,,,,,,,,,,,,,,,,,,,,,,,,,,,,,,,,,,,,,,,,,,,,,,,,,,,,,,,
1725717317.609091,1725717317.609247,186.0,0.0,4267.692383,4255.256348,4249.230957,4214.487305,4235.641113,4260.897461,4245.897461,4202.94873,4226.153809,4198.077148,4423.205078,4470.897461,4293.589844,4371.794922,2899.0,0.0,11.0,,,,0.0,4.0,4.0,4.0,4.0,4.0,4.0,4.0,4.0,4.0,4.0,4.0,4.0,4.0,4.0,100.0,,,,,,,,,,,,,,,,,,,,,,,,,,,,,,,,,,,,,,,,,,,,,,,,,,,,,,,,,,,,,,,,,,,,,,,,,,,,,,,,,,,,,,,,,,,,,,,,,,,,,,,,,,,,,,,,,,,,,,,,,,,,,,,,,,,
1725717317.612995,1725717317.613152,187.0,0.0,4265.897461,4255.641113,4246.538574,4212.692383,4233.589844,4259.102539,4249.743652,4205.512695,4229.487305,4200.384766,4424.615234,4468.846191,4294.487305,4372.820313,3126.0,0.0,11.0,,,,0.0,4.0,4.0,4.0,4.0,4.0,4.0,4.0,4.0,4.0,4.0,4.0,4.0,4.0,4.0,100.0,,,,,,,,,,,,,,,,,,,,,,,,,,,,,,,,,,,,,,,,,,,,,,,,,,,,,,,,,,,,,,,,,,,,,,,,,,,,,,,,,,,,,,,,,,,,,,,,,,,,,,,,,,,,,,,,,,,,,,,,,,,,,,,,,,,
1725717317.616899,1725717317.617156,188.0,0.0,4261.538574,4252.05127,4246.922852,4209.230957,4231.282227,4255.769043,4251.538574,4210.384766,4232.179688,4201.922852,4421.153809,4466.153809,4294.871582,4373.846191,3403.0,0.0,11.0,,,,0.0,4.0,4.0,4.0,4.0,4.0,4.0,4.0,4.0,4.0,4.0,4.0,4.0,4.0,4.0,100.0,,,,,,,,,,,,,,,,,,,,,,,,,,,,,,,,,,,,,,,,,,,,,,,,,,,,,,,,0.0,0.0,1.0,0.0,1.0,0.0,,,,,,,,,,,,,,,,,,,,,,,,,,,,,,,,,,,,,,,,,,,,,,,,,,,,,,,,,,,,,,,,,,,,,,
1725717317.620803,1725717317.62106,189.0,0.0,4256.410156,4246.282227,4248.461426,4205.256348,4230.384766,4252.179688,4251.153809,4214.230957,4232.436035,4201.282227,4412.05127,4464.102539,4292.820313,4373.333496,3867.0,0.0,11.0,,,,0.0,4.0,4.0,4.0,4.0,4.0,4.0,4.0,4.0,4.0,4.0,4.0,4.0,4.0,4.0,100.0,,,,,,,,,,,,,,,,,,,,,,,,,,,,,,,,,,,,,,,,,,,,,,,,,,,,,,,,,,,,,,,,,,,,,,,,,,,,,,,,,,,,,,,,,,,,,,,,,,,,,,,,,,,,,,,,,,,,,,,,,,,,,,,,,,,
1725717317.624708,1725717317.624964,190.0,0.0,4252.94873,4240.512695,4248.461426,4202.179688,4231.025879,4249.871582,4249.615234,4214.358887,4231.025879,4198.974121,4402.307617,4464.102539,4289.487305,4370.641113,2899.0,0.0,11.0,,,,0.0,4.0,4.0,4.0,4.0,4.0,4.0,4.0,4.0,4.0,4.0,4.0,4.0,4.0,4.0,100.0,,,,,,,,,,,,,,,,,,,,,,,,,,,,,,,,,,,,,,,,,,,,,,,,,,,,,,,,,,,,,,,,,,,,,,,,,,,,,,,,,,,,,,,,,,,,,,,,,,,,,,,,,,,,,,,,,,,,,,,,,,,,,,,,,,,
1725717317.628612,1725717317.628868,191.0,0.0,4252.94873,4235.897461,4245.256348,4200.769043,4231.922852,4249.487305,4248.077148,4211.410156,4229.615234,4197.436035,4398.589844,4467.05127,4287.820313,4367.820313,3126.0,0.0,11.0,,,,0.0,4.0,4.0,4.0,4.0,4.0,4.0,4.0,4.0,4.0,4.0,4.0,4.0,4.0,4.0,100.0,,,,,,,,,,,,,,,,,,,,,,,,,,,,,,,,,,,,,,,,,,,,,,,,,,,,,,,,,,,,,,,,,,,,,,,,,,,,,,,,,,,,,,,,,,,,,,,,,,,,,,,,,,,,,,,,,,,,,,,,,,,,,,,,,,,
1725717317.632516,1725717317.632872,192.0,0.0,4255.769043,4232.692383,4239.871582,4200.769043,4231.282227,4250.512695,4247.94873,4208.461426,4229.743652,4198.077148,4404.615234,4471.538574,4288.974121,4367.307617,3403.0,0.0,11.0,,,,0.0,4.0,4.0,4.0,4.0,4.0,4.0,4.0,4.0,4.0,4.0,4.0,4.0,4.0,4.0,100.0,,,,,,,,,,,,,,,,,,,,,,,,,,,,,,,,,,,,,,,,,,,,,,,,,,,,,,,,,,,,,,,,,,,,,,,,,,,,,,,,,,,,,,,,,,,,,,,,,,,,,,,,,,,,,,,,,,,,,,,,,,,,,,,,,,,
1725717317.63642,1725717317.636776,193.0,0.0,4259.358887,4230.256348,4234.871582,4200.769043,4227.820313,4251.282227,4248.846191,4208.974121,4231.153809,4200.512695,4417.179688,4474.358887,4291.538574,4368.974121,3867.0,0.0,11.0,,,,0.0,4.0,4.0,4.0,4.0,4.0,4.0,4.0,4.0,4.0,4.0,4.0,4.0,4.0,4.0,100.0,,,,,,,,,,,,,,,,,,,,,,,,,,,,,,,,,,,,,,,,,,,,,,,,,,,,,,,,,,,,,,,,,,,,,,,,,,,,,,,,,,,,,,,,,,,,,,,,,,,,,,,,,,,,,,,,,,,,,,,,,,,,,,,,,,,
1725717317.640324,1725717317.64068,194.0,0.0,4261.153809,4228.846191,4231.922852,4199.358887,4222.820313,4250.769043,4250.0,4213.333496,4232.94873,4202.307617,4428.717773,4473.205078,4293.205078,4370.641113,2899.0,0.0,11.0,,,,0.0,4.0,4.0,4.0,4.0,4.0,4.0,4.0,4.0,4.0,4.0,4.0,4.0,4.0,4.0,100.0,,,,,,,,,,,,,,,,,,,,,,,,,,,,,,,,,,,,,,,,,,,,,,,,,,,,,,,,,,,,,,,,,,,,,,,,,,,,,,,,,,,,,,,,,,,,,,,,,,,,,,,,,,,,,,,,,,,,,,,,,,,,,,,,,,,
1725717317.644228,1725717317.644684,195.0,0.0,4260.512695,4228.717773,4230.512695,4196.538574,4218.846191,4249.487305,4250.384766,4218.205078,4234.102539,4202.436035,4432.94873,4468.974121,4294.102539,4370.512695,3126.0,0.0,11.0,,,,0.0,4.0,4.0,4.0,4.0,4.0,4.0,4.0,4.0,4.0,4.0,4.0,4.0,4.0,4.0,100.0,,,,,,,,,,,,,,,,,,,,,,,,,,,,,,,,,,,,,,,,,,,,,,,,,,,,,,,,,,,,,,,,,,,,,,,,,,,,,,,,,,,,,,,,,,,,,,,,,,,,,,,,,,,,,,,,,,,,,,,,,,,,,,,,,,,
1725717317.648132,1725717317.648588,196.0,0.0,4258.717773,4229.615234,4229.871582,4193.717773,4217.692383,4248.974121,4250.0,4218.589844,4234.230957,4201.794922,4430.0,4466.282227,4296.153809,4369.871582,3403.0,0.0,11.0,,,,0.0,4.0,4.0,4.0,4.0,4.0,4.0,4.0,4.0,4.0,4.0,4.0,4.0,4.0,4.0,100.0,,,,,,,,,,,,,,,,,,,,,,,,,,,,,,,,,,,,,,,,,,,,,,,,,,,,,,,,0.0,0.0,1.0,0.0,1.0,0.0,,,,,,,,,,,,,,,,,,,,,,,,,,,,,,,,,,,,,,,,,,,,,,,,,,,,,,,,,,,,,,,,,,,,,,
1725717317.652036,1725717317.652492,197.0,0.0,4258.846191,4230.769043,4230.512695,4193.077148,4218.846191,4250.128418,4249.615234,4212.692383,4234.102539,4201.922852,4425.512695,4468.589844,4301.666504,4372.179688,3867.0,0.0,11.0,,,,0.0,4.0,4.0,4.0,4.0,4.0,4.0,4.0,4.0,4.0,4.0,4.0,4.0,4.0,4.0,100.0,,,,,,,,,,,,,,,,,,,,,,,,,,,,,,,,,,,,,,,,,,,,,,,,,,,,,,,,,,,,,,,,,,,,,,,,,,,,,,,,,,,,,,,,,,,,,,,,,,,,,,,,,,,,,,,,,,,,,,,,,,,,,,,,,,,
1725717317.65594,1725717317.656396,198.0,0.0,4262.820313,4231.282227,4233.461426,4195.256348,4220.256348,4252.179688,4249.615234,4204.102539,4234.102539,4203.077148,4424.615234,4475.641113,4309.487305,4378.974121,2899.0,0.0,11.0,,,,0.0,4.0,4.0,4.0,4.0,4.0,4.0,4.0,4.0,4.0,4.0,4.0,4.0,4.0,4.0,100.0,,,,,,,,,,,,,,,,,,,,,,,,,,,,,,,,,,,,,,,,,,,,,,,,,,,,,,,,,,,,,,,,,,,,,,,,,,,,,,,,,,,,,,,,,,,,,,,,,,,,,,,,,,,,,,,,,,,,,,,,,,,,,,,,,,,
1725717317.659845,1725717317.660301,199.0,0.0,4269.871582,4231.538574,4238.974121,4198.333496,4220.641113,4253.333496,4249.871582,4198.717773,4234.102539,4204.230957,4427.307617,4482.563965,4315.512695,4387.563965,3126.0,0.0,11.0,,,,0.0,4.0,4.0,4.0,4.0,4.0,4.0,4.0,4.0,4.0,4.0,4.0,4.0,4.0,4.0,100.0,,,,,,,,,,,,,,,,,,,,,,,,,,,,,,,,,,,,,,,,,,,,,,,,,,,,,,,,,,,,,,,,,,,,,,,,,,,,,,,,,,,,,,,,,,,,,,,,,,,,,,,,,,,,,,,,,,,,,,,,,,,,,,,,,,,
1725717317.663748,1725717317.664205,200.0,0.0,4276.666504,4232.05127,4244.615234,4200.128418,4219.871582,4253.077148,4250.256348,4200.0,4233.717773,4203.461426,4429.487305,4484.871582,4315.897461,4393.077148,3403.0,0.0,11.0,,,,0.0,4.0,4.0,4.0,4.0,4.0,4.0,4.0,4.0,4.0,4.0,4.0,4.0,4.0,4.0,100.0,,,,,,,,,,,,,,,,,,,,,,,,,,,,,,,,,,,,,,,,,,,,,,,,,,,,,,,,,,,,,,,,,,,,,,,,,,,,,,,,,,,,,,,,,,,,,,,,,,,,,,,,,,,,,,,,,,,,,,,,,,,,,,,,,,,
1725717317.667652,1725717317.668009,201.0,0.0,4280.0,4233.205078,4247.820313,4200.256348,4219.615234,4251.922852,4251.153809,4206.282227,4232.692383,4200.641113,4427.820313,4482.179688,4310.897461,4393.205078,3867.0,0.0,11.0,,,,0.0,4.0,4.0,4.0,4.0,4.0,4.0,4.0,4.0,4.0,4.0,4.0,4.0,4.0,4.0,100.0,,,,,,,,,,,,,,,,,,,,,,,,,,,,,,,,,,,,,,,,,,,,,,,,,,,,,,,,,,,,,,,,,,,,,,,,,,,,,,,,,,,,,,,,,,,,,,,,,,,,,,,,,,,,,,,,,,,,,,,,,,,,,,,,,,,
1725717317.671557,1725717317.671913,202.0,0.0,4279.358887,4235.384766,4247.94873,4200.769043,4221.538574,4251.922852,4252.820313,4213.333496,4231.538574,4197.692383,4423.333496,4478.846191,4305.384766,4389.743652,2899.0,0.0,11.0,,,,0.0,4.0,4.0,4.0,4.0,4.0,4.0,4.0,4.0,4.0,4.0,4.0,4.0,4.0,4.0,100.0,,,,,,,,,,,,,,,,,,,,,,,,,,,,,,,,,,,,,,,,,,,,,,,,,,,,,,,,,,,,,,,,,,,,,,,,,,,,,,,,,,,,,,,,,,,,,,,,,,,,,,,,,,,,,,,,,,,,,,,,,,,,,,,,,,,
1725717317.675461,1725717317.675817,203.0,0.0,4277.692383,4238.589844,4247.436035,4203.974121,4225.384766,4254.743652,4255.256348,4217.436035,4231.282227,4197.307617,4421.410156,4479.871582,4305.256348,4386.922852,3126.0,0.0,11.0,,,,0.0,4.0,4.0,4.0,4.0,4.0,4.0,4.0,4.0,4.0,4.0,4.0,4.0,4.0,4.0,100.0,,,,,,,,,,,,,,,,,,,,,,,,,,,,,,,,,,,,,,,,,,,,,,,,,,,,,,,,,,,,,,,,,,,,,,,,,,,,,,,,,,,,,,,,,,,,,,,,,,,,,,,,,,,,,,,,,,,,,,,,,,,,,,,,,,,
1725717317.679365,1725717317.679821,204.0,0.0,4278.717773,4241.922852,4249.230957,4210.384766,4230.0,4259.871582,4258.205078,4217.820313,4232.563965,4200.641113,4426.153809,4486.410156,4312.563965,4388.205078,3403.0,0.0,11.0,,,,0.0,4.0,4.0,4.0,4.0,4.0,4.0,4.0,4.0,4.0,4.0,4.0,4.0,4.0,4.0,100.0,,,,,,,,,,,,,,,,,,,,,,,,,,,,,,,,,,,,,,,,,,,,,,,,,,,,,,,,0.0,0.0,1.0,0.0,1.0,0.0,,,,,,,,,,,,,,,,,,,,,,,,,,,,,,,,,,,,,,,,,,,,,,,,,,,,,,,,,,,,,,,,,,,,,,
1725717317.683269,1725717317.683725,205.0,0.0,4283.589844,4244.743652,4254.743652,4218.461426,4233.717773,4265.128418,4261.538574,4216.153809,4235.256348,4206.922852,4437.436035,4495.769043,4323.717773,4394.230957,3867.0,0.0,11.0,,,,0.0,4.0,4.0,4.0,4.0,4.0,4.0,4.0,4.0,4.0,4.0,4.0,4.0,4.0,4.0,100.0,,,,,,,,,,,,,,,,,,,,,,,,,,,,,,,,,,,,,,,,,,,,,,,,,,,,,,,,,,,,,,,,,,,,,,,,,,,,,,,,,,,,,,,,,,,,,,,,,,,,,,,,,,,,,,,,,,,,,,,,,,,,,,,,,,,
1725717317.687173,1725717317.687629,206.0,0.0,4290.128418,4246.666504,4262.692383,4225.769043,4235.641113,4267.94873,4265.256348,4215.384766,4238.205078,4213.077148,4448.974121,4504.230957,4332.436035,4401.666504,2899.0,0.0,11.0,,,,0.0,4.0,4.0,4.0,4.0,4.0,4.0,4.0,4.0,4.0,4.0,4.0,4.0,4.0,4.0,100.0,,,,,,,,,,,,,,,,,,,,,,,,,,,,,,,,,,,,,,,,,,,,,,,,,,,,,,,,,,,,,,,,,,,,,,,,,,,,,,,,,,,,,,,,,,,,,,,,,,,,,,,,,,,,,,,,,,,,,,,,,,,,,,,,,,,
1725717317.691077,1725717317.691533,207.0,0.0,4294.743652,4248.205078,4269.871582,4230.256348,4235.897461,4267.436035,4268.205078,4216.922852,4240.0,4215.512695,4452.563965,4509.230957,4333.717773,4406.410156,3126.0,0.0,11.0,,,,0.0,4.0,4.0,4.0,4.0,4.0,4.0,4.0,4.0,4.0,4.0,4.0,4.0,4.0,4.0,100.0,,,,,,,,,,,,,,,,,,,,,,,,,,,,,,,,,,,,,,,,,,,,,,,,,,,,,,,,,,,,,,,,,,,,,,,,,,,,,,,,,,,,,,,,,,,,,,,,,,,,,,,,,,,,,,,,,,,,,,,,,,,,,,,,,,,
1725717317.694981,1725717317.695437,208.0,0.0,4295.128418,4249.615234,4272.94873,4230.512695,4235.384766,4264.743652,4268.974121,4219.743652,4239.487305,4212.563965,4445.256348,4509.743652,4327.307617,4405.897461,3403.0,0.0,11.0,,,,0.0,4.0,4.0,4.0,4.0,4.0,4.0,4.0,4.0,4.0,4.0,4.0,4.0,4.0,4.0,100.0,,,,,,,,,,,,,,,,,,,,,,,,,,,,,,,,,,,,,,,,,,,,,,,,,,,,,,,,,,,,,,,,,,,,,,,,,,,,,,,,,,,,,,,,,,,,,,,,,,,,,,,,,,,,,,,,,,,,,,,,,,,,,,,,,,,
1725717317.698885,1725717317.699242,209.0,0.0,4291.282227,4250.128418,4270.384766,4227.179688,4234.743652,4262.307617,4266.410156,4221.666504,4237.05127,4205.769043,4431.794922,4506.922852,4317.563965,4400.769043,3867.0,0.0,11.0,,,,0.0,4.0,4.0,4.0,4.0,4.0,4.0,4.0,4.0,4.0,4.0,4.0,4.0,4.0,4.0,100.0,,,,,,,,,,,,,,,,,,,,,,,,,,,,,,,,,,,,,,,,,,,,,,,,,,,,,,,,,,,,,,,,,,,,,,,,,,,,,,,,,,,,,,,,,,,,,,,,,,,,,,,,,,,,,,,,,,,,,,,,,,,,,,,,,,,
1725717317.702789,1725717317.703146,210.0,0.0,4285.384766,4248.461426,4264.871582,4222.307617,4234.102539,4262.179688,4261.025879,4221.410156,4234.230957,4199.102539,4421.282227,4503.077148,4310.0,4394.615234,2899.0,0.0,11.0,,,,0.0,4.0,4.0,4.0,4.0,4.0,4.0,4.0,4.0,4.0,4.0,4.0,4.0,4.0,4.0,100.0,,,,,,,,,,,,,,,,,,,,,,,,,,,,,,,,,,,,,,,,,,,,,,,,,,,,,,,,,,,,,,,,,,,,,,,,,,,,,,,,,,,,,,,,,,,,,,,,,,,,,,,,,,,,,,,,,,,,,,,,,,,,,,,,,,,
1725717317.706694,1725717317.70705,211.0,0.0,4280.769043,4244.230957,4260.641113,4219.358887,4233.461426,4265.128418,4255.256348,4219.487305,4232.563965,4195.897461,4419.743652,4500.384766,4307.05127,4390.384766,3126.0,0.0,11.0,,,,0.0,4.0,4.0,4.0,4.0,4.0,4.0,4.0,4.0,4.0,4.0,4.0,4.0,4.0,4.0,100.0,,,,,,,,,,,,,,,,,,,,,,,,,,,,,,,,,,,,,,,,,,,,,,,,,,,,,,,,,,,,,,,,,,,,,,,,,,,,,,,,,,,,,,,,,,,,,,,,,,,,,,,,,,,,,,,,,,,,,,,,,,,,,,,,,,,
1725717317.710598,1725717317.710854,212.0,0.0,4279.358887,4238.846191,4260.512695,4220.512695,4232.820313,4270.0,4251.282227,4217.94873,4232.563965,4196.794922,4425.769043,4498.974121,4307.436035,4388.205078,3403.0,0.0,11.0,,,,0.0,4.0,4.0,4.0,4.0,4.0,4.0,4.0,4.0,4.0,4.0,4.0,4.0,4.0,4.0,100.0,,,,,,,,,,,,,,,,,1.0,0.0,0.0,,,,,,,,,,,,,,,,,,,,,,,,,,,,,,,,,,,,,0.0,0.0,1.0,0.0,1.0,0.0,2.108038,1.59533,0.625097,0.287397,0.076311,1.068074,2.144977,0.684995,0.221127,0.168758,3.175885,1.281352,0.411266,0.252766,0.083657,1.161715,1.327378,0.436323,0.241279,0.118414,0.569111,0.515218,0.162059,0.087622,0.110923,8.157958,1.806593,0.62846,0.367975,0.172076,2.395054,0.761894,0.374898,0.124607,0.043218,1.044794,1.082382,1.341653,0.274393,0.225226,1.44329,0.893758,1.033132,0.336902,0.095691,2.447426,1.02098,1.140096,0.638718,0.184473,4.321749,2.761205,0.900163,0.664403,0.335752,4.830595,2.572501,1.386246,0.562107,0.282765,3.116352,2.931453,1.525425,0.756067,0.38721,3.087644,2.307023,1.003658,0.393702,0.215172
1725717317.714502,1725717317.714758,213.0,0.0,4280.512695,4234.102539,4263.461426,4225.0,4232.692383,4274.871582,4249.487305,4217.563965,4233.205078,4199.102539,4432.563965,4497.05127,4307.820313,4385.897461,3867.0,0.0,11.0,,,,0.0,4.0,4.0,4.0,4.0,4.0,4.0,4.0,4.0,4.0,4.0,4.0,4.0,4.0,4.0,100.0,,,,,,,,,,,,,,,,,,,,,,,,,,,,,,,,,,,,,,,,,,,,,,,,,,,,,,,,,,,,,,,,,,,,,,,,,,,,,,,,,,,,,,,,,,,,,,,,,,,,,,,,,,,,,,,,,,,,,,,,,,,,,,,,,,,
1725717317.718406,1725717317.718662,214.0,0.0,4281.025879,4231.794922,4266.025879,4229.615234,4233.077148,4278.461426,4248.717773,4217.94873,4233.333496,4200.769043,4434.487305,4492.820313,4306.025879,4381.922852,2899.0,0.0,11.0,,,,0.0,4.0,4.0,4.0,4.0,4.0,4.0,4.0,4.0,4.0,4.0,4.0,4.0,4.0,4.0,100.0,,,,,,,,,,,,,,,,,,,,,,,,,,,,,,,,,,,,,,,,,,,,,,,,,,,,,,,,,,,,,,,,,,,,,,,,,,,,,,,,,,,,,,,,,,,,,,,,,,,,,,,,,,,,,,,,,,,,,,,,,,,,,,,,,,,
1725717317.72231,1725717317.722666,215.0,0.0,4279.102539,4231.666504,4265.256348,4231.025879,4233.333496,4280.256348,4247.436035,4217.692383,4232.692383,4201.410156,4431.025879,4486.282227,4302.307617,4376.538574,3126.0,0.0,11.0,,,,0.0,4.0,4.0,4.0,4.0,4.0,4.0,4.0,4.0,4.0,4.0,4.0,4.0,4.0,4.0,100.0,,,,,,,,,,,,,,,,,,,,,,,,,,,,,,,,,,,,,,,,,,,,,,,,,,,,,,,,,,,,,,,,,,,,,,,,,,,,,,,,,,,,,,,,,,,,,,,,,,,,,,,,,,,,,,,,,,,,,,,,,,,,,,,,,,,
1725717317.726214,1725717317.72657,216.0,0.0,4274.743652,4232.307617,4261.025879,4228.205078,4232.94873,4280.512695,4244.615234,4216.538574,4231.666504,4201.922852,4426.025879,4479.230957,4298.461426,4371.538574,3403.0,0.0,11.0,,,,0.0,4.0,4.0,4.0,4.0,4.0,4.0,4.0,4.0,4.0,4.0,4.0,4.0,4.0,4.0,100.0,,,,,,,,,,,,,,,,,,,,,,,,,,,,,,,,,,,,,,,,,,,,,,,,,,,,,,,,,,,,,,,,,,,,,,,,,,,,,,,,,,,,,,,,,,,,,,,,,,,,,,,,,,,,,,,,,,,,,,,,,,,,,,,,,,,
1725717317.730118,1725717317.730475,217.0,0.0,4269.487305,4231.922852,4255.512695,4222.179688,4231.794922,4279.743652,4240.384766,4215.897461,4231.153809,4202.307617,4422.820313,4474.230957,4295.897461,4368.077148,3867.0,0.0,11.0,,,,0.0,4.0,4.0,4.0,4.0,4.0,4.0,4.0,4.0,4.0,4.0,4.0,4.0,4.0,4.0,100.0,,,,,,,,,,,,,,,,,,,,,,,,,,,,,,,,,,,,,,,,,,,,,,,,,,,,,,,,,,,,,,,,,,,,,,,,,,,,,,,,,,,,,,,,,,,,,,,,,,,,,,,,,,,,,,,,,,,,,,,,,,,,,,,,,,,
1725717317.734022,1725717317.734379,218.0,0.0,4265.384766,4230.384766,4250.641113,4216.025879,4230.512695,4278.461426,4235.384766,4216.794922,4231.025879,4201.410156,4422.05127,4472.436035,4295.0,4365.897461,2899.0,0.0,11.0,,,,0.0,4.0,4.0,4.0,4.0,4.0,4.0,4.0,4.0,4.0,4.0,4.0,4.0,4.0,4.0,100.0,,,,,,,,,,,,,,,,,,,,,,,,,,,,,,,,,,,,,,,,,,,,,,,,,,,,,,,,,,,,,,,,,,,,,,,,,,,,,,,,,,,,,,,,,,,,,,,,,,,,,,,,,,,,,,,,,,,,,,,,,,,,,,,,,,,
1725717317.737926,1725717317.738383,219.0,0.0,4263.205078,4228.846191,4247.179688,4212.820313,4229.743652,4277.436035,4230.641113,4219.230957,4231.025879,4197.820313,4421.666504,4472.563965,4294.615234,4364.358887,3126.0,0.0,11.0,,,,0.0,4.0,4.0,4.0,4.0,4.0,4.0,4.0,4.0,4.0,4.0,4.0,4.0,4.0,4.0,100.0,,,,,,,,,,,,,,,,,,,,,,,,,,,,,,,,,,,,,,,,,,,,,,,,,,,,,,,,,,,,,,,,,,,,,,,,,,,,,,,,,,,,,,,,,,,,,,,,,,,,,,,,,,,,,,,,,,,,,,,,,,,,,,,,,,,
1725717317.74183,1725717317.742287,220.0,0.0,4262.94873,4228.589844,4245.512695,4213.717773,4229.743652,4277.436035,4226.666504,4220.897461,4230.512695,4192.563965,4419.871582,4472.436035,4293.974121,4363.205078,3403.0,0.0,11.0,,,,0.0,4.0,4.0,4.0,4.0,4.0,4.0,4.0,4.0,4.0,4.0,4.0,4.0,4.0,4.0,100.0,,,,,,,,,,,,,,,,,,,,,,,,,,,,,,,,,,,,,,,,,,,,,,,,,,,,,,,,0.0,0.0,1.0,0.0,1.0,0.0,,,,,,,,,,,,,,,,,,,,,,,,,,,,,,,,,,,,,,,,,,,,,,,,,,,,,,,,,,,,,,,,,,,,,,
1725717317.745735,1725717317.746191,221.0,0.0,4263.846191,4230.0,4245.512695,4217.692383,4229.871582,4278.205078,4223.205078,4219.743652,4229.487305,4188.205078,4415.641113,4470.256348,4292.820313,4362.820313,3867.0,0.0,11.0,,,,0.0,4.0,4.0,4.0,4.0,4.0,4.0,4.0,4.0,4.0,4.0,4.0,4.0,4.0,4.0,100.0,,,,,,,,,,,,,,,,,,,,,,,,,,,,,,,,,,,,,,,,,,,,,,,,,,,,,,,,,,,,,,,,,,,,,,,,,,,,,,,,,,,,,,,,,,,,,,,,,,,,,,,,,,,,,,,,,,,,,,,,,,,,,,,,,,,
1725717317.749639,1725717317.750095,222.0,0.0,4264.871582,4232.563965,4246.794922,4221.922852,4229.487305,4279.102539,4219.743652,4215.256348,4228.717773,4187.692383,4410.769043,4466.666504,4291.410156,4363.589844,2899.0,0.0,11.0,,,,0.0,4.0,4.0,4.0,4.0,4.0,4.0,4.0,4.0,4.0,4.0,4.0,4.0,4.0,4.0,100.0,,,,,,,,,,,,,,,,,,,,,,,,,,,,,,,,,,,,,,,,,,,,,,,,,,,,,,,,,,,,,,,,,,,,,,,,,,,,,,,,,,,,,,,,,,,,,,,,,,,,,,,,,,,,,,,,,,,,,,,,,,,,,,,,,,,
1725717317.753543,1725717317.754099,223.0,0.0,4265.641113,4235.0,4248.205078,4224.743652,4228.717773,4279.102539,4216.153809,4208.333496,4228.846191,4191.153809,4408.205078,4463.077148,4290.256348,4365.256348,3126.0,0.0,11.0,,,,0.0,4.0,4.0,4.0,4.0,4.0,4.0,4.0,4.0,4.0,4.0,4.0,4.0,4.0,4.0,100.0,,,,,,,,,,,,,,,,,,,,,,,,,,,,,,,,,,,,,,,,,,,,,,,,,,,,,,,,,,,,,,,,,,,,,,,,,,,,,,,,,,,,,,,,,,,,,,,,,,,,,,,,,,,,,,,,,,,,,,,,,,,,,,,,,,,
1725717317.757447,1725717317.758003,224.0,0.0,4265.897461,4236.153809,4248.846191,4226.538574,4228.205078,4277.94873,4213.461426,4201.410156,4229.743652,4196.025879,4409.615234,4461.666504,4290.0,4366.922852,3403.0,0.0,11.0,,,,0.0,4.0,4.0,4.0,4.0,4.0,4.0,4.0,4.0,4.0,4.0,4.0,4.0,4.0,4.0,100.0,,,,,,,,,,,,,,,,,,,,,,,,,,,,,,,,,,,,,,,,,,,,,,,,,,,,,,,,,,,,,,,,,,,,,,,,,,,,,,,,,,,,,,,,,,,,,,,,,,,,,,,,,,,,,,,,,,,,,,,,,,,,,,,,,,,
1725717317.761351,1725717317.761907,225.0,0.0,4265.897461,4236.025879,4248.589844,4228.717773,4228.717773,4276.025879,4212.692383,4197.307617,4230.256348,4199.230957,4414.102539,4462.692383,4291.025879,4368.205078,3867.0,0.0,11.0,,,,0.0,4.0,4.0,4.0,4.0,4.0,4.0,4.0,4.0,4.0,4.0,4.0,4.0,4.0,4.0,100.0,,,,,,,,,,,,,,,,,,,,,,,,,,,,,,,,,,,,,,,,,,,,,,,,,,,,,,,,,,,,,,,,,,,,,,,,,,,,,,,,,,,,,,,,,,,,,,,,,,,,,,,,,,,,,,,,,,,,,,,,,,,,,,,,,,,
1725717317.765255,1725717317.765811,226.0,0.0,4265.512695,4235.256348,4248.333496,4231.794922,4230.0,4274.230957,4213.589844,4197.307617,4229.871582,4200.256348,4419.487305,4464.743652,4293.205078,4368.717773,2899.0,0.0,11.0,,,,0.0,4.0,4.0,4.0,4.0,4.0,4.0,4.0,4.0,4.0,4.0,4.0,4.0,4.0,4.0,100.0,,,,,,,,,,,,,,,,,,,,,,,,,,,,,,,,,,,,,,,,,,,,,,,,,,,,,,,,,,,,,,,,,,,,,,,,,,,,,,,,,,,,,,,,,,,,,,,,,,,,,,,,,,,,,,,,,,,,,,,,,,,,,,,,,,,
1725717317.769159,1725717317.769715,227.0,0.0,4264.871582,4235.0,4249.102539,4234.230957,4231.538574,4273.333496,4214.615234,4201.153809,4228.846191,4201.025879,4423.974121,4465.769043,4296.538574,4369.102539,3126.0,0.0,11.0,,,,0.0,4.0,4.0,4.0,4.0,4.0,4.0,4.0,4.0,4.0,4.0,4.0,4.0,4.0,4.0,100.0,,,,,,,,,,,,,,,,,,,,,,,,,,,,,,,,,,,,,,,,,,,,,,,,,,,,,,,,,,,,,,,,,,,,,,,,,,,,,,,,,,,,,,,,,,,,,,,,,,,,,,,,,,,,,,,,,,,,,,,,,,,,,,,,,,,
1725717317.773063,1725717317.77352,228.0,0.0,4265.0,4235.384766,4251.538574,4235.0,4232.692383,4274.102539,4215.0,4207.05127,4228.974121,4203.974121,4427.94873,4465.256348,4301.025879,4370.512695,3403.0,0.0,11.0,,,,0.0,4.0,4.0,4.0,4.0,4.0,4.0,4.0,4.0,4.0,4.0,4.0,4.0,4.0,4.0,100.0,,,,,,,,,,,,,,,,,,,,,,,,,,,,,,,,,,,,,,,,,,,,,,,,,,,,,,,,0.0,0.0,1.0,0.0,1.0,0.0,,,,,,,,,,,,,,,,,,,,,,,,,,,,,,,,,,,,,,,,,,,,,,,,,,,,,,,,,,,,,,,,,,,,,,
1725717317.776967,1725717317.777424,229.0,0.0,4266.666504,4237.05127,4255.384766,4235.0,4233.589844,4276.410156,4214.615234,4212.94873,4231.538574,4209.871582,4432.307617,4465.897461,4306.794922,4374.230957,3867.0,0.0,11.0,,,,0.0,4.0,4.0,4.0,4.0,4.0,4.0,4.0,4.0,4.0,4.0,4.0,4.0,4.0,4.0,100.0,,,,,,,,,,,,,,,,,,,,,,,,,,,,,,,,,,,,,,,,,,,,,,,,,,,,,,,,,,,,,,,,,,,,,,,,,,,,,,,,,,,,,,,,,,,,,,,,,,,,,,,,,,,,,,,,,,,,,,,,,,,,,,,,,,,
1725717317.780872,1725717317.781328,230.0,0.0,4270.128418,4239.487305,4259.871582,4236.153809,4234.743652,4279.743652,4214.358887,4216.794922,4236.410156,4216.794922,4437.307617,4470.769043,4312.692383,4379.871582,2899.0,0.0,11.0,,,,0.0,4.0,4.0,4.0,4.0,4.0,4.0,4.0,4.0,4.0,4.0,4.0,4.0,4.0,4.0,100.0,,,,,,,,,,,,,,,,,,,,,,,,,,,,,,,,,,,,,,,,,,,,,,,,,,,,,,,,,,,,,,,,,,,,,,,,,,,,,,,,,,,,,,,,,,,,,,,,,,,,,,,,,,,,,,,,,,,,,,,,,,,,,,,,,,,
1725717317.784776,1725717317.785232,231.0,0.0,4274.615234,4241.538574,4263.846191,4239.487305,4236.025879,4282.436035,4214.615234,4218.205078,4241.794922,4220.897461,4441.666504,4479.871582,4316.410156,4385.769043,3126.0,0.0,11.0,,,,0.0,4.0,4.0,4.0,4.0,4.0,4.0,4.0,4.0,4.0,4.0,4.0,4.0,4.0,4.0,100.0,,,,,,,,,,,,,,,,,,,,,,,,,,,,,,,,,,,,,,,,,,,,,,,,,,,,,,,,,,,,,,,,,,,,,,,,,,,,,,,,,,,,,,,,,,,,,,,,,,,,,,,,,,,,,,,,,,,,,,,,,,,,,,,,,,,
1725717317.78868,1725717317.789036,232.0,0.0,4278.077148,4241.153809,4265.641113,4243.589844,4236.922852,4283.333496,4214.743652,4217.692383,4245.256348,4220.256348,4444.615234,4488.846191,4316.410156,4389.743652,3403.0,0.0,11.0,,,,0.0,4.0,4.0,4.0,4.0,4.0,4.0,4.0,4.0,4.0,4.0,4.0,4.0,4.0,4.0,100.0,,,,,,,,,,,,,,,,,,,,,,,,,,,,,,,,,,,,,,,,,,,,,,,,,,,,,,,,,,,,,,,,,,,,,,,,,,,,,,,,,,,,,,,,,,,,,,,,,,,,,,,,,,,,,,,,,,,,,,,,,,,,,,,,,,,
1725717317.792584,1725717317.79294,233.0,0.0,4279.230957,4238.205078,4264.743652,4246.666504,4237.179688,4282.307617,4214.487305,4216.922852,4246.153809,4216.153809,4445.512695,4492.94873,4313.205078,4390.897461,3867.0,0.0,11.0,,,,0.0,4.0,4.0,4.0,4.0,4.0,4.0,4.0,4.0,4.0,4.0,4.0,4.0,4.0,4.0,100.0,,,,,,,,,,,,,,,,,,,,,,,,,,,,,,,,,,,,,,,,,,,,,,,,,,,,,,,,,,,,,,,,,,,,,,,,,,,,,,,,,,,,,,,,,,,,,,,,,,,,,,,,,,,,,,,,,,,,,,,,,,,,,,,,,,,
1725717317.796488,1725717317.796844,234.0,0.0,4278.333496,4234.358887,4261.922852,4248.205078,4236.410156,4280.512695,4214.102539,4217.563965,4245.384766,4212.307617,4444.743652,4491.794922,4309.358887,4390.384766,2899.0,0.0,11.0,,,,0.0,4.0,4.0,4.0,4.0,4.0,4.0,4.0,4.0,4.0,4.0,4.0,4.0,4.0,4.0,100.0,,,,,,,,,,,,,,,,,,,,,,,,,,,,,,,,,,,,,,,,,,,,,,,,,,,,,,,,,,,,,,,,,,,,,,,,,,,,,,,,,,,,,,,,,,,,,,,,,,,,,,,,,,,,,,,,,,,,,,,,,,,,,,,,,,,
1725717317.800392,1725717317.800648,235.0,0.0,4277.179688,4231.922852,4259.871582,4249.358887,4235.256348,4280.0,4214.230957,4220.256348,4244.615234,4211.666504,4443.205078,4489.487305,4307.563965,4390.128418,3126.0,0.0,11.0,,,,0.0,4.0,4.0,4.0,4.0,4.0,4.0,4.0,4.0,4.0,4.0,4.0,4.0,4.0,4.0,100.0,,,,,,,,,,,,,,,,,,,,,,,,,,,,,,,,,,,,,,,,,,,,,,,,,,,,,,,,,,,,,,,,,,,,,,,,,,,,,,,,,,,,,,,,,,,,,,,,,,,,,,,,,,,,,,,,,,,,,,,,,,,,,,,,,,,
1725717317.804296,1725717317.804553,236.0,0.0,4277.307617,4232.307617,4260.897461,4251.666504,4234.230957,4281.794922,4214.743652,4224.615234,4245.128418,4213.974121,4442.307617,4490.641113,4308.589844,4392.05127,3403.0,0.0,11.0,,,,0.0,4.0,4.0,4.0,4.0,4.0,4.0,4.0,4.0,4.0,4.0,4.0,4.0,4.0,4.0,100.0,,,,,,,,,,,,,,,,,,,,,,,,,,,,,,,,,,,,,,,,,,,,,,,,,,,,,,,,0.0,0.0,1.0,0.0,1.0,0.0,,,,,,,,,,,,,,,,,,,,,,,,,,,,,,,,,,,,,,,,,,,,,,,,,,,,,,,,,,,,,,,,,,,,,,
1725717317.8082,1725717317.808457,237.0,0.0,4278.974121,4234.358887,4265.512695,4255.384766,4234.102539,4285.256348,4215.0,4229.358887,4246.666504,4216.410156,4442.820313,4496.538574,4311.025879,4396.153809,3867.0,0.0,11.0,,,,0.0,4.0,4.0,4.0,4.0,4.0,4.0,4.0,4.0,4.0,4.0,4.0,4.0,4.0,4.0,100.0,,,,,,,,,,,,,,,,,,,,,,,,,,,,,,,,,,,,,,,,,,,,,,,,,,,,,,,,,,,,,,,,,,,,,,,,,,,,,,,,,,,,,,,,,,,,,,,,,,,,,,,,,,,,,,,,,,,,,,,,,,,,,,,,,,,
1725717317.812104,1725717317.812361,238.0,0.0,4281.282227,4236.538574,4271.538574,4259.487305,4234.615234,4288.589844,4215.641113,4232.692383,4247.820313,4216.538574,4445.384766,4503.846191,4312.563965,4400.769043,2899.0,0.0,11.0,,,,0.0,4.0,4.0,4.0,4.0,4.0,4.0,4.0,4.0,4.0,4.0,4.0,4.0,4.0,4.0,100.0,,,,,,,,,,,,,,,,,,,,,,,,,,,,,,,,,,,,,,,,,,,,,,,,,,,,,,,,,,,,,,,,,,,,,,,,,,,,,,,,,,,,,,,,,,,,,,,,,,,,,,,,,,,,,,,,,,,,,,,,,,,,,,,,,,,
1725717317.816008,1725717317.816165,239.0,0.0,4282.94873,4237.179688,4276.666504,4262.436035,4235.128418,4290.256348,4217.179688,4233.333496,4247.94873,4214.487305,4449.871582,4508.205078,4312.692383,4404.102539,3126.0,0.0,11.0,,,,0.0,4.0,4.0,4.0,4.0,4.0,4.0,4.0,4.0,4.0,4.0,4.0,4.0,4.0,4.0,100.0,,,,,,,,,,,,,,,,,,,,,,,,,,,,,,,,,,,,,,,,,,,,,,,,,,,,,,,,,,,,,,,,,,,,,,,,,,,,,,,,,,,,,,,,,,,,,,,,,,,,,,,,,,,,,,,,,,,,,,,,,,,,,,,,,,,
1725717317.819913,1725717317.820069,240.0,0.0,4283.974121,4236.794922,4279.743652,4263.846191,4234.871582,4289.487305,4220.256348,4231.666504,4247.307617,4212.307617,4455.128418,4509.358887,4312.05127,4406.025879,3403.0,0.0,11.0,,,,0.0,4.0,4.0,4.0,4.0,4.0,4.0,4.0,4.0,4.0,4.0,4.0,4.0,4.0,4.0,100.0,,,,,,,,,,,,,,,,,,,,,,,,,,,,,,,,,,,,,,,,,,,,,,,,,,,,,,,,,,,,,,,,,,,,,,,,,,,,,,,,,,,,,,,,,,,,,,,,,,,,,,,,,,,,,,,,,,,,,,,,,,,,,,,,,,,
1725717317.823817,1725717317.823973,241.0,0.0,4285.128418,4237.05127,4280.641113,4264.487305,4234.102539,4287.563965,4224.358887,4229.871582,4247.05127,4211.922852,4459.871582,4511.025879,4312.307617,4408.077148,3867.0,0.0,11.0,,,,0.0,4.0,4.0,4.0,4.0,4.0,4.0,4.0,4.0,4.0,4.0,4.0,4.0,4.0,4.0,100.0,,,,,,,,,,,,,,,,,,,,,,,,,,,,,,,,,,,,,,,,,,,,,,,,,,,,,,,,,,,,,,,,,,,,,,,,,,,,,,,,,,,,,,,,,,,,,,,,,,,,,,,,,,,,,,,,,,,,,,,,,,,,,,,,,,,
1725717317.827721,1725717317.827977,242.0,0.0,4287.692383,4239.487305,4280.512695,4266.025879,4233.333496,4286.025879,4228.333496,4230.769043,4248.333496,4214.615234,4464.487305,4516.794922,4315.0,4411.922852,2899.0,0.0,11.0,,,,0.0,4.0,4.0,4.0,4.0,4.0,4.0,4.0,4.0,4.0,4.0,4.0,4.0,4.0,4.0,100.0,,,,,,,,,,,,,,,,,,,,,,,,,,,,,,,,,,,,,,,,,,,,,,,,,,,,,,,,,,,,,,,,,,,,,,,,,,,,,,,,,,,,,,,,,,,,,,,,,,,,,,,,,,,,,,,,,,,,,,,,,,,,,,,,,,,
1725717317.831625,1725717317.831881,243.0,0.0,4291.922852,4243.974121,4281.282227,4269.487305,4233.077148,4286.410156,4231.794922,4234.871582,4251.538574,4219.871582,4470.0,4526.794922,4320.256348,4418.077148,3126.0,0.0,11.0,,,,0.0,4.0,4.0,4.0,4.0,4.0,4.0,4.0,4.0,4.0,4.0,4.0,4.0,4.0,4.0,100.0,,,,,,,,,,,,,,,,,,,,,,,,,,,,,,,,,,,,,,,,,,,,,,,,,,,,,,,,,,,,,,,,,,,,,,,,,,,,,,,,,,,,,,,,,,,,,,,,,,,,,,,,,,,,,,,,,,,,,,,,,,,,,,,,,,,
