Timestamp,OriginalTimestamp,EEG.Counter,EEG.Interpolated,EEG.AF3,EEG.F7,EEG.F3,EEG.FC5,EEG.T7,EEG.P7,EEG.O1,EEG.O2,EEG.P8,EEG.T8,EEG.FC6,EEG.F4,EEG.F8,EEG.AF4,EEG.RawCq,EEG.Battery,EEG.BatteryPercent,MarkerIndex,MarkerType,MarkerValueInt,EEG.MarkerHardware,CQ.AF3,CQ.F7,CQ.F3,CQ.FC5,CQ.T7,CQ.P7,CQ.O1,CQ.O2,CQ.P8,CQ.T8,CQ.FC6,CQ.F4,CQ.F8,CQ.AF4,CQ.Overall,EQ.SampleRateQuality,EQ.OVERALL,EQ.AF3,EQ.F7,EQ.F3,EQ.FC5,EQ.T7,EQ.P7,EQ.O1,EQ.O2,EQ.P8,EQ.T8,EQ.FC6,EQ.F4,EQ.F8,EQ.AF4,MC.Action,MC.ActionPower,MC.IsActive,PM.Attention.IsActive,PM.Attention.Scaled,PM.Attention.Raw,PM.Attention.Min,PM.Attention.Max,PM.Engagement.IsActive,PM.Engagement.Scaled,PM.Engagement.Raw,PM.Engagement.Min,PM.Engagement.Max,PM.Excitement.IsActive,PM.Excitement.Scaled,PM.Excitement.Raw,PM.Excitement.Min,PM.Excitement.Max,PM.LongTermExcitement,PM.Stress.IsActive,PM.Stress.Scaled,PM.Stress.Raw,PM.Stress.Min,PM.Stress.Max,PM.Relaxation.IsActive,PM.Relaxation.Scaled,PM.Relaxation.Raw,PM.Relaxation.Min,PM.Relaxation.Max,PM.Interest.IsActive,PM.Interest.Scaled,PM.Interest.Raw,PM.Interest.Min,PM.Interest.Max,PM.Focus.IsActive,PM.Focus.Scaled,PM.Focus.Raw,PM.Focus.Min,PM.Focus.Max,FE.BlinkWink,FE.HorizontalEyesDirection,FE.UpperFaceAction,FE.UpperFaceActionPower,FE.LowerFaceAction,FE.LowerFaceActionPower,POW.AF3.Theta,POW.AF3.Alpha,POW.AF3.BetaL,POW.AF3.BetaH,POW.AF3.Gamma,POW.F7.Theta,POW.F7.Alpha,POW.F7.BetaL,POW.F7.BetaH,POW.F7.Gamma,POW.F3.Theta,POW.F3.Alpha,POW.F3.BetaL,POW.F3.BetaH,POW.F3.Gamma,POW.FC5.Theta,POW.FC5.Alpha,POW.FC5.BetaL,POW.FC5.BetaH,POW.FC5.Gamma,POW.T7.Theta,POW.T7.Alpha,POW.T7.BetaL,POW.T7.BetaH,POW.T7.Gamma,POW.P7.Theta,POW.P7.Alpha,POW.P7.BetaL,POW.P7.BetaH,POW.P7.Gamma,POW.O1.Theta,POW.O1.Alpha,POW.O1.BetaL,POW.O1.BetaH,POW.O1.Gamma,POW.O2.Theta,POW.O2.Alpha,POW.O2.BetaL,POW.O2.BetaH,POW.O2.Gamma,POW.P8.Theta,POW.P8.Alpha,POW.P8.BetaL,POW.P8.BetaH,POW.P8.Gamma,POW.T8.Theta,POW.T8.Alpha,POW.T8.BetaL,POW.T8.BetaH,POW.T8.Gamma,POW.FC6.Theta,POW.FC6.Alpha,POW.FC6.BetaL,POW.FC6.BetaH,POW.FC6.Gamma,POW.F4.Theta,POW.F4.Alpha,POW.F4.BetaL,POW.F4.BetaH,POW.F4.Gamma,POW.F8.Theta,POW.F8.Alpha,POW.F8.BetaL,POW.F8.BetaH,POW.F8.Gamma,POW.AF4.Theta,POW.AF4.Alpha,POW.AF4.BetaL,POW.AF4.BetaH,POW.AF4.Gamma
1725717285.142606,1725717285.144914,62.0,0.0,4242.307617,4262.692383,4265.384766,4344.615234,4216.153809,4274.871582,4021.923096,4256.025879,4251.025879,4232.307617,4493.589844,4531.666504,4359.487305,4434.871582,0.0,0.0,11.0,7.0,1.0,1.0,0.0,4.0,4.0,4.0,4.0,4.0,4.0,4.0,4.0,4.0,4.0,4.0,4.0,4.0,4.0,100.0,,,,,,,,,,,,,,,,,,,,,,,,,,,,,,,,,,,,,,,,,,,,,,,,,,,,,,,,,,,,,,,,,,,,,,,,,,,,,,,,,,,,,,,,,,,,,,,,,,,,,,,,,,,,,,,,,,,,,,,,,,,,,,,,,,,
1725717285.14651,1725717285.148819,63.0,0.0,4241.666504,4261.922852,4261.666504,4342.563965,4216.922852,4275.0,4019.487061,4250.769043,4249.230957,4230.256348,4491.794922,4530.769043,4357.179688,4431.410156,0.0,0.0,11.0,,,,0.0,4.0,4.0,4.0,4.0,4.0,4.0,4.0,4.0,4.0,4.0,4.0,4.0,4.0,4.0,100.0,,,,,,,,,,,,,,,,,,,,,,,,,,,,,,,,,,,,,,,,,,,,,,,,,,,,,,,,,,,,,,,,,,,,,,,,,,,,,,,,,,,,,,,,,,,,,,,,,,,,,,,,,,,,,,,,,,,,,,,,,,,,,,,,,,,
1725717285.150414,1725717285.152723,64.0,0.0,4241.666504,4263.205078,4262.05127,4344.102539,4221.153809,4275.769043,4018.846191,4249.487305,4247.307617,4228.077148,4490.256348,4530.256348,4358.717773,4428.333496,0.0,0.0,11.0,,,,0.0,4.0,4.0,4.0,4.0,4.0,4.0,4.0,4.0,4.0,4.0,4.0,4.0,4.0,4.0,100.0,,,,,,,,,,,,,,,,,,,,,,,,,,,,,,,,,,,,,,,,,,,,,,,,,,,,,,,,,,,,,,,,,,,,,,,,,,,,,,,,,,,,,,,,,,,,,,,,,,,,,,,,,,,,,,,,,,,,,,,,,,,,,,,,,,,
1725717285.154318,1725717285.156627,65.0,0.0,4242.563965,4265.897461,4266.153809,4347.692383,4226.922852,4276.794922,4019.230713,4253.333496,4246.794922,4227.307617,4490.769043,4531.025879,4362.436035,4427.307617,0.0,0.0,11.0,,,,0.0,4.0,4.0,4.0,4.0,4.0,4.0,4.0,4.0,4.0,4.0,4.0,4.0,4.0,4.0,100.0,,,,,,,,,,,,,,,,,,,,,,,,,,,,,,,,,,,,,,,,,,,,,,,,,,,,,,,,,,,,,,,,,,,,,,,,,,,,,,,,,,,,,,,,,,,,,,,,,,,,,,,,,,,,,,,,,,,,,,,,,,,,,,,,,,,
1725717285.158222,1725717285.160531,66.0,0.0,4243.589844,4268.974121,4271.794922,4351.025879,4231.538574,4277.692383,4019.230713,4260.0,4248.077148,4228.077148,4492.179688,4533.846191,4366.282227,4429.487305,0.0,0.0,11.0,,,,0.0,4.0,4.0,4.0,4.0,4.0,4.0,4.0,4.0,4.0,4.0,4.0,4.0,4.0,4.0,100.0,,,,,,,,,,,,,,,,,,,,,,,,,,,,,,,,,,,,,,,,,,,,,,,,,,,,,,,,,,,,,,,,,,,,,,,,,,,,,,,,,,,,,,,,,,,,,,,,,,,,,,,,,,,,,,,,,,,,,,,,,,,,,,,,,,,
1725717285.162126,1725717285.164335,67.0,0.0,4244.487305,4271.666504,4276.538574,4352.820313,4233.589844,4278.077148,4018.718018,4266.153809,4250.384766,4229.615234,4491.922852,4537.94873,4368.461426,4434.358887,0.0,0.0,11.0,,,,0.0,4.0,4.0,4.0,4.0,4.0,4.0,4.0,4.0,4.0,4.0,4.0,4.0,4.0,4.0,100.0,,,,,,,,,,,,,,,,,,,,,,,,,,,,,,,,,,,,,,,,,,,,,,,,,,,,,,,,,,,,,,,,,,,,,,,,,,,,,,,,,,,,,,,,,,,,,,,,,,,,,,,,,,,,,,,,,,,,,,,,,,,,,,,,,,,
1725717285.166031,1725717285.168239,68.0,0.0,4245.256348,4273.589844,4278.717773,4353.205078,4233.461426,4278.077148,4018.974365,4268.846191,4252.179688,4231.025879,4489.615234,4541.922852,4368.589844,4440.256348,0.0,0.0,11.0,,,,0.0,4.0,4.0,4.0,4.0,4.0,4.0,4.0,4.0,4.0,4.0,4.0,4.0,4.0,4.0,100.0,,,,,,,,,,,,,,,,,,,,,,,,,,,,,,,,,,,,,,,,,,,,,,,,,,,,,,,,0.0,0.0,1.0,0.0,1.0,0.0,,,,,,,,,,,,,,,,,,,,,,,,,,,,,,,,,,,,,,,,,,,,,,,,,,,,,,,,,,,,,,,,,,,,,,
1725717285.169935,1725717285.172143,69.0,0.0,4245.897461,4274.615234,4278.974121,4353.461426,4232.563965,4277.563965,4021.281982,4267.820313,4252.563965,4231.666504,4488.205078,4543.717773,4367.820313,4444.743652,0.0,0.0,11.0,,,,0.0,4.0,4.0,4.0,4.0,4.0,4.0,4.0,4.0,4.0,4.0,4.0,4.0,4.0,4.0,100.0,,,,,,,,,,,,,,,,,,,,,,,,,,,,,,,,,,,,,,,,,,,,,,,,,,,,,,,,,,,,,,,,,,,,,,,,,,,,,,,,,,,,,,,,,,,,,,,,,,,,,,,,,,,,,,,,,,,,,,,,,,,,,,,,,,,
1725717285.173839,1725717285.176147,70.0,0.0,4246.153809,4274.615234,4278.589844,4354.615234,4231.922852,4276.666504,4025.256348,4264.743652,4251.410156,4231.410156,4490.769043,4543.461426,4367.179688,4445.897461,0.0,0.0,11.0,,,,0.0,4.0,4.0,4.0,4.0,4.0,4.0,4.0,4.0,4.0,4.0,4.0,4.0,4.0,4.0,100.0,,,,,,,,,,,,,,,,,,,,,,,,,,,,,,,,,,,,,,,,,,,,,,,,,,,,,,,,,,,,,,,,,,,,,,,,,,,,,,,,,,,,,,,,,,,,,,,,,,,,,,,,,,,,,,,,,,,,,,,,,,,,,,,,,,,
1725717285.177743,1725717285.180051,71.0,0.0,4246.153809,4274.230957,4278.589844,4356.666504,4232.05127,4275.256348,4028.718018,4262.692383,4250.128418,4230.512695,4497.820313,4542.436035,4367.307617,4443.077148,0.0,0.0,11.0,,,,0.0,4.0,4.0,4.0,4.0,4.0,4.0,4.0,4.0,4.0,4.0,4.0,4.0,4.0,4.0,100.0,,,,,,,,,,,,,,,,,,,,,,,,,,,,,,,,,,,,,,,,,,,,,,,,,,,,,,,,,,,,,,,,,,,,,,,,,,,,,,,,,,,,,,,,,,,,,,,,,,,,,,,,,,,,,,,,,,,,,,,,,,,,,,,,,,,
1725717285.181647,1725717285.183955,72.0,0.0,4246.282227,4273.846191,4278.717773,4358.461426,4232.820313,4273.589844,4029.102539,4263.589844,4249.743652,4229.743652,4506.025879,4542.05127,4367.05127,4437.692383,0.0,0.0,11.0,,,,0.0,4.0,4.0,4.0,4.0,4.0,4.0,4.0,4.0,4.0,4.0,4.0,4.0,4.0,4.0,100.0,,,,,,,,,,,,,,,,,,,,,,,,,,,,,,,,,,,,,,,,,,,,,,,,,,,,,,,,,,,,,,,,,,,,,,,,,,,,,,,,,,,,,,,,,,,,,,,,,,,,,,,,,,,,,,,,,,,,,,,,,,,,,,,,,,,
1725717285.185551,1725717285.18786,73.0,0.0,4247.179688,4272.94873,4278.333496,4358.333496,4234.358887,4272.179688,4026.410156,4266.794922,4250.512695,4229.487305,4510.256348,4541.538574,4365.641113,4432.05127,0.0,0.0,11.0,,,,0.0,4.0,4.0,4.0,4.0,4.0,4.0,4.0,4.0,4.0,4.0,4.0,4.0,4.0,4.0,100.0,,,,,,,,,,,,,,,,,,,,,,,,,,,,,,,,,,,,,,,,,,,,,,,,,,,,,,,,,,,,,,,,,,,,,,,,,,,,,,,,,,,,,,,,,,,,,,,,,,,,,,,,,,,,,,,,,,,,,,,,,,,,,,,,,,,
1725717285.189455,1725717285.191664,74.0,0.0,4248.333496,4269.358887,4276.410156,4356.153809,4235.769043,4271.794922,4022.564209,4269.102539,4251.666504,4230.0,4507.820313,4539.358887,4362.820313,4428.589844,0.0,0.0,11.0,,,,0.0,4.0,4.0,4.0,4.0,4.0,4.0,4.0,4.0,4.0,4.0,4.0,4.0,4.0,4.0,100.0,,,,,,,,,,,,,,,,,,,,,,,,,,,,,,,,,,,,,,,,,,,,,,,,,,,,,,,,,,,,,,,,,,,,,,,,,,,,,,,,,,,,,,,,,,,,,,,,,,,,,,,,,,,,,,,,,,,,,,,,,,,,,,,,,,,
1725717285.193359,1725717285.195568,75.0,0.0,4248.461426,4260.384766,4272.820313,4352.563965,4236.410156,4273.077148,4020.256348,4268.205078,4252.563965,4230.769043,4500.512695,4535.128418,4359.615234,4427.563965,0.0,0.0,11.0,,,,0.0,4.0,4.0,4.0,4.0,4.0,4.0,4.0,4.0,4.0,4.0,4.0,4.0,4.0,4.0,100.0,,,,,,,,,,,,,,,,,,,,,,,,,,,,,,,,,,,,,,,,,,,,,,,,,,,,,,,,,,,,,,,,,,,,,,,,,,,,,,,,,,,,,,,,,,,,,,,,,,,,,,,,,,,,,,,,,,,,,,,,,,,,,,,,,,,
1725717285.197263,1725717285.199472,76.0,0.0,4246.538574,4245.641113,4268.589844,4349.230957,4236.794922,4276.025879,4021.794922,4263.846191,4252.94873,4230.897461,4493.461426,4530.0,4357.563965,4427.820313,0.0,0.0,11.0,,,,0.0,4.0,4.0,4.0,4.0,4.0,4.0,4.0,4.0,4.0,4.0,4.0,4.0,4.0,4.0,100.0,,,,,,,,,,,,,,,,,,,,,,,,,,,,,,,,,,,,,,,,,,,,,,,,,,,,,,,,0.0,0.0,1.0,0.0,1.0,0.0,,,,,,,,,,,,,,,,,,,,,,,,,,,,,,,,,,,,,,,,,,,,,,,,,,,,,,,,,,,,,,,,,,,,,,
1725717285.201167,1725717285.203476,77.0,0.0,4243.333496,4228.717773,4265.256348,4347.563965,4238.077148,4279.487305,4026.794922,4257.692383,4252.307617,4230.0,4490.641113,4526.153809,4356.538574,4427.563965,0.0,0.0,11.0,,,,0.0,4.0,4.0,4.0,4.0,4.0,4.0,4.0,4.0,4.0,4.0,4.0,4.0,4.0,4.0,100.0,,,,,,,,,,,,,,,,,,,,,,,,,,,,,,,,,,,,,,,,,,,,,,,,,,,,,,,,,,,,,,,,,,,,,,,,,,,,,,,,,,,,,,,,,,,,,,,,,,,,,,,,,,,,,,,,,,,,,,,,,,,,,,,,,,,
1725717285.205072,1725717285.20738,78.0,0.0,4240.641113,4215.256348,4263.846191,4347.563965,4240.769043,4282.179688,4033.846191,4251.538574,4250.128418,4227.692383,4492.179688,4523.589844,4355.512695,4425.641113,0.0,0.0,11.0,,,,0.0,4.0,4.0,4.0,4.0,4.0,4.0,4.0,4.0,4.0,4.0,4.0,4.0,4.0,4.0,100.0,,,,,,,,,,,,,,,,,,,,,,,,,,,,,,,,,,,,,,,,,,,,,,,,,,,,,,,,,,,,,,,,,,,,,,,,,,,,,,,,,,,,,,,,,,,,,,,,,,,,,,,,,,,,,,,,,,,,,,,,,,,,,,,,,,,
1725717285.208975,1725717285.211284,79.0,0.0,4239.871582,4209.487305,4264.230957,4348.717773,4244.615234,4283.077148,4040.384521,4246.410156,4246.282227,4224.102539,4493.589844,4521.153809,4352.820313,4421.666504,0.0,0.0,11.0,,,,0.0,4.0,4.0,4.0,4.0,4.0,4.0,4.0,4.0,4.0,4.0,4.0,4.0,4.0,4.0,100.0,,,,,,,,,,,,,,,,,,,,,,,,,,,,,,,,,,,,,,,,,,,,,,,,,,,,,,,,,,,,,,,,,,,,,,,,,,,,,,,,,,,,,,,,,,,,,,,,,,,,,,,,,,,,,,,,,,,,,,,,,,,,,,,,,,,
1725717285.21288,1725717285.215188,80.0,0.0,4240.641113,4211.153809,4265.0,4349.615234,4248.077148,4282.179688,4044.871826,4243.077148,4241.666504,4219.102539,4490.769043,4517.05127,4348.077148,4416.282227,0.0,0.0,11.0,,,,0.0,4.0,4.0,4.0,4.0,4.0,4.0,4.0,4.0,4.0,4.0,4.0,4.0,4.0,4.0,100.0,,,,,,,,,,,,,,,,,,,,,,,,,,,,,,,,,,,,,,,,,,,,,,,,,,,,,,,,,,,,,,,,,,,,,,,,,,,,,,,,,,,,,,,,,,,,,,,,,,,,,,,,,,,,,,,,,,,,,,,,,,,,,,,,,,,
1725717285.216784,1725717285.219092,81.0,0.0,4241.282227,4216.410156,4264.743652,4348.974121,4249.743652,4280.512695,4046.923096,4242.05127,4237.307617,4214.230957,4483.077148,4511.666504,4343.461426,4410.897461,0.0,0.0,11.0,,,,0.0,4.0,4.0,4.0,4.0,4.0,4.0,4.0,4.0,4.0,4.0,4.0,4.0,4.0,4.0,100.0,,,,,,,,,,,,,,,,,,,,,,,,,,,,,,,,,,,,,,,,,,,,,,,,,,,,,,,,,,,,,,,,,,,,,,,,,,,,,,,,,,,,,,,,,,,,,,,,,,,,,,,,,,,,,,,,,,,,,,,,,,,,,,,,,,,
1725717285.220688,1725717285.222897,82.0,0.0,4240.256348,4219.743652,4263.589844,4346.794922,4249.487305,4279.358887,4047.179443,4243.077148,4234.358887,4211.282227,4474.358887,4506.794922,4341.153809,4407.179688,0.0,0.0,11.0,,,,0.0,4.0,4.0,4.0,4.0,4.0,4.0,4.0,4.0,4.0,4.0,4.0,4.0,4.0,4.0,100.0,,,,,,,,,,,,,,,,,,,,,,,,,,,,,,,,,,,,,,,,,,,,,,,,,,,,,,,,,,,,,,,,,,,,,,,,,,,,,,,,,,,,,,,,,,,,,,,,,,,,,,,,,,,,,,,,,,,,,,,,,,,,,,,,,,,
1725717285.224592,1725717285.226801,83.0,0.0,4237.179688,4217.94873,4262.436035,4343.846191,4247.563965,4279.230957,4046.538574,4244.487305,4233.205078,4211.666504,4469.102539,4504.102539,4341.666504,4405.512695,0.0,0.0,11.0,,,,0.0,4.0,4.0,4.0,4.0,4.0,4.0,4.0,4.0,4.0,4.0,4.0,4.0,4.0,4.0,100.0,,,,,,,,,,,,,,,,,,,,,,,,,,,,,,,,,,,,,,,,,,,,,,,,,,,,,,,,,,,,,,,,,,,,,,,,,,,,,,,,,,,,,,,,,,,,,,,,,,,,,,,,,,,,,,,,,,,,,,,,,,,,,,,,,,,
1725717285.228496,1725717285.230705,84.0,0.0,4233.333496,4211.282227,4261.410156,4341.410156,4245.384766,4279.871582,4045.641113,4245.0,4233.846191,4214.487305,4469.230957,4503.333496,4343.205078,4405.0,0.0,0.0,11.0,,,,0.0,4.0,4.0,4.0,4.0,4.0,4.0,4.0,4.0,4.0,4.0,4.0,4.0,4.0,4.0,100.0,,,,,,,,,,,,,,,,,1.0,0.0,0.0,,,,,,,,,,,,,,,,,,,,,,,,,,,,,,,,,,,,,0.0,0.0,1.0,0.0,1.0,0.0,3.286063,1.576091,0.431618,0.276221,0.090807,2.594811,1.506259,0.869807,0.251788,0.101354,1.892374,1.567891,0.438677,0.199639,0.05217,1.98066,1.06047,0.829028,0.245459,0.089613,0.695765,0.75947,0.340209,0.185688,0.060682,0.707907,0.488234,0.223469,0.129061,0.071923,1.538243,0.195438,0.321764,0.155071,0.040635,0.694209,1.636802,0.661387,0.186601,0.144166,1.117207,1.07135,0.796707,0.268157,0.151128,2.03518,1.979062,0.700602,0.463212,0.232386,2.626789,2.543738,0.876688,0.83243,0.527215,3.21075,3.432456,0.704883,0.537987,0.224143,3.714248,2.456859,1.032949,0.848092,0.127165,3.247231,2.417689,0.820616,0.497775,0.116006
1725717285.2324,1725717285.234709,85.0,0.0,4230.128418,4203.205078,4260.256348,4340.641113,4243.974121,4281.025879,4044.487061,4244.102539,4235.256348,4217.05127,4472.563965,4503.205078,4343.461426,4404.615234,0.0,0.0,11.0,,,,0.0,4.0,4.0,4.0,4.0,4.0,4.0,4.0,4.0,4.0,4.0,4.0,4.0,4.0,4.0,100.0,,,,,,,,,,,,,,,,,,,,,,,,,,,,,,,,,,,,,,,,,,,,,,,,,,,,,,,,,,,,,,,,,,,,,,,,,,,,,,,,,,,,,,,,,,,,,,,,,,,,,,,,,,,,,,,,,,,,,,,,,,,,,,,,,,,
1725717285.236304,1725717285.238613,86.0,0.0,4228.974121,4198.077148,4258.589844,4341.282227,4243.589844,4281.922852,4043.205078,4242.94873,4235.897461,4217.563965,4475.769043,4502.05127,4341.282227,4403.846191,0.0,0.0,11.0,,,,0.0,4.0,4.0,4.0,4.0,4.0,4.0,4.0,4.0,4.0,4.0,4.0,4.0,4.0,4.0,100.0,,,,,,,,,,,,,,,,,,,,,,,,,,,,,,,,,,,,,,,,,,,,,,,,,,,,,,,,,,,,,,,,,,,,,,,,,,,,,,,,,,,,,,,,,,,,,,,,,,,,,,,,,,,,,,,,,,,,,,,,,,,,,,,,,,,
1725717285.240208,1725717285.242517,87.0,0.0,4230.128418,4198.205078,4257.05127,4342.563965,4243.333496,4282.05127,4042.692383,4242.563965,4235.384766,4215.256348,4477.307617,4499.871582,4338.461426,4403.461426,0.0,0.0,11.0,,,,0.0,4.0,4.0,4.0,4.0,4.0,4.0,4.0,4.0,4.0,4.0,4.0,4.0,4.0,4.0,100.0,,,,,,,,,,,,,,,,,,,,,,,,,,,,,,,,,,,,,,,,,,,,,,,,,,,,,,,,,,,,,,,,,,,,,,,,,,,,,,,,,,,,,,,,,,,,,,,,,,,,,,,,,,,,,,,,,,,,,,,,,,,,,,,,,,,
1725717285.244112,1725717285.246421,88.0,0.0,4232.94873,4202.692383,4256.666504,4343.461426,4241.922852,4281.410156,4043.333252,4243.589844,4234.230957,4211.153809,4477.436035,4497.692383,4338.205078,4404.487305,0.0,0.0,11.0,,,,0.0,4.0,4.0,4.0,4.0,4.0,4.0,4.0,4.0,4.0,4.0,4.0,4.0,4.0,4.0,100.0,,,,,,,,,,,,,,,,,,,,,,,,,,,,,,,,,,,,,,,,,,,,,,,,,,,,,,,,,,,,,,,,,,,,,,,,,,,,,,,,,,,,,,,,,,,,,,,,,,,,,,,,,,,,,,,,,,,,,,,,,,,,,,,,,,,
1725717285.248016,1725717285.250425,89.0,0.0,4235.512695,4208.846191,4258.333496,4343.461426,4239.230957,4280.641113,4044.871826,4245.897461,4233.461426,4206.153809,4476.922852,4497.692383,4341.922852,4407.563965,0.0,0.0,11.0,,,,0.0,4.0,4.0,4.0,4.0,4.0,4.0,4.0,4.0,4.0,4.0,4.0,4.0,4.0,4.0,100.0,,,,,,,,,,,,,,,,,,,,,,,,,,,,,,,,,,,,,,,,,,,,,,,,,,,,,,,,,,,,,,,,,,,,,,,,,,,,,,,,,,,,,,,,,,,,,,,,,,,,,,,,,,,,,,,,,,,,,,,,,,,,,,,,,,,
1725717285.251921,1725717285.254329,90.0,0.0,4236.538574,4213.589844,4261.025879,4342.820313,4235.897461,4280.897461,4045.897461,4248.717773,4233.333496,4201.922852,4476.666504,4500.641113,4347.692383,4411.666504,0.0,0.0,11.0,,,,0.0,4.0,4.0,4.0,4.0,4.0,4.0,4.0,4.0,4.0,4.0,4.0,4.0,4.0,4.0,100.0,,,,,,,,,,,,,,,,,,,,,,,,,,,,,,,,,,,,,,,,,,,,,,,,,,,,,,,,,,,,,,,,,,,,,,,,,,,,,,,,,,,,,,,,,,,,,,,,,,,,,,,,,,,,,,,,,,,,,,,,,,,,,,,,,,,
1725717285.255825,1725717285.258233,91.0,0.0,4235.897461,4215.769043,4263.846191,4342.05127,4233.205078,4282.692383,4045.512939,4251.025879,4233.333496,4200.0,4476.282227,4505.384766,4351.282227,4415.256348,0.0,0.0,11.0,,,,0.0,4.0,4.0,4.0,4.0,4.0,4.0,4.0,4.0,4.0,4.0,4.0,4.0,4.0,4.0,100.0,,,,,,,,,,,,,,,,,,,,,,,,,,,,,,,,,,,,,,,,,,,,,,,,,,,,,,,,,,,,,,,,,,,,,,,,,,,,,,,,,,,,,,,,,,,,,,,,,,,,,,,,,,,,,,,,,,,,,,,,,,,,,,,,,,,
1725717285.259729,1725717285.262137,92.0,0.0,4234.615234,4215.384766,4265.512695,4342.05127,4231.794922,4285.256348,4044.230713,4251.666504,4232.692383,4201.153809,4475.641113,4508.717773,4349.743652,4416.282227,0.0,0.0,11.0,,,,0.0,4.0,4.0,4.0,4.0,4.0,4.0,4.0,4.0,4.0,4.0,4.0,4.0,4.0,4.0,100.0,,,,,,,,,,,,,,,,,,,,,,,,,,,,,,,,,,,,,,,,,,,,,,,,,,,,,,,,0.0,0.0,1.0,0.0,1.0,0.0,,,,,,,,,,,,,,,,,,,,,,,,,,,,,,,,,,,,,,,,,,,,,,,,,,,,,,,,,,,,,,,,,,,,,,
1725717285.263633,1725717285.266042,93.0,0.0,4234.102539,4213.974121,4265.641113,4342.692383,4231.794922,4286.922852,4043.589844,4250.0,4231.538574,4205.128418,4475.0,4508.205078,4344.230957,4414.487305,0.0,0.0,11.0,,,,0.0,4.0,4.0,4.0,4.0,4.0,4.0,4.0,4.0,4.0,4.0,4.0,4.0,4.0,4.0,100.0,,,,,,,,,,,,,,,,,,,,,,,,,,,,,,,,,,,,,,,,,,,,,,,,,,,,,,,,,,,,,,,,,,,,,,,,,,,,,,,,,,,,,,,,,,,,,,,,,,,,,,,,,,,,,,,,,,,,,,,,,,,,,,,,,,,
1725717285.267537,1725717285.269846,94.0,0.0,4234.871582,4213.333496,4264.487305,4343.333496,4232.307617,4286.794922,4044.743652,4246.410156,4231.153809,4210.641113,4475.384766,4505.0,4339.615234,4411.410156,0.0,0.0,11.0,,,,0.0,4.0,4.0,4.0,4.0,4.0,4.0,4.0,4.0,4.0,4.0,4.0,4.0,4.0,4.0,100.0,,,,,,,,,,,,,,,,,,,,,,,,,,,,,,,,,,,,,,,,,,,,,,,,,,,,,,,,,,,,,,,,,,,,,,,,,,,,,,,,,,,,,,,,,,,,,,,,,,,,,,,,,,,,,,,,,,,,,,,,,,,,,,,,,,,
1725717285.271441,1725717285.27375,95.0,0.0,4237.563965,4214.102539,4262.94873,4343.205078,4232.820313,4285.384766,4047.307617,4243.205078,4232.179688,4215.769043,4477.436035,4502.436035,4340.128418,4409.615234,0.0,0.0,11.0,,,,0.0,4.0,4.0,4.0,4.0,4.0,4.0,4.0,4.0,4.0,4.0,4.0,4.0,4.0,4.0,100.0,,,,,,,,,,,,,,,,,,,,,,,,,,,,,,,,,,,,,,,,,,,,,,,,,,,,,,,,,,,,,,,,,,,,,,,,,,,,,,,,,,,,,,,,,,,,,,,,,,,,,,,,,,,,,,,,,,,,,,,,,,,,,,,,,,,
1725717285.275345,1725717285.277654,96.0,0.0,4241.794922,4216.025879,4262.307617,4342.436035,4232.820313,4284.102539,4049.615479,4242.179688,4234.230957,4218.974121,4479.358887,4504.102539,4345.641113,4411.282227,0.0,0.0,11.0,,,,0.0,4.0,4.0,4.0,4.0,4.0,4.0,4.0,4.0,4.0,4.0,4.0,4.0,4.0,4.0,100.0,,,,,,,,,,,,,,,,,,,,,,,,,,,,,,,,,,,,,,,,,,,,,,,,,,,,,,,,,,,,,,,,,,,,,,,,,,,,,,,,,,,,,,,,,,,,,,,,,,,,,,,,,,,,,,,,,,,,,,,,,,,,,,,,,,,
1725717285.279249,1725717285.281458,97.0,0.0,4246.794922,4217.307617,4263.846191,4341.922852,4232.563965,4284.358887,4050.769287,4243.846191,4235.256348,4219.358887,4478.589844,4510.256348,4352.05127,4416.794922,0.0,0.0,11.0,,,,0.0,4.0,4.0,4.0,4.0,4.0,4.0,4.0,4.0,4.0,4.0,4.0,4.0,4.0,4.0,100.0,,,,,,,,,,,,,,,,,,,,,,,,,,,,,,,,,,,,,,,,,,,,,,,,,,,,,,,,,,,,,,,,,,,,,,,,,,,,,,,,,,,,,,,,,,,,,,,,,,,,,,,,,,,,,,,,,,,,,,,,,,,,,,,,,,,
1725717285.283153,1725717285.285362,98.0,0.0,4250.769043,4216.922852,4267.94873,4342.307617,4232.436035,4285.897461,4050.897461,4246.410156,4234.615234,4217.307617,4474.743652,4517.94873,4355.256348,4423.461426,0.0,0.0,11.0,,,,0.0,4.0,4.0,4.0,4.0,4.0,4.0,4.0,4.0,4.0,4.0,4.0,4.0,4.0,4.0,100.0,,,,,,,,,,,,,,,,,,,,,,,,,,,,,,,,,,,,,,,,,,,,,,,,,,,,,,,,,,,,,,,,,,,,,,,,,,,,,,,,,,,,,,,,,,,,,,,,,,,,,,,,,,,,,,,,,,,,,,,,,,,,,,,,,,,
1725717285.287058,1725717285.289266,99.0,0.0,4252.436035,4215.128418,4273.461426,4342.692383,4232.436035,4287.94873,4051.410156,4247.94873,4233.461426,4214.102539,4470.641113,4523.717773,4354.230957,4428.077148,0.0,0.0,11.0,,,,0.0,4.0,4.0,4.0,4.0,4.0,4.0,4.0,4.0,4.0,4.0,4.0,4.0,4.0,4.0,100.0,,,,,,,,,,,,,,,,,,,,,,,,,,,,,,,,,,,,,,,,,,,,,,,,,,,,,,,,,,,,,,,,,,,,,,,,,,,,,,,,,,,,,,,,,,,,,,,,,,,,,,,,,,,,,,,,,,,,,,,,,,,,,,,,,,,
1725717285.290962,1725717285.293171,100.0,0.0,4251.794922,4213.717773,4278.333496,4342.436035,4232.563965,4288.717773,4053.333252,4247.692383,4234.230957,4212.05127,4470.641113,4525.769043,4351.794922,4428.974121,0.0,0.0,11.0,,,,0.0,4.0,4.0,4.0,4.0,4.0,4.0,4.0,4.0,4.0,4.0,4.0,4.0,4.0,4.0,100.0,,,,,,,,,,,,,,,,,,,,,,,,,,,,,,,,,,,,,,,,,,,,,,,,,,,,,,,,0.0,0.0,1.0,0.0,1.0,0.0,,,,,,,,,,,,,,,,,,,,,,,,,,,,,,,,,,,,,,,,,,,,,,,,,,,,,,,,,,,,,,,,,,,,,,
1725717285.294866,1725717285.296975,101.0,0.0,4250.769043,4214.102539,4281.025879,4342.179688,4232.820313,4288.077148,4056.794922,4246.410156,4238.717773,4213.589844,4477.692383,4525.128418,4352.179688,4428.077148,0.0,0.0,11.0,,,,0.0,4.0,4.0,4.0,4.0,4.0,4.0,4.0,4.0,4.0,4.0,4.0,4.0,4.0,4.0,100.0,,,,,,,,,,,,,,,,,,,,,,,,,,,,,,,,,,,,,,,,,,,,,,,,,,,,,,,,,,,,,,,,,,,,,,,,,,,,,,,,,,,,,,,,,,,,,,,,,,,,,,,,,,,,,,,,,,,,,,,,,,,,,,,,,,,
1725717285.29877,1725717285.300879,102.0,0.0,4250.512695,4216.282227,4281.410156,4343.205078,4232.820313,4287.179688,4060.512939,4245.641113,4246.282227,4219.230957,4490.384766,4524.871582,4356.794922,4428.846191,0.0,0.0,11.0,,,,0.0,4.0,4.0,4.0,4.0,4.0,4.0,4.0,4.0,4.0,4.0,4.0,4.0,4.0,4.0,100.0,,,,,,,,,,,,,,,,,,,,,,,,,,,,,,,,,,,,,,,,,,,,,,,,,,,,,,,,,,,,,,,,,,,,,,,,,,,,,,,,,,,,,,,,,,,,,,,,,,,,,,,,,,,,,,,,,,,,,,,,,,,,,,,,,,,
1725717285.302674,1725717285.304783,103.0,0.0,4251.025879,4218.205078,4280.128418,4345.641113,4232.820313,4287.820313,4062.820557,4246.922852,4253.974121,4227.05127,4503.205078,4527.179688,4364.102539,4432.563965,0.0,0.0,11.0,,,,0.0,4.0,4.0,4.0,4.0,4.0,4.0,4.0,4.0,4.0,4.0,4.0,4.0,4.0,4.0,100.0,,,,,,,,,,,,,,,,,,,,,,,,,,,,,,,,,,,,,,,,,,,,,,,,,,,,,,,,,,,,,,,,,,,,,,,,,,,,,,,,,,,,,,,,,,,,,,,,,,,,,,,,,,,,,,,,,,,,,,,,,,,,,,,,,,,
1725717285.306578,1725717285.308687,104.0,0.0,4251.282227,4217.563965,4278.846191,4347.94873,4232.820313,4290.384766,4062.692383,4250.769043,4258.205078,4233.846191,4510.641113,4532.179688,4370.128418,4437.307617,0.0,0.0,11.0,,,,0.0,4.0,4.0,4.0,4.0,4.0,4.0,4.0,4.0,4.0,4.0,4.0,4.0,4.0,4.0,100.0,,,,,,,,,,,,,,,,,,,,,,,,,,,,,,,,,,,,,,,,,,,,,,,,,,,,,,,,,,,,,,,,,,,,,,,,,,,,,,,,,,,,,,,,,,,,,,,,,,,,,,,,,,,,,,,,,,,,,,,,,,,,,,,,,,,
1725717285.310482,1725717285.312491,105.0,0.0,4251.025879,4213.846191,4278.461426,4348.333496,4232.820313,4293.589844,4060.769287,4255.769043,4257.307617,4237.179688,4511.025879,4537.94873,4371.922852,4440.256348,0.0,0.0,11.0,,,,0.0,4.0,4.0,4.0,4.0,4.0,4.0,4.0,4.0,4.0,4.0,4.0,4.0,4.0,4.0,100.0,,,,,,,,,,,,,,,,,,,,,,,,,,,,,,,,,,,,,,,,,,,,,,,,,,,,,,,,,,,,,,,,,,,,,,,,,,,,,,,,,,,,,,,,,,,,,,,,,,,,,,,,,,,,,,,,,,,,,,,,,,,,,,,,,,,
1725717285.314386,1725717285.316395,106.0,0.0,4250.641113,4208.461426,4279.230957,4346.410156,4232.820313,4295.128418,4058.974365,4260.384766,4253.077148,4236.794922,4506.794922,4542.179688,4369.487305,4439.871582,0.0,0.0,11.0,,,,0.0,4.0,4.0,4.0,4.0,4.0,4.0,4.0,4.0,4.0,4.0,4.0,4.0,4.0,4.0,100.0,,,,,,,,,,,,,,,,,,,,,,,,,,,,,,,,,,,,,,,,,,,,,,,,,,,,,,,,,,,,,,,,,,,,,,,,,,,,,,,,,,,,,,,,,,,,,,,,,,,,,,,,,,,,,,,,,,,,,,,,,,,,,,,,,,,
1725717285.31829,1725717285.320399,107.0,0.0,4251.025879,4203.974121,4280.512695,4343.717773,4232.820313,4294.102539,4059.358887,4263.333496,4249.871582,4234.871582,4502.692383,4543.205078,4365.897461,4437.820313,0.0,0.0,11.0,,,,0.0,4.0,4.0,4.0,4.0,4.0,4.0,4.0,4.0,4.0,4.0,4.0,4.0,4.0,4.0,100.0,,,,,,,,,,,,,,,,,,,,,,,,,,,,,,,,,,,,,,,,,,,,,,,,,,,,,,,,,,,,,,,,,,,,,,,,,,,,,,,,,,,,,,,,,,,,,,,,,,,,,,,,,,,,,,,,,,,,,,,,,,,,,,,,,,,
1725717285.322194,1725717285.324303,108.0,0.0,4252.179688,4201.666504,4281.153809,4342.563965,4232.820313,4291.282227,4061.794922,4264.102539,4251.025879,4233.333496,4502.05127,4541.153809,4363.974121,4436.410156,0.0,0.0,11.0,,,,0.0,4.0,4.0,4.0,4.0,4.0,4.0,4.0,4.0,4.0,4.0,4.0,4.0,4.0,4.0,100.0,,,,,,,,,,,,,,,,,,,,,,,,,,,,,,,,,,,,,,,,,,,,,,,,,,,,,,,,0.0,0.0,1.0,0.0,1.0,0.0,,,,,,,,,,,,,,,,,,,,,,,,,,,,,,,,,,,,,,,,,,,,,,,,,,,,,,,,,,,,,,,,,,,,,,
1725717285.326099,1725717285.328208,109.0,0.0,4253.333496,4201.922852,4281.153809,4344.358887,4232.563965,4289.230957,4064.487061,4263.589844,4256.922852,4233.461426,4504.230957,4537.820313,4364.487305,4437.436035,0.0,0.0,11.0,,,,0.0,4.0,4.0,4.0,4.0,4.0,4.0,4.0,4.0,4.0,4.0,4.0,4.0,4.0,4.0,100.0,,,,,,,,,,,,,,,,,,,,,,,,,,,,,,,,,,,,,,,,,,,,,,,,,,,,,,,,,,,,,,,,,,,,,,,,,,,,,,,,,,,,,,,,,,,,,,,,,,,,,,,,,,,,,,,,,,,,,,,,,,,,,,,,,,,
1725717285.330003,1725717285.332112,110.0,0.0,4253.589844,4203.461426,4280.512695,4347.820313,4232.05127,4290.0,4065.769287,4262.563965,4263.846191,4235.128418,4506.410156,4535.897461,4366.282227,4439.615234,0.0,0.0,11.0,,,,0.0,4.0,4.0,4.0,4.0,4.0,4.0,4.0,4.0,4.0,4.0,4.0,4.0,4.0,4.0,100.0,,,,,,,,,,,,,,,,,,,,,,,,,,,,,,,,,,,,,,,,,,,,,,,,,,,,,,,,,,,,,,,,,,,,,,,,,,,,,,,,,,,,,,,,,,,,,,,,,,,,,,,,,,,,,,,,,,,,,,,,,,,,,,,,,,,
1725717285.333907,1725717285.336016,111.0,0.0,4252.563965,4204.230957,4279.871582,4350.769043,4231.794922,4293.077148,4066.025635,4262.436035,4267.692383,4237.179688,4506.666504,4536.282227,4367.307617,4440.641113,0.0,0.0,11.0,,,,0.0,4.0,4.0,4.0,4.0,4.0,4.0,4.0,4.0,4.0,4.0,4.0,4.0,4.0,4.0,100.0,,,,,,,,,,,,,,,,,,,,,,,,,,,,,,,,,,,,,,,,,,,,,,,,,,,,,,,,,,,,,,,,,,,,,,,,,,,,,,,,,,,,,,,,,,,,,,,,,,,,,,,,,,,,,,,,,,,,,,,,,,,,,,,,,,,
1725717285.337811,1725717285.34002,112.0,0.0,4250.641113,4203.589844,4279.358887,4350.769043,4232.436035,4296.282227,4066.923096,4263.717773,4267.307617,4238.333496,4505.256348,4538.333496,4367.05127,4438.461426,0.0,0.0,11.0,,,,0.0,4.0,4.0,4.0,4.0,4.0,4.0,4.0,4.0,4.0,4.0,4.0,4.0,4.0,4.0,100.0,,,,,,,,,,,,,,,,,,,,,,,,,,,,,,,,,,,,,,,,,,,,,,,,,,,,,,,,,,,,,,,,,,,,,,,,,,,,,,,,,,,,,,,,,,,,,,,,,,,,,,,,,,,,,,,,,,,,,,,,,,,,,,,,,,,
1725717285.341715,1725717285.343924,113.0,0.0,4248.974121,4201.922852,4278.846191,4347.820313,4233.205078,4297.820313,4069.230713,4266.025879,4264.871582,4237.692383,4504.102539,4539.743652,4366.410156,4433.589844,0.0,0.0,11.0,,,,0.0,4.0,4.0,4.0,4.0,4.0,4.0,4.0,4.0,4.0,4.0,4.0,4.0,4.0,4.0,100.0,,,,,,,,,,,,,,,,,,,,,,,,,,,,,,,,,,,,,,,,,,,,,,,,,,,,,,,,,,,,,,,,,,,,,,,,,,,,,,,,,,,,,,,,,,,,,,,,,,,,,,,,,,,,,,,,,,,,,,,,,,,,,,,,,,,
1725717285.345619,1725717285.347828,114.0,0.0,4248.205078,4200.128418,4278.205078,4343.461426,4233.461426,4297.05127,4072.179443,4268.077148,4263.461426,4236.025879,4504.230957,4538.717773,4366.282227,4428.974121,0.0,0.0,11.0,,,,0.0,4.0,4.0,4.0,4.0,4.0,4.0,4.0,4.0,4.0,4.0,4.0,4.0,4.0,4.0,100.0,,,,,,,,,,,,,,,,,,,,,,,,,,,,,,,,,,,,,,,,,,,,,,,,,,,,,,,,,,,,,,,,,,,,,,,,,,,,,,,,,,,,,,,,,,,,,,,,,,,,,,,,,,,,,,,,,,,,,,,,,,,,,,,,,,,
1725717285.349523,1725717285.351732,115.0,0.0,4248.589844,4198.974121,4277.94873,4340.256348,4232.307617,4295.384766,4074.358887,4268.077148,4263.846191,4234.743652,4504.871582,4535.384766,4367.179688,4426.922852,0.0,0.0,11.0,,,,0.0,4.0,4.0,4.0,4.0,4.0,4.0,4.0,4.0,4.0,4.0,4.0,4.0,4.0,4.0,100.0,,,,,,,,,,,,,,,,,,,,,,,,,,,,,,,,,,,,,,,,,,,,,,,,,,,,,,,,,,,,,,,,,,,,,,,,,,,,,,,,,,,,,,,,,,,,,,,,,,,,,,,,,,,,,,,,,,,,,,,,,,,,,,,,,,,
1725717285.353427,1725717285.355736,116.0,0.0,4249.743652,4198.461426,4278.077148,4339.615234,4230.897461,4294.615234,4075.512939,4264.743652,4264.358887,4234.230957,4504.230957,4530.641113,4368.461426,4428.077148,0.0,0.0,11.0,,,,0.0,4.0,4.0,4.0,4.0,4.0,4.0,4.0,4.0,4.0,4.0,4.0,4.0,4.0,4.0,100.0,,,,,,,,,,,,,,,,,1.0,0.0,0.0,,,,,,,,,,,,,,,,,,,,,,,,,,,,,,,,,,,,,0.0,0.0,1.0,0.0,1.0,0.0,2.765163,1.590505,0.369423,0.231463,0.1013,2.404794,1.330282,0.667915,0.219657,0.101267,1.682213,1.570789,0.398117,0.191178,0.052707,1.891993,0.978956,0.756499,0.224386,0.097964,0.649576,0.645829,0.311435,0.185556,0.064747,0.560414,0.423263,0.205343,0.126524,0.069389,1.42089,0.172728,0.318914,0.154809,0.040635,0.688456,1.429537,0.505199,0.143959,0.135471,1.039342,1.063619,0.646825,0.242945,0.160973,1.88583,1.977661,0.644808,0.409955,0.209164,2.468075,2.368092,0.867982,0.730565,0.543882,2.802814,3.168398,0.667223,0.464502,0.201767,3.594352,2.240072,0.936853,0.682492,0.132163,2.83714,2.228286,0.73261,0.417858,0.116923
1725717285.357331,1725717285.35964,117.0,0.0,4250.769043,4197.436035,4278.333496,4340.897461,4230.897461,4295.769043,4076.410156,4258.717773,4262.307617,4233.846191,4501.410156,4526.410156,4368.717773,4430.256348,0.0,0.0,11.0,,,,0.0,4.0,4.0,4.0,4.0,4.0,4.0,4.0,4.0,4.0,4.0,4.0,4.0,4.0,4.0,100.0,,,,,,,,,,,,,,,,,,,,,,,,,,,,,,,,,,,,,,,,,,,,,,,,,,,,,,,,,,,,,,,,,,,,,,,,,,,,,,,,,,,,,,,,,,,,,,,,,,,,,,,,,,,,,,,,,,,,,,,,,,,,,,,,,,,
1725717285.361236,1725717285.363544,118.0,0.0,4250.897461,4194.743652,4278.461426,4342.307617,4233.589844,4298.717773,4078.205078,4251.794922,4257.05127,4233.077148,4496.922852,4523.589844,4366.794922,4430.897461,0.0,0.0,11.0,,,,0.0,4.0,4.0,4.0,4.0,4.0,4.0,4.0,4.0,4.0,4.0,4.0,4.0,4.0,4.0,100.0,,,,,,,,,,,,,,,,,,,,,,,,,,,,,,,,,,,,,,,,,,,,,,,,,,,,,,,,,,,,,,,,,,,,,,,,,,,,,,,,,,,,,,,,,,,,,,,,,,,,,,,,,,,,,,,,,,,,,,,,,,,,,,,,,,,
1725717285.36514,1725717285.367448,119.0,0.0,4250.256348,4190.641113,4278.717773,4342.436035,4238.333496,4302.307617,4081.281982,4246.666504,4250.512695,4231.666504,4492.179688,4523.077148,4362.05127,4428.974121,0.0,0.0,11.0,,,,0.0,4.0,4.0,4.0,4.0,4.0,4.0,4.0,4.0,4.0,4.0,4.0,4.0,4.0,4.0,100.0,,,,,,,,,,,,,,,,,,,,,,,,,,,,,,,,,,,,,,,,,,,,,,,,,,,,,,,,,,,,,,,,,,,,,,,,,,,,,,,,,,,,,,,,,,,,,,,,,,,,,,,,,,,,,,,,,,,,,,,,,,,,,,,,,,,
1725717285.369044,1725717285.371352,120.0,0.0,4249.358887,4187.179688,4279.615234,4342.05127,4243.717773,4305.128418,4085.128174,4245.128418,4246.025879,4230.128418,4489.230957,4524.230957,4356.153809,4425.897461,0.0,0.0,11.0,,,,0.0,4.0,4.0,4.0,4.0,4.0,4.0,4.0,4.0,4.0,4.0,4.0,4.0,4.0,4.0,100.0,,,,,,,,,,,,,,,,,,,,,,,,,,,,,,,,,,,,,,,,,,,,,,,,,,,,,,,,,,,,,,,,,,,,,,,,,,,,,,,,,,,,,,,,,,,,,,,,,,,,,,,,,,,,,,,,,,,,,,,,,,,,,,,,,,,
1725717285.372948,1725717285.375157,121.0,0.0,4248.974121,4186.666504,4281.538574,4342.179688,4247.692383,4306.794922,4088.718018,4247.307617,4245.512695,4229.358887,4490.256348,4525.769043,4352.307617,4424.230957,0.0,0.0,11.0,,,,0.0,4.0,4.0,4.0,4.0,4.0,4.0,4.0,4.0,4.0,4.0,4.0,4.0,4.0,4.0,100.0,,,,,,,,,,,,,,,,,,,,,,,,,,,,,,,,,,,,,,,,,,,,,,,,,,,,,,,,,,,,,,,,,,,,,,,,,,,,,,,,,,,,,,,,,,,,,,,,,,,,,,,,,,,,,,,,,,,,,,,,,,,,,,,,,,,
1725717285.376852,1725717285.379061,122.0,0.0,4249.358887,4190.384766,4283.589844,4343.205078,4249.358887,4307.820313,4090.897461,4251.025879,4248.205078,4229.743652,4495.128418,4526.410156,4353.589844,4424.743652,0.0,0.0,11.0,,,,0.0,4.0,4.0,4.0,4.0,4.0,4.0,4.0,4.0,4.0,4.0,4.0,4.0,4.0,4.0,100.0,,,,,,,,,,,,,,,,,,,,,,,,,,,,,,,,,,,,,,,,,,,,,,,,,,,,,,,,,,,,,,,,,,,,,,,,,,,,,,,,,,,,,,,,,,,,,,,,,,,,,,,,,,,,,,,,,,,,,,,,,,,,,,,,,,,
1725717285.380756,1725717285.382965,123.0,0.0,4250.512695,4197.179688,4284.743652,4344.230957,4249.358887,4308.846191,4091.025635,4253.589844,4251.410156,4230.769043,4501.025879,4526.153809,4360.0,4427.05127,0.0,0.0,11.0,,,,0.0,4.0,4.0,4.0,4.0,4.0,4.0,4.0,4.0,4.0,4.0,4.0,4.0,4.0,4.0,100.0,,,,,,,,,,,,,,,,,,,,,,,,,,,,,,,,,,,,,,,,,,,,,,,,,,,,,,,,,,,,,,,,,,,,,,,,,,,,,,,,,,,,,,,,,,,,,,,,,,,,,,,,,,,,,,,,,,,,,,,,,,,,,,,,,,,
1725717285.38466,1725717285.386769,124.0,0.0,4251.538574,4204.358887,4284.487305,4344.230957,4248.589844,4309.230957,4089.487061,4253.717773,4252.820313,4231.794922,4504.743652,4526.025879,4367.94873,4429.230957,0.0,0.0,11.0,,,,0.0,4.0,4.0,4.0,4.0,4.0,4.0,4.0,4.0,4.0,4.0,4.0,4.0,4.0,4.0,100.0,,,,,,,,,,,,,,,,,,,,,,,,,,,,,,,,,,,,,,,,,,,,,,,,,,,,,,,,0.0,0.0,1.0,0.0,1.0,0.0,,,,,,,,,,,,,,,,,,,,,,,,,,,,,,,,,,,,,,,,,,,,,,,,,,,,,,,,,,,,,,,,,,,,,,
1725717285.388564,1725717285.390673,125.0,0.0,4252.179688,4208.589844,4282.563965,4343.589844,4247.820313,4308.717773,4087.820557,4252.179688,4252.307617,4232.05127,4505.128418,4526.538574,4372.820313,4430.256348,0.0,0.0,11.0,,,,0.0,4.0,4.0,4.0,4.0,4.0,4.0,4.0,4.0,4.0,4.0,4.0,4.0,4.0,4.0,100.0,,,,,,,,,,,,,,,,,,,,,,,,,,,,,,,,,,,,,,,,,,,,,,,,,,,,,,,,,,,,,,,,,,,,,,,,,,,,,,,,,,,,,,,,,,,,,,,,,,,,,,,,,,,,,,,,,,,,,,,,,,,,,,,,,,,
1725717285.392468,1725717285.394577,126.0,0.0,4251.666504,4207.820313,4280.128418,4342.820313,4247.436035,4307.179688,4087.820557,4251.153809,4251.025879,4231.282227,4502.94873,4526.538574,4371.794922,4429.615234,0.0,0.0,11.0,,,,0.0,4.0,4.0,4.0,4.0,4.0,4.0,4.0,4.0,4.0,4.0,4.0,4.0,4.0,4.0,100.0,,,,,,,,,,,,,,,,,,,,,,,,,,,,,,,,,,,,,,,,,,,,,,,,,,,,,,,,,,,,,,,,,,,,,,,,,,,,,,,,,,,,,,,,,,,,,,,,,,,,,,,,,,,,,,,,,,,,,,,,,,,,,,,,,,,
1725717285.396372,1725717285.398581,127.0,0.0,4250.0,4204.102539,4278.461426,4342.563965,4247.563965,4305.769043,4089.358887,4252.307617,4250.512695,4230.128418,4498.974121,4525.384766,4365.769043,4427.436035,0.0,0.0,11.0,,,,0.0,4.0,4.0,4.0,4.0,4.0,4.0,4.0,4.0,4.0,4.0,4.0,4.0,4.0,4.0,100.0,,,,,,,,,,,,,,,,,,,,,,,,,,,,,,,,,,,,,,,,,,,,,,,,,,,,,,,,,,,,,,,,,,,,,,,,,,,,,,,,,,,,,,,,,,,,,,,,,,,,,,,,,,,,,,,,,,,,,,,,,,,,,,,,,,,
1725717285.400276,1725717285.402485,128.0,0.0,4248.205078,4201.666504,4278.589844,4342.307617,4247.820313,4305.512695,4090.641113,4255.384766,4251.025879,4229.743652,4493.205078,4523.717773,4357.94873,4423.846191,2697.0,0.0,11.0,,,,0.0,4.0,4.0,4.0,4.0,4.0,4.0,4.0,4.0,4.0,4.0,4.0,4.0,4.0,4.0,100.0,,,,,,,,,,,,,,,,,,,,,,,,,,,,,,,,,,,,,,,,,,,,,,,,,,,,,,,,,,,,,,,,,,,,,,,,,,,,,,,,,,,,,,,,,,,,,,,,,,,,,,,,,,,,,,,,,,,,,,,,,,,,,,,,,,,
1725717285.40418,1725717285.40639,129.0,0.0,4247.05127,4203.077148,4280.0,4341.922852,4247.94873,4306.282227,4089.871826,4258.589844,4251.666504,4230.897461,4485.512695,4523.205078,4351.922852,4420.0,2578.0,0.0,11.0,,,,0.0,4.0,4.0,4.0,4.0,4.0,4.0,4.0,4.0,4.0,4.0,4.0,4.0,4.0,4.0,100.0,,,,,,,,,,,,,,,,,,,,,,,,,,,,,,,,,,,,,,,,,,,,,,,,,,,,,,,,,,,,,,,,,,,,,,,,,,,,,,,,,,,,,,,,,,,,,,,,,,,,,,,,,,,,,,,,,,,,,,,,,,,,,,,,,,,
1725717285.408085,1725717285.410294,130.0,0.0,4246.922852,4206.153809,4281.538574,4340.897461,4247.179688,4307.563965,4087.692383,4259.871582,4251.410156,4232.94873,4477.94873,4524.743652,4349.615234,4417.05127,2499.0,0.0,11.0,,,,0.0,4.0,4.0,4.0,4.0,4.0,4.0,4.0,4.0,4.0,4.0,4.0,4.0,4.0,4.0,100.0,,,,,,,,,,,,,,,,,,,,,,,,,,,,,,,,,,,,,,,,,,,,,,,,,,,,,,,,,,,,,,,,,,,,,,,,,,,,,,,,,,,,,,,,,,,,,,,,,,,,,,,,,,,,,,,,,,,,,,,,,,,,,,,,,,,
1725717285.411989,1725717285.414298,131.0,0.0,4247.307617,4204.871582,4281.794922,4339.487305,4244.871582,4308.461426,4086.153809,4258.077148,4250.897461,4234.102539,4473.589844,4526.666504,4350.128418,4415.0,2468.0,0.0,11.0,,,,0.0,4.0,4.0,4.0,4.0,4.0,4.0,4.0,4.0,4.0,4.0,4.0,4.0,4.0,4.0,100.0,,,,,,,,,,,,,,,,,,,,,,,,,,,,,,,,,,,,,,,,,,,,,,,,,,,,,,,,,,,,,,,,,,,,,,,,,,,,,,,,,,,,,,,,,,,,,,,,,,,,,,,,,,,,,,,,,,,,,,,,,,,,,,,,,,,
1725717285.415893,1725717285.418202,132.0,0.0,4247.436035,4194.615234,4280.641113,4338.077148,4241.666504,4308.974121,4087.05127,4254.230957,4250.641113,4232.692383,4474.743652,4526.025879,4351.538574,4413.461426,2439.0,0.0,11.0,,,,0.0,4.0,4.0,4.0,4.0,4.0,4.0,4.0,4.0,4.0,4.0,4.0,4.0,4.0,4.0,100.0,,,,,,,,,,,,,,,,,,,,,,,,,,,,,,,,,,,,,,,,,,,,,,,,,,,,,,,,0.0,0.0,1.0,0.0,1.0,0.0,,,,,,,,,,,,,,,,,,,,,,,,,,,,,,,,,,,,,,,,,,,,,,,,,,,,,,,,,,,,,,,,,,,,,,
1725717285.419797,1725717285.422106,133.0,0.0,4246.922852,4176.025879,4278.974121,4337.05127,4238.205078,4309.487305,4091.794922,4250.128418,4250.897461,4228.461426,4480.641113,4521.025879,4351.922852,4412.179688,2394.0,0.0,11.0,,,,0.0,4.0,4.0,4.0,4.0,4.0,4.0,4.0,4.0,4.0,4.0,4.0,4.0,4.0,4.0,100.0,,,,,,,,,,,,,,,,,,,,,,,,,,,,,,,,,,,,,,,,,,,,,,,,,,,,,,,,,,,,,,,,,,,,,,,,,,,,,,,,,,,,,,,,,,,,,,,,,,,,,,,,,,,,,,,,,,,,,,,,,,,,,,,,,,,
1725717285.423701,1725717285.42611,134.0,0.0,4245.897461,4155.384766,4277.94873,4336.794922,4235.512695,4311.153809,4099.743652,4247.307617,4250.128418,4223.333496,4487.307617,4513.205078,4350.256348,4411.922852,2433.0,0.0,11.0,,,,0.0,4.0,4.0,4.0,4.0,4.0,4.0,4.0,4.0,4.0,4.0,4.0,4.0,4.0,4.0,100.0,,,,,,,,,,,,,,,,,,,,,,,,,,,,,,,,,,,,,,,,,,,,,,,,,,,,,,,,,,,,,,,,,,,,,,,,,,,,,,,,,,,,,,,,,,,,,,,,,,,,,,,,,,,,,,,,,,,,,,,,,,,,,,,,,,,
1725717285.427605,1725717285.430014,135.0,0.0,4244.871582,4140.256348,4278.205078,4337.692383,4234.102539,4314.230957,4108.974121,4246.025879,4247.179688,4218.974121,4490.769043,4506.153809,4347.05127,4412.563965,2494.0,0.0,11.0,,,,0.0,4.0,4.0,4.0,4.0,4.0,4.0,4.0,4.0,4.0,4.0,4.0,4.0,4.0,4.0,100.0,,,,,,,,,,,,,,,,,,,,,,,,,,,,,,,,,,,,,,,,,,,,,,,,,,,,,,,,,,,,,,,,,,,,,,,,,,,,,,,,,,,,,,,,,,,,,,,,,,,,,,,,,,,,,,,,,,,,,,,,,,,,,,,,,,,
1725717285.431509,1725717285.433918,136.0,0.0,4244.230957,4134.743652,4279.230957,4338.974121,4233.717773,4317.820313,4117.436035,4244.871582,4241.922852,4216.153809,4488.333496,4502.307617,4343.717773,4413.589844,2464.0,0.0,11.0,,,,0.0,4.0,4.0,4.0,4.0,4.0,4.0,4.0,4.0,4.0,4.0,4.0,4.0,4.0,4.0,100.0,,,,,,,,,,,,,,,,,,,,,,,,,,,,,,,,,,,,,,,,,,,,,,,,,,,,,,,,,,,,,,,,,,,,,,,,,,,,,,,,,,,,,,,,,,,,,,,,,,,,,,,,,,,,,,,,,,,,,,,,,,,,,,,,,,,
1725717285.435413,1725717285.437822,137.0,0.0,4243.717773,4137.05127,4279.615234,4340.128418,4233.461426,4320.384766,4123.205078,4242.563965,4236.153809,4213.205078,4479.871582,4501.922852,4341.794922,4413.461426,2560.0,0.0,11.0,,,,0.0,4.0,4.0,4.0,4.0,4.0,4.0,4.0,4.0,4.0,4.0,4.0,4.0,4.0,4.0,100.0,,,,,,,,,,,,,,,,,,,,,,,,,,,,,,,,,,,,,,,,,,,,,,,,,,,,,,,,,,,,,,,,,,,,,,,,,,,,,,,,,,,,,,,,,,,,,,,,,,,,,,,,,,,,,,,,,,,,,,,,,,,,,,,,,,,
1725717285.439317,1725717285.441726,138.0,0.0,4243.717773,4142.179688,4278.461426,4340.128418,4232.820313,4321.153809,4126.282227,4238.589844,4231.666504,4208.717773,4468.461426,4503.333496,4341.153809,4411.666504,2885.0,0.0,11.0,,,,0.0,4.0,4.0,4.0,4.0,4.0,4.0,4.0,4.0,4.0,4.0,4.0,4.0,4.0,4.0,100.0,,,,,,,,,,,,,,,,,,,,,,,,,,,,,,,,,,,,,,,,,,,,,,,,,,,,,,,,,,,,,,,,,,,,,,,,,,,,,,,,,,,,,,,,,,,,,,,,,,,,,,,,,,,,,,,,,,,,,,,,,,,,,,,,,,,
1725717285.443221,1725717285.44573,139.0,0.0,4243.974121,4145.512695,4276.538574,4338.846191,4231.922852,4320.128418,4127.05127,4234.102539,4230.0,4203.205078,4458.717773,4504.487305,4340.641113,4408.461426,3129.0,0.0,11.0,,,,0.0,4.0,4.0,4.0,4.0,4.0,4.0,4.0,4.0,4.0,4.0,4.0,4.0,4.0,4.0,100.0,,,,,,,,,,,,,,,,,,,,,,,,,,,,,,,,,,,,,,,,,,,,,,,,,,,,,,,,,,,,,,,,,,,,,,,,,,,,,,,,,,,,,,,,,,,,,,,,,,,,,,,,,,,,,,,,,,,,,,,,,,,,,,,,,,,
1725717285.447126,1725717285.449634,140.0,0.0,4244.487305,4146.025879,4274.743652,4336.922852,4231.794922,4318.974121,4126.538574,4231.282227,4230.769043,4198.974121,4454.615234,4504.743652,4338.717773,4405.128418,3441.0,0.0,11.0,,,,0.0,4.0,4.0,4.0,4.0,4.0,4.0,4.0,4.0,4.0,4.0,4.0,4.0,4.0,4.0,100.0,,,,,,,,,,,,,,,,,,,,,,,,,,,,,,,,,,,,,,,,,,,,,,,,,,,,,,,,0.0,0.0,1.0,0.0,1.0,0.0,,,,,,,,,,,,,,,,,,,,,,,,,,,,,,,,,,,,,,,,,,,,,,,,,,,,,,,,,,,,,,,,,,,,,,
1725717285.45103,1725717285.453538,141.0,0.0,4244.615234,4145.384766,4273.589844,4335.0,4232.436035,4318.717773,4125.384766,4231.025879,4232.436035,4198.333496,4456.666504,4504.487305,4334.871582,4402.94873,3869.0,0.0,11.0,,,,0.0,4.0,4.0,4.0,4.0,4.0,4.0,4.0,4.0,4.0,4.0,4.0,4.0,4.0,4.0,100.0,,,,,,,,,,,,,,,,,,,,,,,,,,,,,,,,,,,,,,,,,,,,,,,,,,,,,,,,,,,,,,,,,,,,,,,,,,,,,,,,,,,,,,,,,,,,,,,,,,,,,,,,,,,,,,,,,,,,,,,,,,,,,,,,,,,
1725717285.454934,1725717285.457443,142.0,0.0,4243.717773,4145.897461,4273.333496,4333.589844,4233.205078,4319.615234,4124.230957,4232.820313,4233.717773,4201.794922,4462.563965,4504.358887,4330.769043,4402.692383,2885.0,0.0,11.0,,,,0.0,4.0,4.0,4.0,4.0,4.0,4.0,4.0,4.0,4.0,4.0,4.0,4.0,4.0,4.0,100.0,,,,,,,,,,,,,,,,,,,,,,,,,,,,,,,,,,,,,,,,,,,,,,,,,,,,,,,,,,,,,,,,,,,,,,,,,,,,,,,,,,,,,,,,,,,,,,,,,,,,,,,,,,,,,,,,,,,,,,,,,,,,,,,,,,,
1725717285.458838,1725717285.461247,143.0,0.0,4241.666504,4148.333496,4273.461426,4332.94873,4233.333496,4320.769043,4124.358887,4234.615234,4234.102539,4207.820313,4468.974121,4503.717773,4328.589844,4404.102539,3129.0,0.0,11.0,,,,0.0,4.0,4.0,4.0,4.0,4.0,4.0,4.0,4.0,4.0,4.0,4.0,4.0,4.0,4.0,100.0,,,,,,,,,,,,,,,,,,,,,,,,,,,,,,,,,,,,,,,,,,,,,,,,,,,,,,,,,,,,,,,,,,,,,,,,,,,,,,,,,,,,,,,,,,,,,,,,,,,,,,,,,,,,,,,,,,,,,,,,,,,,,,,,,,,
1725717285.462742,1725717285.465151,144.0,0.0,4238.717773,4151.794922,4273.717773,4333.205078,4232.94873,4321.153809,4126.538574,4234.487305,4234.102539,4213.589844,4473.205078,4501.282227,4330.512695,4405.512695,3441.0,0.0,11.0,,,,0.0,4.0,4.0,4.0,4.0,4.0,4.0,4.0,4.0,4.0,4.0,4.0,4.0,4.0,4.0,100.0,,,,,,,,,,,,,,,,,,,,,,,,,,,,,,,,,,,,,,,,,,,,,,,,,,,,,,,,,,,,,,,,,,,,,,,,,,,,,,,,,,,,,,,,,,,,,,,,,,,,,,,,,,,,,,,,,,,,,,,,,,,,,,,,,,,
1725717285.466646,1725717285.469055,145.0,0.0,4235.769043,4154.743652,4273.717773,4334.102539,4232.563965,4320.512695,4130.769043,4232.692383,4235.128418,4216.666504,4473.717773,4496.282227,4335.769043,4405.0,3869.0,0.0,11.0,,,,0.0,4.0,4.0,4.0,4.0,4.0,4.0,4.0,4.0,4.0,4.0,4.0,4.0,4.0,4.0,100.0,,,,,,,,,,,,,,,,,,,,,,,,,,,,,,,,,,,,,,,,,,,,,,,,,,,,,,,,,,,,,,,,,,,,,,,,,,,,,,,,,,,,,,,,,,,,,,,,,,,,,,,,,,,,,,,,,,,,,,,,,,,,,,,,,,,
1725717285.47055,1725717285.472959,146.0,0.0,4233.589844,4156.538574,4273.846191,4335.128418,4232.563965,4319.358887,4135.512695,4231.153809,4237.563965,4216.666504,4470.641113,4490.512695,4341.410156,4402.179688,2885.0,0.0,11.0,,,,0.0,4.0,4.0,4.0,4.0,4.0,4.0,4.0,4.0,4.0,4.0,4.0,4.0,4.0,4.0,100.0,,,,,,,,,,,,,,,,,,,,,,,,,,,,,,,,,,,,,,,,,,,,,,,,,,,,,,,,,,,,,,,,,,,,,,,,,,,,,,,,,,,,,,,,,,,,,,,,,,,,,,,,,,,,,,,,,,,,,,,,,,,,,,,,,,,
1725717285.474454,1725717285.476863,147.0,0.0,4233.205078,4157.563965,4274.487305,4335.512695,4233.077148,4318.333496,4138.589844,4232.692383,4241.410156,4215.0,4465.641113,4487.692383,4344.358887,4399.102539,3129.0,0.0,11.0,,,,0.0,4.0,4.0,4.0,4.0,4.0,4.0,4.0,4.0,4.0,4.0,4.0,4.0,4.0,4.0,100.0,,,,,,,,,,,,,,,,,,,,,,,,,,,,,,,,,,,,,,,,,,,,,,,,,,,,,,,,,,,,,,,,,,,,,,,,,,,,,,,,,,,,,,,,,,,,,,,,,,,,,,,,,,,,,,,,,,,,,,,,,,,,,,,,,,,
1725717285.478358,1725717285.480667,148.0,0.0,4234.871582,4158.333496,4275.897461,4335.384766,4233.333496,4317.94873,4138.974121,4238.205078,4245.512695,4213.846191,4462.05127,4490.512695,4343.461426,4398.205078,3441.0,0.0,11.0,,,,0.0,4.0,4.0,4.0,4.0,4.0,4.0,4.0,4.0,4.0,4.0,4.0,4.0,4.0,4.0,100.0,,,,,,,,,,,,,,,,,1.0,0.0,0.0,,,,,,,,,,,,,,,,,,,,,,,,,,,,,,,,,,,,,0.0,0.0,1.0,0.0,1024.0,0.029317,2.403116,1.554739,0.351446,0.199034,0.108116,2.388902,1.310613,0.510482,0.195189,0.101352,1.631647,1.546673,0.430032,0.195313,0.053607,1.909817,0.940912,0.713791,0.198262,0.105417,0.677665,0.55048,0.303063,0.179434,0.069778,0.399055,0.334808,0.178144,0.114913,0.061895,1.299384,0.157494,0.324388,0.152088,0.041017,0.67588,1.215358,0.428457,0.113489,0.137368,0.94715,1.037053,0.517624,0.224196,0.168613,1.737392,1.870255,0.605634,0.359089,0.188268,2.267006,2.20336,0.937264,0.656816,0.54273,2.551959,2.85146,0.74629,0.418996,0.184491,3.329559,2.055977,0.96129,0.530963,0.135092,2.470538,2.085582,0.743796,0.352441,0.115384
1725717285.482262,1725717285.484572,149.0,0.0,4238.461426,4158.589844,4277.563965,4335.128418,4232.820313,4318.205078,4137.436035,4245.769043,4248.974121,4214.487305,4463.077148,4497.94873,4340.641113,4400.769043,3869.0,0.0,11.0,,,,0.0,4.0,4.0,4.0,4.0,4.0,4.0,4.0,4.0,4.0,4.0,4.0,4.0,4.0,4.0,100.0,,,,,,,,,,,,,,,,,,,,,,,,,,,,,,,,,,,,,,,,,,,,,,,,,,,,,,,,,,,,,,,,,,,,,,,,,,,,,,,,,,,,,,,,,,,,,,,,,,,,,,,,,,,,,,,,,,,,,,,,,,,,,,,,,,,
1725717285.486167,1725717285.488476,150.0,0.0,4242.820313,4158.077148,4278.461426,4335.641113,4232.179688,4318.846191,4136.410156,4251.666504,4250.897461,4216.410156,4468.717773,4505.897461,4338.461426,4405.641113,2885.0,0.0,11.0,,,,0.0,4.0,4.0,4.0,4.0,4.0,4.0,4.0,4.0,4.0,4.0,4.0,4.0,4.0,4.0,100.0,,,,,,,,,,,,,,,,,,,,,,,,,,,,,,,,,,,,,,,,,,,,,,,,,,,,,,,,,,,,,,,,,,,,,,,,,,,,,,,,,,,,,,,,,,,,,,,,,,,,,,,,,,,,,,,,,,,,,,,,,,,,,,,,,,,
1725717285.490071,1725717285.49228,151.0,0.0,4245.641113,4157.436035,4277.563965,4336.410156,4231.922852,4319.487305,4137.307617,4252.563965,4251.410156,4218.589844,4475.384766,4510.256348,4338.205078,4410.256348,3129.0,0.0,11.0,,,,0.0,4.0,4.0,4.0,4.0,4.0,4.0,4.0,4.0,4.0,4.0,4.0,4.0,4.0,4.0,100.0,,,,,,,,,,,,,,,,,,,,,,,,,,,,,,,,,,,,,,,,,,,,,,,,,,,,,,,,,,,,,,,,,,,,,,,,,,,,,,,,,,,,,,,,,,,,,,,,,,,,,,,,,,,,,,,,,,,,,,,,,,,,,,,,,,,
1725717285.493975,1725717285.496184,152.0,0.0,4245.256348,4157.692383,4275.384766,4336.666504,4232.307617,4319.358887,4139.487305,4249.102539,4251.025879,4220.256348,4478.974121,4510.0,4339.230957,4412.563965,3441.0,0.0,11.0,,,,0.0,4.0,4.0,4.0,4.0,4.0,4.0,4.0,4.0,4.0,4.0,4.0,4.0,4.0,4.0,100.0,,,,,,,,,,,,,,,,,,,,,,,,,,,,,,,,,,,,,,,,,,,,,,,,,,,,,,,,,,,,,,,,,,,,,,,,,,,,,,,,,,,,,,,,,,,,,,,,,,,,,,,,,,,,,,,,,,,,,,,,,,,,,,,,,,,
1725717285.497879,1725717285.500088,153.0,0.0,4241.410156,4159.487305,4272.820313,4335.512695,4232.94873,4318.589844,4141.025879,4244.743652,4250.384766,4221.025879,4478.077148,4507.179688,4340.641113,4412.307617,3869.0,0.0,11.0,,,,0.0,4.0,4.0,4.0,4.0,4.0,4.0,4.0,4.0,4.0,4.0,4.0,4.0,4.0,4.0,100.0,,,,,,,,,,,,,,,,,,,,,,,,,,,,,,,,,,,,,,,,,,,,,,,,,,,,,,,,,,,,,,,,,,,,,,,,,,,,,,,,,,,,,,,,,,,,,,,,,,,,,,,,,,,,,,,,,,,,,,,,,,,,,,,,,,,
1725717285.501783,1725717285.504092,154.0,0.0,4236.282227,4162.179688,4271.538574,4333.717773,4233.589844,4317.563965,4140.897461,4243.205078,4249.871582,4220.512695,4474.358887,4504.743652,4341.410156,4410.769043,2885.0,0.0,11.0,,,,0.0,4.0,4.0,4.0,4.0,4.0,4.0,4.0,4.0,4.0,4.0,4.0,4.0,4.0,4.0,100.0,,,,,,,,,,,,,,,,,,,,,,,,,,,,,,,,,,,,,,,,,,,,,,,,,,,,,,,,,,,,,,,,,,,,,,,,,,,,,,,,,,,,,,,,,,,,,,,,,,,,,,,,,,,,,,,,,,,,,,,,,,,,,,,,,,,
1725717285.505687,1725717285.507996,155.0,0.0,4233.333496,4164.743652,4272.307617,4332.820313,4233.846191,4317.307617,4139.743652,4245.128418,4249.871582,4218.589844,4469.615234,4504.487305,4340.897461,4409.230957,3129.0,0.0,11.0,,,,0.0,4.0,4.0,4.0,4.0,4.0,4.0,4.0,4.0,4.0,4.0,4.0,4.0,4.0,4.0,100.0,,,,,,,,,,,,,,,,,,,,,,,,,,,,,,,,,,,,,,,,,,,,,,,,,,,,,,,,,,,,,,,,,,,,,,,,,,,,,,,,,,,,,,,,,,,,,,,,,,,,,,,,,,,,,,,,,,,,,,,,,,,,,,,,,,,
1725717285.509591,1725717285.5119,156.0,0.0,4234.230957,4166.666504,4274.358887,4333.846191,4234.358887,4318.589844,4139.358887,4247.692383,4250.0,4216.153809,4464.487305,4506.025879,4339.871582,4408.205078,3441.0,0.0,11.0,,,,0.0,4.0,4.0,4.0,4.0,4.0,4.0,4.0,4.0,4.0,4.0,4.0,4.0,4.0,4.0,100.0,,,,,,,,,,,,,,,,,,,,,,,,,,,,,,,,,,,,,,,,,,,,,,,,,,,,,,,,0.0,0.0,1.0,0.0,1024.0,0.029317,,,,,,,,,,,,,,,,,,,,,,,,,,,,,,,,,,,,,,,,,,,,,,,,,,,,,,,,,,,,,,,,,,,,,,
1725717285.513495,1725717285.515804,157.0,0.0,4238.333496,4168.205078,4276.538574,4336.538574,4235.256348,4321.153809,4141.410156,4247.307617,4250.0,4214.102539,4459.615234,4507.820313,4338.846191,4406.794922,3869.0,0.0,11.0,,,,0.0,4.0,4.0,4.0,4.0,4.0,4.0,4.0,4.0,4.0,4.0,4.0,4.0,4.0,4.0,100.0,,,,,,,,,,,,,,,,,,,,,,,,,,,,,,,,,,,,,,,,,,,,,,,,,,,,,,,,,,,,,,,,,,,,,,,,,,,,,,,,,,,,,,,,,,,,,,,,,,,,,,,,,,,,,,,,,,,,,,,,,,,,,,,,,,,
1725717285.517399,1725717285.519808,158.0,0.0,4243.205078,4169.871582,4277.563965,4338.974121,4236.153809,4324.102539,4145.384766,4243.333496,4249.743652,4213.589844,4456.410156,4508.589844,4338.461426,4404.358887,2885.0,0.0,11.0,,,,0.0,4.0,4.0,4.0,4.0,4.0,4.0,4.0,4.0,4.0,4.0,4.0,4.0,4.0,4.0,100.0,,,,,,,,,,,,,,,,,,,,,,,,,,,,,,,,,,,,,,,,,,,,,,,,,,,,,,,,,,,,,,,,,,,,,,,,,,,,,,,,,,,,,,,,,,,,,,,,,,,,,,,,,,,,,,,,,,,,,,,,,,,,,,,,,,,
1725717285.521304,1725717285.523712,159.0,0.0,4246.025879,4171.794922,4277.307617,4339.487305,4236.282227,4326.410156,4149.487305,4238.077148,4249.487305,4214.743652,4457.05127,4508.205078,4338.589844,4401.153809,3129.0,0.0,11.0,,,,0.0,4.0,4.0,4.0,4.0,4.0,4.0,4.0,4.0,4.0,4.0,4.0,4.0,4.0,4.0,100.0,,,,,,,,,,,,,,,,,,,,,,,,,,,,,,,,,,,,,,,,,,,,,,,,,,,,,,,,,,,,,,,,,,,,,,,,,,,,,,,,,,,,,,,,,,,,,,,,,,,,,,,,,,,,,,,,,,,,,,,,,,,,,,,,,,,
1725717285.525208,1725717285.527617,160.0,0.0,4245.897461,4173.717773,4276.538574,4337.563965,4235.641113,4326.922852,4152.05127,4235.641113,4249.102539,4216.410156,4462.563965,4507.436035,4339.358887,4399.358887,3441.0,0.0,11.0,,,,0.0,4.0,4.0,4.0,4.0,4.0,4.0,4.0,4.0,4.0,4.0,4.0,4.0,4.0,4.0,100.0,,,,,,,,,,,,,,,,,,,,,,,,,,,,,,,,,,,,,,,,,,,,,,,,,,,,,,,,,,,,,,,,,,,,,,,,,,,,,,,,,,,,,,,,,,,,,,,,,,,,,,,,,,,,,,,,,,,,,,,,,,,,,,,,,,,
1725717285.529112,1725717285.531521,161.0,0.0,4243.589844,4174.871582,4276.282227,4334.615234,4234.487305,4325.384766,4152.436035,4237.692383,4248.717773,4217.05127,4471.025879,4507.179688,4340.512695,4400.897461,3869.0,0.0,11.0,,,,0.0,4.0,4.0,4.0,4.0,4.0,4.0,4.0,4.0,4.0,4.0,4.0,4.0,4.0,4.0,100.0,,,,,,,,,,,,,,,,,,,,,,,,,,,,,,,,,,,,,,,,,,,,,,,,,,,,,,,,,,,,,,,,,,,,,,,,,,,,,,,,,,,,,,,,,,,,,,,,,,,,,,,,,,,,,,,,,,,,,,,,,,,,,,,,,,,
1725717285.533016,1725717285.535425,162.0,0.0,4241.538574,4174.615234,4277.05127,4332.563965,4233.974121,4322.692383,4152.05127,4243.461426,4248.461426,4216.410156,4478.717773,4508.077148,4341.794922,4405.769043,2885.0,0.0,11.0,,,,0.0,4.0,4.0,4.0,4.0,4.0,4.0,4.0,4.0,4.0,4.0,4.0,4.0,4.0,4.0,100.0,,,,,,,,,,,,,,,,,,,,,,,,,,,,,,,,,,,,,,,,,,,,,,,,,,,,,,,,,,,,,,,,,,,,,,,,,,,,,,,,,,,,,,,,,,,,,,,,,,,,,,,,,,,,,,,,,,,,,,,,,,,,,,,,,,,
1725717285.53692,1725717285.539229,163.0,0.0,4241.282227,4172.820313,4278.461426,4332.692383,4234.358887,4320.128418,4152.179688,4249.487305,4248.846191,4215.897461,4482.563965,4509.743652,4343.205078,4411.410156,3129.0,0.0,11.0,,,,0.0,4.0,4.0,4.0,4.0,4.0,4.0,4.0,4.0,4.0,4.0,4.0,4.0,4.0,4.0,100.0,,,,,,,,,,,,,,,,,,,,,,,,,,,,,,,,,,,,,,,,,,,,,,,,,,,,,,,,,,,,,,,,,,,,,,,,,,,,,,,,,,,,,,,,,,,,,,,,,,,,,,,,,,,,,,,,,,,,,,,,,,,,,,,,,,,
1725717285.540824,1725717285.543133,164.0,0.0,4242.436035,4170.641113,4279.358887,4334.487305,4235.128418,4318.589844,4153.205078,4252.05127,4249.871582,4216.666504,4481.666504,4510.897461,4344.102539,4414.102539,3441.0,0.0,11.0,,,,0.0,4.0,4.0,4.0,4.0,4.0,4.0,4.0,4.0,4.0,4.0,4.0,4.0,4.0,4.0,100.0,,,,,,,,,,,,,,,,,,,,,,,,,,,,,,,,,,,,,,,,,,,,,,,,,,,,,,,,0.0,0.0,1.0,0.0,1024.0,0.029317,,,,,,,,,,,,,,,,,,,,,,,,,,,,,,,,,,,,,,,,,,,,,,,,,,,,,,,,,,,,,,,,,,,,,,
1725717285.544728,1725717285.547137,165.0,0.0,4243.717773,4169.743652,4278.846191,4336.153809,4235.769043,4318.205078,4154.102539,4249.487305,4250.769043,4218.077148,4477.307617,4510.512695,4343.717773,4411.794922,3869.0,0.0,11.0,,,,0.0,4.0,4.0,4.0,4.0,4.0,4.0,4.0,4.0,4.0,4.0,4.0,4.0,4.0,4.0,100.0,,,,,,,,,,,,,,,,,,,,,,,,,,,,,,,,,,,,,,,,,,,,,,,,,,,,,,,,,,,,,,,,,,,,,,,,,,,,,,,,,,,,,,,,,,,,,,,,,,,,,,,,,,,,,,,,,,,,,,,,,,,,,,,,,,,
1725717285.548632,1725717285.551041,166.0,0.0,4243.717773,4171.410156,4277.436035,4335.897461,4235.769043,4318.333496,4154.230957,4243.077148,4250.641113,4218.974121,4471.922852,4508.205078,4342.179688,4406.410156,2885.0,0.0,11.0,,,,0.0,4.0,4.0,4.0,4.0,4.0,4.0,4.0,4.0,4.0,4.0,4.0,4.0,4.0,4.0,100.0,,,,,,,,,,,,,,,,,,,,,,,,,,,,,,,,,,,,,,,,,,,,,,,,,,,,,,,,,,,,,,,,,,,,,,,,,,,,,,,,,,,,,,,,,,,,,,,,,,,,,,,,,,,,,,,,,,,,,,,,,,,,,,,,,,,
1725717285.552536,1725717285.554945,167.0,0.0,4242.307617,4175.384766,4276.538574,4334.102539,4235.256348,4318.077148,4153.589844,4236.282227,4248.846191,4218.461426,4467.820313,4505.128418,4340.897461,4401.538574,3129.0,0.0,11.0,,,,0.0,4.0,4.0,4.0,4.0,4.0,4.0,4.0,4.0,4.0,4.0,4.0,4.0,4.0,4.0,100.0,,,,,,,,,,,,,,,,,,,,,,,,,,,,,,,,,,,,,,,,,,,,,,,,,,,,,,,,,,,,,,,,,,,,,,,,,,,,,,,,,,,,,,,,,,,,,,,,,,,,,,,,,,,,,,,,,,,,,,,,,,,,,,,,,,,
1725717285.55644,1725717285.558849,168.0,0.0,4241.153809,4180.128418,4276.666504,4333.077148,4234.743652,4316.794922,4153.589844,4232.436035,4246.153809,4216.538574,4466.666504,4503.077148,4341.410156,4400.384766,3441.0,0.0,11.0,,,,0.0,4.0,4.0,4.0,4.0,4.0,4.0,4.0,4.0,4.0,4.0,4.0,4.0,4.0,4.0,100.0,,,,,,,,,,,,,,,,,,,,,,,,,,,,,,,,,,,,,,,,,,,,,,,,,,,,,,,,,,,,,,,,,,,,,,,,,,,,,,,,,,,,,,,,,,,,,,,,,,,,,,,,,,,,,,,,,,,,,,,,,,,,,,,,,,,
1725717285.560344,1725717285.562753,169.0,0.0,4241.538574,4184.230957,4277.563965,4334.615234,4234.615234,4314.871582,4155.384766,4232.820313,4244.102539,4214.102539,4468.974121,4503.333496,4344.230957,4403.333496,3869.0,0.0,11.0,,,,0.0,4.0,4.0,4.0,4.0,4.0,4.0,4.0,4.0,4.0,4.0,4.0,4.0,4.0,4.0,100.0,,,,,,,,,,,,,,,,,,,,,,,,,,,,,,,,,,,,,,,,,,,,,,,,,,,,,,,,,,,,,,,,,,,,,,,,,,,,,,,,,,,,,,,,,,,,,,,,,,,,,,,,,,,,,,,,,,,,,,,,,,,,,,,,,,,
1725717285.564248,1725717285.566558,170.0,0.0,4243.717773,4186.666504,4278.205078,4338.077148,4235.128418,4312.692383,4159.230957,4236.282227,4244.230957,4212.436035,4473.333496,4505.769043,4347.820313,4408.461426,2885.0,0.0,11.0,,,,0.0,4.0,4.0,4.0,4.0,4.0,4.0,4.0,4.0,4.0,4.0,4.0,4.0,4.0,4.0,100.0,,,,,,,,,,,,,,,,,,,,,,,,,,,,,,,,,,,,,,,,,,,,,,,,,,,,,,,,,,,,,,,,,,,,,,,,,,,,,,,,,,,,,,,,,,,,,,,,,,,,,,,,,,,,,,,,,,,,,,,,,,,,,,,,,,,
1725717285.568153,1725717285.570462,171.0,0.0,4246.538574,4187.563965,4278.077148,4340.897461,4235.641113,4311.153809,4163.589844,4239.871582,4246.410156,4212.692383,4477.563965,4508.846191,4350.256348,4413.077148,3129.0,0.0,11.0,,,,0.0,4.0,4.0,4.0,4.0,4.0,4.0,4.0,4.0,4.0,4.0,4.0,4.0,4.0,4.0,100.0,,,,,,,,,,,,,,,,,,,,,,,,,,,,,,,,,,,,,,,,,,,,,,,,,,,,,,,,,,,,,,,,,,,,,,,,,,,,,,,,,,,,,,,,,,,,,,,,,,,,,,,,,,,,,,,,,,,,,,,,,,,,,,,,,,,
1725717285.572057,1725717285.574366,172.0,0.0,4248.717773,4187.05127,4277.563965,4340.256348,4235.897461,4310.641113,4166.666504,4241.153809,4249.487305,4215.384766,4480.0,4510.641113,4350.256348,4415.128418,3441.0,0.0,11.0,,,,0.0,4.0,4.0,4.0,4.0,4.0,4.0,4.0,4.0,4.0,4.0,4.0,4.0,4.0,4.0,100.0,,,,,,,,,,,,,,,,,,,,,,,,,,,,,,,,,,,,,,,,,,,,,,,,,,,,,,,,0.0,0.0,1.0,0.0,1024.0,0.029317,,,,,,,,,,,,,,,,,,,,,,,,,,,,,,,,,,,,,,,,,,,,,,,,,,,,,,,,,,,,,,,,,,,,,,
1725717285.575961,1725717285.57827,173.0,0.0,4249.358887,4185.512695,4277.179688,4336.282227,4235.256348,4310.897461,4167.436035,4239.230957,4251.666504,4219.743652,4479.871582,4510.0,4348.205078,4414.743652,3869.0,0.0,11.0,,,,0.0,4.0,4.0,4.0,4.0,4.0,4.0,4.0,4.0,4.0,4.0,4.0,4.0,4.0,4.0,100.0,,,,,,,,,,,,,,,,,,,,,,,,,,,,,,,,,,,,,,,,,,,,,,,,,,,,,,,,,,,,,,,,,,,,,,,,,,,,,,,,,,,,,,,,,,,,,,,,,,,,,,,,,,,,,,,,,,,,,,,,,,,,,,,,,,,
1725717285.579865,1725717285.582174,174.0,0.0,4248.589844,4183.846191,4277.563965,4331.538574,4234.102539,4311.666504,4166.794922,4235.384766,4251.922852,4224.102539,4477.05127,4508.333496,4345.641113,4413.205078,2885.0,0.0,11.0,,,,0.0,4.0,4.0,4.0,4.0,4.0,4.0,4.0,4.0,4.0,4.0,4.0,4.0,4.0,4.0,100.0,,,,,,,,,,,,,,,,,,,,,,,,,,,,,,,,,,,,,,,,,,,,,,,,,,,,,,,,,,,,,,,,,,,,,,,,,,,,,,,,,,,,,,,,,,,,,,,,,,,,,,,,,,,,,,,,,,,,,,,,,,,,,,,,,,,
1725717285.583769,1725717285.585978,175.0,0.0,4247.179688,4182.820313,4278.461426,4329.358887,4232.820313,4311.922852,4166.025879,4232.692383,4250.641113,4226.666504,4472.94873,4507.436035,4344.230957,4411.922852,3129.0,0.0,11.0,,,,0.0,4.0,4.0,4.0,4.0,4.0,4.0,4.0,4.0,4.0,4.0,4.0,4.0,4.0,4.0,100.0,,,,,,,,,,,,,,,,,,,,,,,,,,,,,,,,,,,,,,,,,,,,,,,,,,,,,,,,,,,,,,,,,,,,,,,,,,,,,,,,,,,,,,,,,,,,,,,,,,,,,,,,,,,,,,,,,,,,,,,,,,,,,,,,,,,
1725717285.587673,1725717285.589882,176.0,0.0,4246.410156,4183.717773,4279.358887,4331.025879,4232.436035,4311.538574,4166.282227,4233.846191,4248.974121,4226.538574,4470.769043,4508.205078,4345.384766,4411.410156,3441.0,0.0,11.0,,,,0.0,4.0,4.0,4.0,4.0,4.0,4.0,4.0,4.0,4.0,4.0,4.0,4.0,4.0,4.0,100.0,,,,,,,,,,,,,,,,,,,,,,,,,,,,,,,,,,,,,,,,,,,,,,,,,,,,,,,,,,,,,,,,,,,,,,,,,,,,,,,,,,,,,,,,,,,,,,,,,,,,,,,,,,,,,,,,,,,,,,,,,,,,,,,,,,,
1725717285.591577,1725717285.593787,177.0,0.0,4246.538574,4187.05127,4279.487305,4335.0,4233.205078,4310.769043,4167.436035,4239.102539,4248.077148,4224.487305,4472.692383,4509.487305,4348.717773,4411.794922,3869.0,0.0,11.0,,,,0.0,4.0,4.0,4.0,4.0,4.0,4.0,4.0,4.0,4.0,4.0,4.0,4.0,4.0,4.0,100.0,,,,,,,,,,,,,,,,,,,,,,,,,,,,,,,,,,,,,,,,,,,,,,,,,,,,,,,,,,,,,,,,,,,,,,,,,,,,,,,,,,,,,,,,,,,,,,,,,,,,,,,,,,,,,,,,,,,,,,,,,,,,,,,,,,,
1725717285.595481,1725717285.597591,178.0,0.0,4247.563965,4192.307617,4278.461426,4338.077148,4234.615234,4310.128418,4168.846191,4245.769043,4248.589844,4222.05127,4477.692383,4509.615234,4352.179688,4412.820313,2885.0,0.0,11.0,,,,0.0,4.0,4.0,4.0,4.0,4.0,4.0,4.0,4.0,4.0,4.0,4.0,4.0,4.0,4.0,100.0,,,,,,,,,,,,,,,,,,,,,,,,,,,,,,,,,,,,,,,,,,,,,,,,,,,,,,,,,,,,,,,,,,,,,,,,,,,,,,,,,,,,,,,,,,,,,,,,,,,,,,,,,,,,,,,,,,,,,,,,,,,,,,,,,,,
1725717285.599385,1725717285.601495,179.0,0.0,4248.333496,4197.307617,4276.794922,4337.563965,4235.641113,4309.743652,4170.0,4249.743652,4250.0,4220.0,4481.410156,4508.333496,4353.333496,4413.846191,3129.0,0.0,11.0,,,,0.0,4.0,4.0,4.0,4.0,4.0,4.0,4.0,4.0,4.0,4.0,4.0,4.0,4.0,4.0,100.0,,,,,,,,,,,,,,,,,,,,,,,,,,,,,,,,,,,,,,,,,,,,,,,,,,,,,,,,,,,,,,,,,,,,,,,,,,,,,,,,,,,,,,,,,,,,,,,,,,,,,,,,,,,,,,,,,,,,,,,,,,,,,,,,,,,
1725717285.603289,1725717285.605399,180.0,0.0,4247.820313,4200.384766,4275.384766,4333.333496,4235.384766,4309.743652,4170.384766,4249.230957,4251.025879,4218.205078,4479.743652,4507.05127,4351.922852,4414.230957,3441.0,0.0,11.0,,,,0.0,4.0,4.0,4.0,4.0,4.0,4.0,4.0,4.0,4.0,4.0,4.0,4.0,4.0,4.0,100.0,1.0,75.0,4.0,4.0,4.0,4.0,4.0,4.0,1.0,4.0,4.0,4.0,4.0,4.0,4.0,4.0,1.0,0.0,0.0,,,,,,,,,,,,,,,,,,,,,,,,,,,,,,,,,,,,,0.0,0.0,1.0,0.0,1024.0,0.002988,2.339647,1.512767,0.386469,0.190238,0.108384,2.704734,1.59007,0.466374,0.193539,0.10542,1.765812,1.538653,0.550825,0.218973,0.054213,2.155377,0.983139,0.722982,0.177045,0.111098,0.826949,0.504149,0.324285,0.170783,0.075219,0.265042,0.245805,0.151776,0.098876,0.052236,1.180148,0.155713,0.349161,0.150338,0.042571,0.706185,1.045231,0.478652,0.103924,0.146898,0.936564,1.005241,0.435037,0.219482,0.170596,1.730711,1.706099,0.604324,0.327413,0.171399,2.207473,2.128882,1.133958,0.637731,0.523809,2.703745,2.612655,0.947871,0.419997,0.173533,3.142142,1.975809,1.15697,0.444244,0.137454,2.361438,2.083409,0.898002,0.324089,0.112886
1725717285.607194,1725717285.609403,181.0,0.0,4246.538574,4200.512695,4274.871582,4327.94873,4233.846191,4309.871582,4170.128418,4246.025879,4250.769043,4216.666504,4472.692383,4507.820313,4349.487305,4413.717773,3869.0,0.0,11.0,,,,0.0,4.0,4.0,4.0,4.0,4.0,4.0,4.0,4.0,4.0,4.0,4.0,4.0,4.0,4.0,100.0,,,,,,,,,,,,,,,,,,,,,,,,,,,,,,,,,,,,,,,,,,,,,,,,,,,,,,,,,,,,,,,,,,,,,,,,,,,,,,,,,,,,,,,,,,,,,,,,,,,,,,,,,,,,,,,,,,,,,,,,,,,,,,,,,,,
1725717285.611098,1725717285.613307,182.0,0.0,4245.256348,4198.846191,4275.384766,4324.615234,4231.794922,4310.0,4169.230957,4243.077148,4249.615234,4215.897461,4465.512695,4511.794922,4348.846191,4412.820313,2885.0,0.0,11.0,,,,0.0,4.0,4.0,4.0,4.0,4.0,4.0,4.0,4.0,4.0,4.0,4.0,4.0,4.0,4.0,100.0,,,,,,,,,,,,,,,,,,,,,,,,,,,,,,,,,,,,,,,,,,,,,,,,,,,,,,,,,,,,,,,,,,,,,,,,,,,,,,,,,,,,,,,,,,,,,,,,,,,,,,,,,,,,,,,,,,,,,,,,,,,,,,,,,,,
1725717285.615002,1725717285.617211,183.0,0.0,4244.743652,4197.05127,4276.666504,4325.384766,4230.512695,4310.128418,4168.077148,4242.563965,4248.974121,4216.922852,4463.846191,4517.692383,4350.641113,4412.692383,3129.0,0.0,11.0,,,,0.0,4.0,4.0,4.0,4.0,4.0,4.0,4.0,4.0,4.0,4.0,4.0,4.0,4.0,4.0,100.0,,,,,,,,,,,,,,,,,,,,,,,,,,,,,,,,,,,,,,,,,,,,,,,,,,,,,,,,,,,,,,,,,,,,,,,,,,,,,,,,,,,,,,,,,,,,,,,,,,,,,,,,,,,,,,,,,,,,,,,,,,,,,,,,,,,
1725717285.618906,1725717285.621115,184.0,0.0,4245.0,4196.794922,4277.692383,4328.461426,4230.769043,4310.128418,4167.692383,4244.102539,4249.871582,4219.743652,4470.128418,4522.692383,4353.846191,4414.102539,3441.0,0.0,11.0,,,,0.0,4.0,4.0,4.0,4.0,4.0,4.0,4.0,4.0,4.0,4.0,4.0,4.0,4.0,4.0,100.0,,,,,,,,,,,,,,,,,,,,,,,,,,,,,,,,,,,,,,,,,,,,,,,,,,,,,,,,,,,,,,,,,,,,,,,,,,,,,,,,,,,,,,,,,,,,,,,,,,,,,,,,,,,,,,,,,,,,,,,,,,,,,,,,,,,
1725717285.62281,1725717285.625119,185.0,0.0,4245.897461,4198.333496,4278.205078,4330.512695,4232.307617,4310.0,4168.974121,4245.897461,4252.05127,4223.205078,4481.025879,4525.256348,4356.666504,4417.692383,3869.0,0.0,11.0,,,,0.0,4.0,4.0,4.0,4.0,4.0,4.0,4.0,4.0,4.0,4.0,4.0,4.0,4.0,4.0,100.0,,,,,,,,,,,,,,,,,,,,,,,,,,,,,,,,,,,,,,,,,,,,,,,,,,,,,,,,,,,,,,,,,,,,,,,,,,,,,,,,,,,,,,,,,,,,,,,,,,,,,,,,,,,,,,,,,,,,,,,,,,,,,,,,,,,
1725717285.626714,1725717285.629023,186.0,0.0,4246.794922,4200.769043,4278.077148,4329.743652,4233.974121,4310.0,4172.179688,4246.794922,4254.487305,4225.769043,4490.641113,4525.128418,4358.333496,4422.820313,2885.0,0.0,11.0,,,,0.0,4.0,4.0,4.0,4.0,4.0,4.0,4.0,4.0,4.0,4.0,4.0,4.0,4.0,4.0,100.0,,,,,,,,,,,,,,,,,,,,,,,,,,,,,,,,,,,,,,,,,,,,,,,,,,,,,,,,,,,,,,,,,,,,,,,,,,,,,,,,,,,,,,,,,,,,,,,,,,,,,,,,,,,,,,,,,,,,,,,,,,,,,,,,,,,
1725717285.630618,1725717285.632927,187.0,0.0,4247.307617,4202.179688,4278.205078,4327.563965,4234.615234,4310.0,4176.794922,4246.410156,4255.641113,4226.282227,4494.487305,4523.461426,4359.230957,4427.563965,3129.0,0.0,11.0,,,,0.0,4.0,4.0,4.0,4.0,4.0,4.0,4.0,4.0,4.0,4.0,4.0,4.0,4.0,4.0,100.0,,,,,,,,,,,,,,,,,,,,,,,,,,,,,,,,,,,,,,,,,,,,,,,,,,,,,,,,,,,,,,,,,,,,,,,,,,,,,,,,,,,,,,,,,,,,,,,,,,,,,,,,,,,,,,,,,,,,,,,,,,,,,,,,,,,
1725717285.634522,1725717285.636832,188.0,0.0,4246.794922,4201.025879,4278.717773,4326.922852,4233.846191,4310.128418,4181.153809,4245.384766,4255.0,4224.230957,4492.436035,4521.666504,4359.487305,4429.615234,3441.0,0.0,11.0,,,,0.0,4.0,4.0,4.0,4.0,4.0,4.0,4.0,4.0,4.0,4.0,4.0,4.0,4.0,4.0,100.0,,,,,,,,,,,,,,,,,,,,,,,,,,,,,,,,,,,,,,,,,,,,,,,,,,,,,,,,0.0,0.0,1.0,0.0,1024.0,0.002988,,,,,,,,,,,,,,,,,,,,,,,,,,,,,,,,,,,,,,,,,,,,,,,,,,,,,,,,,,,,,,,,,,,,,,
1725717285.638426,1725717285.640836,189.0,0.0,4244.615234,4197.179688,4279.487305,4328.974121,4232.307617,4310.128418,4183.717773,4244.615234,4252.563965,4220.512695,4488.461426,4520.384766,4358.589844,4428.205078,3869.0,0.0,11.0,,,,0.0,4.0,4.0,4.0,4.0,4.0,4.0,4.0,4.0,4.0,4.0,4.0,4.0,4.0,4.0,100.0,,,,,,,,,,,,,,,,,,,,,,,,,,,,,,,,,,,,,,,,,,,,,,,,,,,,,,,,,,,,,,,,,,,,,,,,,,,,,,,,,,,,,,,,,,,,,,,,,,,,,,,,,,,,,,,,,,,,,,,,,,,,,,,,,,,
1725717285.642331,1725717285.64474,190.0,0.0,4240.641113,4192.307617,4279.615234,4332.307617,4231.153809,4310.128418,4184.487305,4245.0,4249.871582,4217.179688,4486.153809,4520.384766,4356.794922,4424.230957,2885.0,0.0,11.0,,,,0.0,4.0,4.0,4.0,4.0,4.0,4.0,4.0,4.0,4.0,4.0,4.0,4.0,4.0,4.0,100.0,,,,,,,,,,,,,,,,,,,,,,,,,,,,,,,,,,,,,,,,,,,,,,,,,,,,,,,,,,,,,,,,,,,,,,,,,,,,,,,,,,,,,,,,,,,,,,,,,,,,,,,,,,,,,,,,,,,,,,,,,,,,,,,,,,,
1725717285.646235,1725717285.648644,191.0,0.0,4235.769043,4188.333496,4278.717773,4334.487305,4230.897461,4310.0,4184.230957,4247.179688,4248.589844,4216.025879,4486.538574,4521.794922,4355.384766,4420.256348,3129.0,0.0,11.0,,,,0.0,4.0,4.0,4.0,4.0,4.0,4.0,4.0,4.0,4.0,4.0,4.0,4.0,4.0,4.0,100.0,,,,,,,,,,,,,,,,,,,,,,,,,,,,,,,,,,,,,,,,,,,,,,,,,,,,,,,,,,,,,,,,,,,,,,,,,,,,,,,,,,,,,,,,,,,,,,,,,,,,,,,,,,,,,,,,,,,,,,,,,,,,,,,,,,,
1725717285.650139,1725717285.652648,192.0,0.0,4231.794922,4187.05127,4277.307617,4333.846191,4231.282227,4310.0,4184.102539,4250.0,4250.0,4217.563965,4488.077148,4524.230957,4355.769043,4418.717773,3441.0,0.0,11.0,,,,0.0,4.0,4.0,4.0,4.0,4.0,4.0,4.0,4.0,4.0,4.0,4.0,4.0,4.0,4.0,100.0,,,,,,,,,,,,,,,,,,,,,,,,,,,,,,,,,,,,,,,,,,,,,,,,,,,,,,,,,,,,,,,,,,,,,,,,,,,,,,,,,,,,,,,,,,,,,,,,,,,,,,,,,,,,,,,,,,,,,,,,,,,,,,,,,,,
1725717285.654043,1725717285.656552,193.0,0.0,4230.512695,4188.717773,4276.282227,4330.641113,4231.666504,4310.0,4184.615234,4252.179688,4254.102539,4220.0,4488.333496,4526.410156,4357.692383,4420.384766,3869.0,0.0,11.0,,,,0.0,4.0,4.0,4.0,4.0,4.0,4.0,4.0,4.0,4.0,4.0,4.0,4.0,4.0,4.0,100.0,,,,,,,,,,,,,,,,,,,,,,,,,,,,,,,,,,,,,,,,,,,,,,,,,,,,,,,,,,,,,,,,,,,,,,,,,,,,,,,,,,,,,,,,,,,,,,,,,,,,,,,,,,,,,,,,,,,,,,,,,,,,,,,,,,,
1725717285.657947,1725717285.660456,194.0,0.0,4232.307617,4192.692383,4276.410156,4327.307617,4231.794922,4310.0,4185.384766,4252.820313,4258.974121,4221.282227,4486.794922,4528.077148,4360.128418,4424.487305,2885.0,0.0,11.0,,,,0.0,4.0,4.0,4.0,4.0,4.0,4.0,4.0,4.0,4.0,4.0,4.0,4.0,4.0,4.0,100.0,,,,,,,,,,,,,,,,,,,,,,,,,,,,,,,,,,,,,,,,,,,,,,,,,,,,,,,,,,,,,,,,,,,,,,,,,,,,,,,,,,,,,,,,,,,,,,,,,,,,,,,,,,,,,,,,,,,,,,,,,,,,,,,,,,,
1725717285.661851,1725717285.66436,195.0,0.0,4235.384766,4196.922852,4277.563965,4325.512695,4231.538574,4310.128418,4186.025879,4251.922852,4261.666504,4220.769043,4485.256348,4528.333496,4361.922852,4428.333496,3129.0,0.0,11.0,,,,0.0,4.0,4.0,4.0,4.0,4.0,4.0,4.0,4.0,4.0,4.0,4.0,4.0,4.0,4.0,100.0,,,,,,,,,,,,,,,,,,,,,,,,,,,,,,,,,,,,,,,,,,,,,,,,,,,,,,,,,,,,,,,,,,,,,,,,,,,,,,,,,,,,,,,,,,,,,,,,,,,,,,,,,,,,,,,,,,,,,,,,,,,,,,,,,,,
1725717285.665755,1725717285.668264,196.0,0.0,4237.436035,4199.102539,4279.102539,4326.025879,4231.282227,4310.128418,4186.922852,4250.512695,4260.128418,4219.487305,4485.512695,4526.922852,4362.179688,4429.487305,3441.0,0.0,11.0,,,,0.0,4.0,4.0,4.0,4.0,4.0,4.0,4.0,4.0,4.0,4.0,4.0,4.0,4.0,4.0,100.0,,,,,,,,,,,,,,,,,,,,,,,,,,,,,,,,,,,,,,,,,,,,,,,,,,,,,,,,0.0,0.0,1.0,0.0,1024.0,0.002988,,,,,,,,,,,,,,,,,,,,,,,,,,,,,,,,,,,,,,,,,,,,,,,,,,,,,,,,,,,,,,,,,,,,,,
1725717285.669659,1725717285.672068,197.0,0.0,4237.307617,4198.846191,4279.871582,4327.563965,4231.410156,4310.0,4188.717773,4249.358887,4255.512695,4218.846191,4487.563965,4524.358887,4360.769043,4427.05127,3869.0,0.0,11.0,,,,0.0,4.0,4.0,4.0,4.0,4.0,4.0,4.0,4.0,4.0,4.0,4.0,4.0,4.0,4.0,100.0,,,,,,,,,,,,,,,,,,,,,,,,,,,,,,,,,,,,,,,,,,,,,,,,,,,,,,,,,,,,,,,,,,,,,,,,,,,,,,,,,,,,,,,,,,,,,,,,,,,,,,,,,,,,,,,,,,,,,,,,,,,,,,,,,,,
1725717285.673563,1725717285.675973,198.0,0.0,4235.512695,4197.307617,4279.358887,4328.717773,4231.538574,4309.871582,4191.794922,4248.717773,4250.641113,4220.128418,4489.230957,4522.436035,4358.077148,4422.563965,2885.0,0.0,11.0,,,,0.0,4.0,4.0,4.0,4.0,4.0,4.0,4.0,4.0,4.0,4.0,4.0,4.0,4.0,4.0,100.0,,,,,,,,,,,,,,,,,,,,,,,,,,,,,,,,,,,,,,,,,,,,,,,,,,,,,,,,,,,,,,,,,,,,,,,,,,,,,,,,,,,,,,,,,,,,,,,,,,,,,,,,,,,,,,,,,,,,,,,,,,,,,,,,,,,
1725717285.677467,1725717285.679877,199.0,0.0,4234.230957,4196.538574,4278.077148,4328.077148,4231.666504,4309.743652,4195.641113,4248.589844,4248.846191,4222.820313,4489.102539,4522.436035,4355.384766,4418.974121,3129.0,0.0,11.0,,,,0.0,4.0,4.0,4.0,4.0,4.0,4.0,4.0,4.0,4.0,4.0,4.0,4.0,4.0,4.0,100.0,,,,,,,,,,,,,,,,,,,,,,,,,,,,,,,,,,,,,,,,,,,,,,,,,,,,,,,,,,,,,,,,,,,,,,,,,,,,,,,,,,,,,,,,,,,,,,,,,,,,,,,,,,,,,,,,,,,,,,,,,,,,,,,,,,,
1725717285.681372,1725717285.683781,200.0,0.0,4235.128418,4197.436035,4277.307617,4326.410156,4231.153809,4310.0,4198.974121,4248.589844,4251.410156,4226.282227,4488.589844,4524.487305,4355.0,4418.077148,3441.0,0.0,11.0,,,,0.0,4.0,4.0,4.0,4.0,4.0,4.0,4.0,4.0,4.0,4.0,4.0,4.0,4.0,4.0,100.0,,,,,,,,,,,,,,,,,,,,,,,,,,,,,,,,,,,,,,,,,,,,,,,,,,,,,,,,,,,,,,,,,,,,,,,,,,,,,,,,,,,,,,,,,,,,,,,,,,,,,,,,,,,,,,,,,,,,,,,,,,,,,,,,,,,
1725717285.685276,1725717285.687585,201.0,0.0,4238.333496,4199.615234,4278.205078,4325.0,4230.256348,4310.512695,4200.641113,4248.846191,4257.05127,4229.102539,4489.358887,4527.436035,4357.179688,4420.384766,3869.0,0.0,11.0,,,,0.0,4.0,4.0,4.0,4.0,4.0,4.0,4.0,4.0,4.0,4.0,4.0,4.0,4.0,4.0,100.0,,,,,,,,,,,,,,,,,,,,,,,,,,,,,,,,,,,,,,,,,,,,,,,,,,,,,,,,,,,,,,,,,,,,,,,,,,,,,,,,,,,,,,,,,,,,,,,,,,,,,,,,,,,,,,,,,,,,,,,,,,,,,,,,,,,
1725717285.68918,1725717285.691489,202.0,0.0,4242.820313,4201.538574,4280.641113,4325.128418,4229.487305,4311.538574,4200.512695,4249.743652,4263.205078,4230.512695,4491.282227,4530.897461,4360.769043,4424.358887,2885.0,0.0,11.0,,,,0.0,4.0,4.0,4.0,4.0,4.0,4.0,4.0,4.0,4.0,4.0,4.0,4.0,4.0,4.0,100.0,,,,,,,,,,,,,,,,,,,,,,,,,,,,,,,,,,,,,,,,,,,,,,,,,,,,,,,,,,,,,,,,,,,,,,,,,,,,,,,,,,,,,,,,,,,,,,,,,,,,,,,,,,,,,,,,,,,,,,,,,,,,,,,,,,,
1725717285.693084,1725717285.695393,203.0,0.0,4246.538574,4202.436035,4284.102539,4327.179688,4229.487305,4312.307617,4200.0,4251.794922,4267.05127,4229.871582,4492.05127,4535.0,4363.589844,4428.205078,3129.0,0.0,11.0,,,,0.0,4.0,4.0,4.0,4.0,4.0,4.0,4.0,4.0,4.0,4.0,4.0,4.0,4.0,4.0,100.0,,,,,,,,,,,,,,,,,,,,,,,,,,,,,,,,,,,,,,,,,,,,,,,,,,,,,,,,,,,,,,,,,,,,,,,,,,,,,,,,,,,,,,,,,,,,,,,,,,,,,,,,,,,,,,,,,,,,,,,,,,,,,,,,,,,
1725717285.696988,1725717285.699297,204.0,0.0,4248.717773,4202.820313,4287.692383,4329.871582,4230.128418,4312.563965,4200.128418,4254.871582,4267.692383,4228.333496,4491.153809,4538.846191,4364.743652,4430.384766,3441.0,0.0,11.0,,,,0.0,4.0,4.0,4.0,4.0,4.0,4.0,4.0,4.0,4.0,4.0,4.0,4.0,4.0,4.0,100.0,,,,,,,,,,,,,,,,,,,,,,,,,,,,,,,,,,,,,,,,,,,,,,,,,,,,,,,,0.0,0.0,1.0,0.0,1024.0,0.002988,,,,,,,,,,,,,,,,,,,,,,,,,,,,,,,,,,,,,,,,,,,,,,,,,,,,,,,,,,,,,,,,,,,,,,
1725717285.700892,1725717285.703101,205.0,0.0,4249.487305,4203.205078,4290.256348,4331.922852,4230.641113,4312.307617,4201.025879,4258.205078,4266.410156,4228.461426,4490.0,4541.538574,4365.256348,4431.025879,3869.0,0.0,11.0,,,,0.0,4.0,4.0,4.0,4.0,4.0,4.0,4.0,4.0,4.0,4.0,4.0,4.0,4.0,4.0,100.0,,,,,,,,,,,,,,,,,,,,,,,,,,,,,,,,,,,,,,,,,,,,,,,,,,,,,,,,,,,,,,,,,,,,,,,,,,,,,,,,,,,,,,,,,,,,,,,,,,,,,,,,,,,,,,,,,,,,,,,,,,,,,,,,,,,
1725717285.704796,1725717285.707006,206.0,0.0,4249.358887,4203.333496,4291.666504,4332.820313,4230.897461,4311.794922,4202.05127,4261.153809,4265.512695,4231.282227,4491.410156,4542.307617,4366.410156,4430.641113,2885.0,0.0,11.0,,,,0.0,4.0,4.0,4.0,4.0,4.0,4.0,4.0,4.0,4.0,4.0,4.0,4.0,4.0,4.0,100.0,,,,,,,,,,,,,,,,,,,,,,,,,,,,,,,,,,,,,,,,,,,,,,,,,,,,,,,,,,,,,,,,,,,,,,,,,,,,,,,,,,,,,,,,,,,,,,,,,,,,,,,,,,,,,,,,,,,,,,,,,,,,,,,,,,,
1725717285.7087,1725717285.71091,207.0,0.0,4248.717773,4202.820313,4292.307617,4332.94873,4230.769043,4312.05127,4202.563965,4262.436035,4265.897461,4234.487305,4495.769043,4541.282227,4368.333496,4429.871582,3129.0,0.0,11.0,,,,0.0,4.0,4.0,4.0,4.0,4.0,4.0,4.0,4.0,4.0,4.0,4.0,4.0,4.0,4.0,100.0,,,,,,,,,,,,,,,,,,,,,,,,,,,,,,,,,,,,,,,,,,,,,,,,,,,,,,,,,,,,,,,,,,,,,,,,,,,,,,,,,,,,,,,,,,,,,,,,,,,,,,,,,,,,,,,,,,,,,,,,,,,,,,,,,,,
1725717285.712604,1725717285.714914,208.0,0.0,4247.820313,4202.05127,4292.692383,4333.461426,4230.769043,4313.205078,4202.692383,4262.179688,4266.666504,4234.102539,4501.025879,4540.0,4370.0,4428.974121,3441.0,0.0,11.0,,,,0.0,4.0,4.0,4.0,4.0,4.0,4.0,4.0,4.0,4.0,4.0,4.0,4.0,4.0,4.0,100.0,,,,,,,,,,,,,,,,,,,,,,,,,,,,,,,,,,,,,,,,,,,,,,,,,,,,,,,,,,,,,,,,,,,,,,,,,,,,,,,,,,,,,,,,,,,,,,,,,,,,,,,,,,,,,,,,,,,,,,,,,,,,,,,,,,,
1725717285.716509,1725717285.718818,209.0,0.0,4246.922852,4202.307617,4292.563965,4334.358887,4231.153809,4314.743652,4202.563965,4260.512695,4266.666504,4228.461426,4503.461426,4539.230957,4369.487305,4427.94873,3869.0,0.0,11.0,,,,0.0,4.0,4.0,4.0,4.0,4.0,4.0,4.0,4.0,4.0,4.0,4.0,4.0,4.0,4.0,100.0,,,,,,,,,,,,,,,,,,,,,,,,,,,,,,,,,,,,,,,,,,,,,,,,,,,,,,,,,,,,,,,,,,,,,,,,,,,,,,,,,,,,,,,,,,,,,,,,,,,,,,,,,,,,,,,,,,,,,,,,,,,,,,,,,,,
1725717285.720412,1725717285.722722,210.0,0.0,4246.282227,4204.487305,4291.025879,4335.641113,4232.05127,4316.153809,4202.436035,4258.205078,4265.384766,4220.256348,4501.153809,4538.205078,4366.153809,4427.179688,2885.0,0.0,11.0,,,,0.0,4.0,4.0,4.0,4.0,4.0,4.0,4.0,4.0,4.0,4.0,4.0,4.0,4.0,4.0,100.0,,,,,,,,,,,,,,,,,,,,,,,,,,,,,,,,,,,,,,,,,,,,,,,,,,,,,,,,,,,,,,,,,,,,,,,,,,,,,,,,,,,,,,,,,,,,,,,,,,,,,,,,,,,,,,,,,,,,,,,,,,,,,,,,,,,
1725717285.724316,1725717285.726726,211.0,0.0,4246.025879,4207.692383,4288.077148,4336.025879,4233.077148,4317.05127,4202.179688,4255.384766,4263.461426,4214.743652,4495.512695,4535.769043,4361.282227,4426.538574,3129.0,0.0,11.0,,,,0.0,4.0,4.0,4.0,4.0,4.0,4.0,4.0,4.0,4.0,4.0,4.0,4.0,4.0,4.0,100.0,,,,,,,,,,,,,,,,,,,,,,,,,,,,,,,,,,,,,,,,,,,,,,,,,,,,,,,,,,,,,,,,,,,,,,,,,,,,,,,,,,,,,,,,,,,,,,,,,,,,,,,,,,,,,,,,,,,,,,,,,,,,,,,,,,,
1725717285.728221,1725717285.73063,212.0,0.0,4245.897461,4211.025879,4284.358887,4334.871582,4233.333496,4317.692383,4201.410156,4252.563965,4262.307617,4215.512695,4490.256348,4531.538574,4356.794922,4425.897461,3441.0,0.0,11.0,,,,0.0,4.0,4.0,4.0,4.0,4.0,4.0,4.0,4.0,4.0,4.0,4.0,4.0,4.0,4.0,100.0,,,,,,,,,,,,,,,,,1.0,0.0,0.0,,,,,,,,,,,,,,,,,,,,,,,,,,,,,,,,,,,,,0.0,0.0,1.0,0.0,1024.0,0.004312,2.563699,1.485746,0.453601,0.202271,0.101487,3.56421,2.245751,0.557142,0.224186,0.118086,2.058476,1.556223,0.729234,0.257241,0.054355,2.522009,1.089199,0.768179,0.164823,0.114034,1.107623,0.518053,0.367751,0.161764,0.079786,0.189733,0.172532,0.133605,0.083749,0.043395,1.118401,0.171657,0.398363,0.152793,0.045715,0.807353,0.945095,0.664924,0.112264,0.159049,1.093453,0.975595,0.411726,0.225863,0.165299,1.972433,1.536944,0.639611,0.316205,0.159421,2.438826,2.142565,1.440994,0.673553,0.494266,3.341939,2.506061,1.212642,0.454934,0.166815,3.21583,1.987459,1.472381,0.432018,0.141843,2.628065,2.209139,1.162996,0.331933,0.110751
1725717285.732125,1725717285.734534,213.0,0.0,4245.897461,4213.974121,4282.05127,4332.05127,4232.692383,4317.820313,4200.384766,4250.0,4262.692383,4221.538574,4487.820313,4527.179688,4354.743652,4425.512695,3869.0,0.0,11.0,,,,0.0,4.0,4.0,4.0,4.0,4.0,4.0,4.0,4.0,4.0,4.0,4.0,4.0,4.0,4.0,100.0,,,,,,,,,,,,,,,,,,,,,,,,,,,,,,,,,,,,,,,,,,,,,,,,,,,,,,,,,,,,,,,,,,,,,,,,,,,,,,,,,,,,,,,,,,,,,,,,,,,,,,,,,,,,,,,,,,,,,,,,,,,,,,,,,,,
1725717285.736029,1725717285.738438,214.0,0.0,4245.897461,4216.282227,4282.436035,4328.717773,4231.666504,4317.436035,4199.487305,4248.461426,4264.102539,4229.487305,4488.717773,4524.615234,4355.512695,4425.384766,2885.0,0.0,11.0,,,,0.0,4.0,4.0,4.0,4.0,4.0,4.0,4.0,4.0,4.0,4.0,4.0,4.0,4.0,4.0,100.0,,,,,,,,,,,,,,,,,,,,,,,,,,,,,,,,,,,,,,,,,,,,,,,,,,,,,,,,,,,,,,,,,,,,,,,,,,,,,,,,,,,,,,,,,,,,,,,,,,,,,,,,,,,,,,,,,,,,,,,,,,,,,,,,,,,
1725717285.739933,1725717285.742342,215.0,0.0,4245.769043,4217.179688,4285.641113,4326.794922,4231.153809,4316.794922,4199.358887,4248.333496,4265.769043,4236.025879,4491.410156,4524.358887,4357.820313,4425.512695,3129.0,0.0,11.0,,,,0.0,4.0,4.0,4.0,4.0,4.0,4.0,4.0,4.0,4.0,4.0,4.0,4.0,4.0,4.0,100.0,,,,,,,,,,,,,,,,,,,,,,,,,,,,,,,,,,,,,,,,,,,,,,,,,,,,,,,,,,,,,,,,,,,,,,,,,,,,,,,,,,,,,,,,,,,,,,,,,,,,,,,,,,,,,,,,,,,,,,,,,,,,,,,,,,,
1725717285.743837,1725717285.746146,216.0,0.0,4245.769043,4216.153809,4289.615234,4327.563965,4231.538574,4315.769043,4200.384766,4249.358887,4266.538574,4238.461426,4493.717773,4525.512695,4359.871582,4425.769043,3441.0,0.0,11.0,,,,0.0,4.0,4.0,4.0,4.0,4.0,4.0,4.0,4.0,4.0,4.0,4.0,4.0,4.0,4.0,100.0,,,,,,,,,,,,,,,,,,,,,,,,,,,,,,,,,,,,,,,,,,,,,,,,,,,,,,,,,,,,,,,,,,,,,,,,,,,,,,,,,,,,,,,,,,,,,,,,,,,,,,,,,,,,,,,,,,,,,,,,,,,,,,,,,,,
1725717285.747741,1725717285.750051,217.0,0.0,4245.769043,4213.333496,4291.410156,4330.512695,4232.563965,4314.102539,4201.922852,4250.512695,4266.666504,4236.025879,4494.102539,4526.538574,4360.0,4426.410156,3869.0,0.0,11.0,,,,0.0,4.0,4.0,4.0,4.0,4.0,4.0,4.0,4.0,4.0,4.0,4.0,4.0,4.0,4.0,100.0,,,,,,,,,,,,,,,,,,,,,,,,,,,,,,,,,,,,,,,,,,,,,,,,,,,,,,,,,,,,,,,,,,,,,,,,,,,,,,,,,,,,,,,,,,,,,,,,,,,,,,,,,,,,,,,,,,,,,,,,,,,,,,,,,,,
1725717285.751645,1725717285.753955,218.0,0.0,4245.641113,4210.0,4289.871582,4334.102539,4233.333496,4311.922852,4202.94873,4251.282227,4266.282227,4230.0,4492.05127,4526.666504,4358.717773,4427.436035,2885.0,0.0,11.0,,,,0.0,4.0,4.0,4.0,4.0,4.0,4.0,4.0,4.0,4.0,4.0,4.0,4.0,4.0,4.0,100.0,,,,,,,,,,,,,,,,,,,,,,,,,,,,,,,,,,,,,,,,,,,,,,,,,,,,,,,,,,,,,,,,,,,,,,,,,,,,,,,,,,,,,,,,,,,,,,,,,,,,,,,,,,,,,,,,,,,,,,,,,,,,,,,,,,,
1725717285.755549,1725717285.757959,219.0,0.0,4245.769043,4207.692383,4286.282227,4336.153809,4233.077148,4310.256348,4202.307617,4251.153809,4266.153809,4223.974121,4488.205078,4526.025879,4357.436035,4428.461426,3129.0,0.0,11.0,,,,0.0,4.0,4.0,4.0,4.0,4.0,4.0,4.0,4.0,4.0,4.0,4.0,4.0,4.0,4.0,100.0,,,,,,,,,,,,,,,,,,,,,,,,,,,,,,,,,,,,,,,,,,,,,,,,,,,,,,,,,,,,,,,,,,,,,,,,,,,,,,,,,,,,,,,,,,,,,,,,,,,,,,,,,,,,,,,,,,,,,,,,,,,,,,,,,,,
1725717285.759453,1725717285.761863,220.0,0.0,4245.897461,4207.436035,4283.846191,4336.025879,4231.666504,4310.384766,4200.384766,4250.384766,4266.025879,4221.153809,4483.974121,4525.512695,4357.05127,4428.717773,3441.0,0.0,11.0,,,,0.0,4.0,4.0,4.0,4.0,4.0,4.0,4.0,4.0,4.0,4.0,4.0,4.0,4.0,4.0,100.0,,,,,,,,,,,,,,,,,,,,,,,,,,,,,,,,,,,,,,,,,,,,,,,,,,,,,,,,0.0,0.0,1.0,0.0,1024.0,0.004312,,,,,,,,,,,,,,,,,,,,,,,,,,,,,,,,,,,,,,,,,,,,,,,,,,,,,,,,,,,,,,,,,,,,,,
1725717285.763358,1725717285.765767,221.0,0.0,4245.769043,4209.615234,4284.487305,4334.102539,4230.256348,4312.563965,4199.230957,4249.743652,4265.384766,4222.563965,4480.384766,4526.025879,4357.307617,4428.205078,3869.0,0.0,11.0,,,,0.0,4.0,4.0,4.0,4.0,4.0,4.0,4.0,4.0,4.0,4.0,4.0,4.0,4.0,4.0,100.0,,,,,,,,,,,,,,,,,,,,,,,,,,,,,,,,,,,,,,,,,,,,,,,,,,,,,,,,,,,,,,,,,,,,,,,,,,,,,,,,,,,,,,,,,,,,,,,,,,,,,,,,,,,,,,,,,,,,,,,,,,,,,,,,,,,
1725717285.767262,1725717285.769671,222.0,0.0,4245.256348,4213.077148,4287.820313,4332.307617,4230.128418,4315.512695,4200.641113,4249.743652,4263.974121,4226.282227,4479.230957,4527.692383,4357.820313,4427.436035,2885.0,0.0,11.0,,,,0.0,4.0,4.0,4.0,4.0,4.0,4.0,4.0,4.0,4.0,4.0,4.0,4.0,4.0,4.0,100.0,,,,,,,,,,,,,,,,,,,,,,,,,,,,,,,,,,,,,,,,,,,,,,,,,,,,,,,,,,,,,,,,,,,,,,,,,,,,,,,,,,,,,,,,,,,,,,,,,,,,,,,,,,,,,,,,,,,,,,,,,,,,,,,,,,,
1725717285.771166,1725717285.773575,223.0,0.0,4245.0,4216.666504,4290.769043,4332.436035,4231.410156,4317.563965,4205.128418,4250.512695,4262.563965,4229.230957,4481.922852,4529.230957,4359.102539,4427.436035,3129.0,0.0,11.0,,,,0.0,4.0,4.0,4.0,4.0,4.0,4.0,4.0,4.0,4.0,4.0,4.0,4.0,4.0,4.0,100.0,,,,,,,,,,,,,,,,,,,,,,,,,,,,,,,,,,,,,,,,,,,,,,,,,,,,,,,,,,,,,,,,,,,,,,,,,,,,,,,,,,,,,,,,,,,,,,,,,,,,,,,,,,,,,,,,,,,,,,,,,,,,,,,,,,,
1725717285.77507,1725717285.777379,224.0,0.0,4245.769043,4218.717773,4291.153809,4334.102539,4233.589844,4318.205078,4211.153809,4251.538574,4262.436035,4229.102539,4488.461426,4529.230957,4362.05127,4428.846191,3441.0,0.0,11.0,,,,0.0,4.0,4.0,4.0,4.0,4.0,4.0,4.0,4.0,4.0,4.0,4.0,4.0,4.0,4.0,100.0,,,,,,,,,,,,,,,,,,,,,,,,,,,,,,,,,,,,,,,,,,,,,,,,,,,,,,,,,,,,,,,,,,,,,,,,,,,,,,,,,,,,,,,,,,,,,,,,,,,,,,,,,,,,,,,,,,,,,,,,,,,,,,,,,,,
1725717285.778974,1725717285.781283,225.0,0.0,4247.05127,4218.461426,4288.333496,4336.282227,4235.128418,4318.461426,4216.153809,4251.922852,4263.589844,4225.769043,4495.512695,4527.179688,4366.538574,4430.384766,3869.0,0.0,11.0,,,,0.0,4.0,4.0,4.0,4.0,4.0,4.0,4.0,4.0,4.0,4.0,4.0,4.0,4.0,4.0,100.0,,,,,,,,,,,,,,,,,,,,,,,,,,,,,,,,,,,,,,,,,,,,,,,,,,,,,,,,,,,,,,,,,,,,,,,,,,,,,,,,,,,,,,,,,,,,,,,,,,,,,,,,,,,,,,,,,,,,,,,,,,,,,,,,,,,
1725717285.782878,1725717285.785188,226.0,0.0,4247.820313,4217.05127,4284.230957,4337.05127,4235.384766,4318.974121,4218.717773,4250.897461,4264.230957,4221.025879,4497.436035,4524.358887,4369.871582,4430.128418,2885.0,0.0,11.0,,,,0.0,4.0,4.0,4.0,4.0,4.0,4.0,4.0,4.0,4.0,4.0,4.0,4.0,4.0,4.0,100.0,,,,,,,,,,,,,,,,,,,,,,,,,,,,,,,,,,,,,,,,,,,,,,,,,,,,,,,,,,,,,,,,,,,,,,,,,,,,,,,,,,,,,,,,,,,,,,,,,,,,,,,,,,,,,,,,,,,,,,,,,,,,,,,,,,,
1725717285.786782,1725717285.789092,227.0,0.0,4246.410156,4216.153809,4281.025879,4335.769043,4234.615234,4319.487305,4218.589844,4248.589844,4262.179688,4217.307617,4490.769043,4521.922852,4369.871582,4426.538574,3129.0,0.0,11.0,,,,0.0,4.0,4.0,4.0,4.0,4.0,4.0,4.0,4.0,4.0,4.0,4.0,4.0,4.0,4.0,100.0,,,,,,,,,,,,,,,,,,,,,,,,,,,,,,,,,,,,,,,,,,,,,,,,,,,,,,,,,,,,,,,,,,,,,,,,,,,,,,,,,,,,,,,,,,,,,,,,,,,,,,,,,,,,,,,,,,,,,,,,,,,,,,,,,,,
1725717285.790686,1725717285.792896,228.0,0.0,4242.307617,4216.282227,4279.487305,4332.436035,4233.077148,4319.102539,4217.05127,4246.153809,4257.179688,4216.410156,4478.333496,4521.025879,4366.025879,4420.512695,3441.0,0.0,11.0,,,,0.0,4.0,4.0,4.0,4.0,4.0,4.0,4.0,4.0,4.0,4.0,4.0,4.0,4.0,4.0,100.0,,,,,,,,,,,,,,,,,,,,,,,,,,,,,,,,,,,,,,,,,,,,,,,,,,,,,,,,0.0,0.0,1.0,0.0,1024.0,0.004312,,,,,,,,,,,,,,,,,,,,,,,,,,,,,,,,,,,,,,,,,,,,,,,,,,,,,,,,,,,,,,,,,,,,,,
1725717285.79459,1725717285.7968,229.0,0.0,4236.922852,4216.282227,4279.230957,4328.461426,4230.897461,4317.563965,4215.641113,4245.128418,4251.794922,4217.820313,4467.436035,4521.410156,4360.256348,4415.128418,3869.0,0.0,11.0,,,,0.0,4.0,4.0,4.0,4.0,4.0,4.0,4.0,4.0,4.0,4.0,4.0,4.0,4.0,4.0,100.0,,,,,,,,,,,,,,,,,,,,,,,,,,,,,,,,,,,,,,,,,,,,,,,,,,,,,,,,,,,,,,,,,,,,,,,,,,,,,,,,,,,,,,,,,,,,,,,,,,,,,,,,,,,,,,,,,,,,,,,,,,,,,,,,,,,
1725717285.798494,1725717285.800704,230.0,0.0,4232.436035,4215.0,4279.230957,4325.512695,4228.717773,4315.769043,4215.384766,4246.025879,4249.102539,4219.487305,4463.974121,4522.692383,4355.128418,4412.820313,2885.0,0.0,11.0,,,,0.0,4.0,4.0,4.0,4.0,4.0,4.0,4.0,4.0,4.0,4.0,4.0,4.0,4.0,4.0,100.0,,,,,,,,,,,,,,,,,,,,,,,,,,,,,,,,,,,,,,,,,,,,,,,,,,,,,,,,,,,,,,,,,,,,,,,,,,,,,,,,,,,,,,,,,,,,,,,,,,,,,,,,,,,,,,,,,,,,,,,,,,,,,,,,,,,
1725717285.802399,1725717285.804608,231.0,0.0,4230.641113,4212.820313,4278.717773,4324.743652,4227.563965,4315.256348,4216.153809,4247.820313,4251.153809,4219.102539,4469.230957,4523.846191,4352.94873,4413.717773,3129.0,0.0,11.0,,,,0.0,4.0,4.0,4.0,4.0,4.0,4.0,4.0,4.0,4.0,4.0,4.0,4.0,4.0,4.0,100.0,,,,,,,,,,,,,,,,,,,,,,,,,,,,,,,,,,,,,,,,,,,,,,,,,,,,,,,,,,,,,,,,,,,,,,,,,,,,,,,,,,,,,,,,,,,,,,,,,,,,,,,,,,,,,,,,,,,,,,,,,,,,,,,,,,,
1725717285.806303,1725717285.808412,232.0,0.0,4231.538574,4210.512695,4277.94873,4325.641113,4227.94873,4316.410156,4217.436035,4249.487305,4256.666504,4216.666504,4479.102539,4524.615234,4354.102539,4416.282227,3441.0,0.0,11.0,,,,0.0,4.0,4.0,4.0,4.0,4.0,4.0,4.0,4.0,4.0,4.0,4.0,4.0,4.0,4.0,100.0,,,,,,,,,,,,,,,,,,,,,,,,,,,,,,,,,,,,,,,,,,,,,,,,,,,,,,,,,,,,,,,,,,,,,,,,,,,,,,,,,,,,,,,,,,,,,,,,,,,,,,,,,,,,,,,,,,,,,,,,,,,,,,,,,,,
1725717285.810207,1725717285.812316,233.0,0.0,4233.589844,4208.974121,4276.922852,4326.794922,4229.358887,4318.461426,4218.461426,4250.128418,4262.94873,4215.128418,4488.077148,4524.487305,4356.794922,4418.461426,3869.0,0.0,11.0,,,,0.0,4.0,4.0,4.0,4.0,4.0,4.0,4.0,4.0,4.0,4.0,4.0,4.0,4.0,4.0,100.0,,,,,,,,,,,,,,,,,,,,,,,,,,,,,,,,,,,,,,,,,,,,,,,,,,,,,,,,,,,,,,,,,,,,,,,,,,,,,,,,,,,,,,,,,,,,,,,,,,,,,,,,,,,,,,,,,,,,,,,,,,,,,,,,,,,
1725717285.814111,1725717285.816221,234.0,0.0,4235.0,4208.077148,4276.282227,4326.410156,4230.0,4319.487305,4218.589844,4249.743652,4267.05127,4217.307617,4492.05127,4523.846191,4359.358887,4418.974121,2885.0,0.0,11.0,,,,0.0,4.0,4.0,4.0,4.0,4.0,4.0,4.0,4.0,4.0,4.0,4.0,4.0,4.0,4.0,100.0,,,,,,,,,,,,,,,,,,,,,,,,,,,,,,,,,,,,,,,,,,,,,,,,,,,,,,,,,,,,,,,,,,,,,,,,,,,,,,,,,,,,,,,,,,,,,,,,,,,,,,,,,,,,,,,,,,,,,,,,,,,,,,,,,,,
1725717285.818015,1725717285.820225,235.0,0.0,4234.358887,4207.820313,4275.769043,4324.102539,4228.077148,4318.461426,4218.077148,4248.846191,4267.563965,4223.589844,4490.769043,4523.205078,4360.769043,4418.717773,3129.0,0.0,11.0,,,,0.0,4.0,4.0,4.0,4.0,4.0,4.0,4.0,4.0,4.0,4.0,4.0,4.0,4.0,4.0,100.0,,,,,,,,,,,,,,,,,,,,,,,,,,,,,,,,,,,,,,,,,,,,,,,,,,,,,,,,,,,,,,,,,,,,,,,,,,,,,,,,,,,,,,,,,,,,,,,,,,,,,,,,,,,,,,,,,,,,,,,,,,,,,,,,,,,
1725717285.821919,1725717285.824129,236.0,0.0,4232.436035,4208.333496,4275.512695,4320.512695,4224.230957,4315.512695,4217.307617,4248.333496,4265.769043,4230.384766,4486.666504,4522.563965,4361.410156,4419.487305,3441.0,0.0,11.0,,,,0.0,4.0,4.0,4.0,4.0,4.0,4.0,4.0,4.0,4.0,4.0,4.0,4.0,4.0,4.0,100.0,,,,,,,,,,,,,,,,,,,,,,,,,,,,,,,,,,,,,,,,,,,,,,,,,,,,,,,,0.0,0.0,1.0,0.0,1024.0,0.004312,,,,,,,,,,,,,,,,,,,,,,,,,,,,,,,,,,,,,,,,,,,,,,,,,,,,,,,,,,,,,,,,,,,,,,
1725717285.825823,1725717285.828033,237.0,0.0,4230.512695,4209.358887,4275.256348,4317.179688,4220.384766,4312.692383,4216.666504,4248.461426,4264.230957,4233.846191,4483.846191,4522.436035,4362.692383,4422.692383,3869.0,0.0,11.0,,,,0.0,4.0,4.0,4.0,4.0,4.0,4.0,4.0,4.0,4.0,4.0,4.0,4.0,4.0,4.0,100.0,,,,,,,,,,,,,,,,,,,,,,,,,,,,,,,,,,,,,,,,,,,,,,,,,,,,,,,,,,,,,,,,,,,,,,,,,,,,,,,,,,,,,,,,,,,,,,,,,,,,,,,,,,,,,,,,,,,,,,,,,,,,,,,,,,,
1725717285.829727,1725717285.832037,238.0,0.0,4230.0,4210.641113,4274.615234,4315.769043,4218.974121,4312.307617,4216.025879,4249.230957,4264.102539,4232.692383,4485.384766,4522.563965,4365.256348,4427.436035,2885.0,0.0,11.0,,,,0.0,4.0,4.0,4.0,4.0,4.0,4.0,4.0,4.0,4.0,4.0,4.0,4.0,4.0,4.0,100.0,,,,,,,,,,,,,,,,,,,,,,,,,,,,,,,,,,,,,,,,,,,,,,,,,,,,,,,,,,,,,,,,,,,,,,,,,,,,,,,,,,,,,,,,,,,,,,,,,,,,,,,,,,,,,,,,,,,,,,,,,,,,,,,,,,,
1725717285.833631,1725717285.835941,239.0,0.0,4230.769043,4211.538574,4273.333496,4316.794922,4221.153809,4314.743652,4215.641113,4250.641113,4265.641113,4228.461426,4490.641113,4523.205078,4368.077148,4430.897461,3129.0,0.0,11.0,,,,0.0,4.0,4.0,4.0,4.0,4.0,4.0,4.0,4.0,4.0,4.0,4.0,4.0,4.0,4.0,100.0,,,,,,,,,,,,,,,,,,,,,,,,,,,,,,,,,,,,,,,,,,,,,,,,,,,,,,,,,,,,,,,,,,,,,,,,,,,,,,,,,,,,,,,,,,,,,,,,,,,,,,,,,,,,,,,,,,,,,,,,,,,,,,,,,,,
1725717285.837536,1725717285.839845,240.0,0.0,4231.794922,4211.666504,4271.794922,4319.487305,4225.769043,4318.974121,4215.769043,4251.922852,4267.179688,4223.717773,4495.641113,4523.974121,4369.230957,4430.256348,3441.0,0.0,11.0,,,,0.0,4.0,4.0,4.0,4.0,4.0,4.0,4.0,4.0,4.0,4.0,4.0,4.0,4.0,4.0,100.0,,,,,,,,,,,,,,,,,,,,,,,,,,,,,,,,,,,,,,,,,,,,,,,,,,,,,,,,,,,,,,,,,,,,,,,,,,,,,,,,,,,,,,,,,,,,,,,,,,,,,,,,,,,,,,,,,,,,,,,,,,,,,,,,,,,
1725717285.84144,1725717285.843749,241.0,0.0,4232.05127,4211.410156,4270.512695,4322.820313,4230.256348,4322.179688,4216.153809,4252.436035,4267.179688,4220.128418,4496.153809,4524.487305,4367.307617,4425.384766,3869.0,0.0,11.0,,,,0.0,4.0,4.0,4.0,4.0,4.0,4.0,4.0,4.0,4.0,4.0,4.0,4.0,4.0,4.0,100.0,,,,,,,,,,,,,,,,,,,,,,,,,,,,,,,,,,,,,,,,,,,,,,,,,,,,,,,,,,,,,,,,,,,,,,,,,,,,,,,,,,,,,,,,,,,,,,,,,,,,,,,,,,,,,,,,,,,,,,,,,,,,,,,,,,,
1725717285.845344,1725717285.847653,242.0,0.0,4231.410156,4211.794922,4270.641113,4325.897461,4232.692383,4323.205078,4216.538574,4251.922852,4265.384766,4218.846191,4491.025879,4523.974121,4363.205078,4418.974121,2885.0,0.0,11.0,,,,0.0,4.0,4.0,4.0,4.0,4.0,4.0,4.0,4.0,4.0,4.0,4.0,4.0,4.0,4.0,100.0,,,,,,,,,,,,,,,,,,,,,,,,,,,,,,,,,,,,,,,,,,,,,,,,,,,,,,,,,,,,,,,,,,,,,,,,,,,,,,,,,,,,,,,,,,,,,,,,,,,,,,,,,,,,,,,,,,,,,,,,,,,,,,,,,,,
1725717285.849248,1725717285.851457,243.0,0.0,4231.282227,4213.589844,4272.692383,4328.205078,4232.563965,4322.94873,4216.794922,4250.512695,4262.94873,4219.230957,4483.077148,4522.692383,4359.102539,4414.615234,3129.0,0.0,11.0,,,,0.0,4.0,4.0,4.0,4.0,4.0,4.0,4.0,4.0,4.0,4.0,4.0,4.0,4.0,4.0,100.0,,,,,,,,,,,,,,,,,,,,,,,,,,,,,,,,,,,,,,,,,,,,,,,,,,,,,,,,,,,,,,,,,,,,,,,,,,,,,,,,,,,,,,,,,,,,,,,,,,,,,,,,,,,,,,,,,,,,,,,,,,,,,,,,,,,
1725717285.853152,1725717285.855362,244.0,0.0,4232.05127,4216.922852,4276.025879,4329.230957,4231.410156,4323.461426,4217.05127,4249.358887,4261.666504,4220.256348,4476.282227,4521.410156,4357.563965,4413.717773,3441.0,0.0,11.0,,,,0.0,4.0,4.0,4.0,4.0,4.0,4.0,4.0,4.0,4.0,4.0,4.0,4.0,4.0,4.0,100.0,,,,,,,,,,,,,,,,,1.0,0.0,0.0,,,,,,,,,,,,,,,,,,,,,,,,,,,,,,,,,,,,,0.0,0.0,1.0,0.0,1024.0,0.01929,2.888436,1.464704,0.51212,0.221043,0.090003,4.825412,3.19806,0.75906,0.286789,0.141517,2.363975,1.578861,0.894634,0.294511,0.054216,2.844961,1.202855,0.803737,0.158944,0.113561,1.461304,0.575046,0.413381,0.152531,0.081811,0.168518,0.123536,0.126694,0.073303,0.037311,1.111676,0.209979,0.464627,0.160547,0.050374,0.985941,0.909798,0.939415,0.128442,0.169002,1.455033,0.951841,0.438392,0.233383,0.153446,2.425963,1.403499,0.686108,0.314341,0.152541,2.966794,2.185584,1.766694,0.734261,0.466303,4.314942,2.513317,1.435249,0.49345,0.161154,3.556504,2.022767,1.778303,0.46543,0.149557,3.174818,2.368161,1.437104,0.356699,0.110353
1725717285.857056,1725717285.859266,245.0,0.0,4233.205078,4220.384766,4279.487305,4328.974121,4231.153809,4325.897461,4217.820313,4249.487305,4261.922852,4220.641113,4473.717773,4521.538574,4358.589844,4415.256348,3869.0,0.0,11.0,,,,0.0,4.0,4.0,4.0,4.0,4.0,4.0,4.0,4.0,4.0,4.0,4.0,4.0,4.0,4.0,100.0,,,,,,,,,,,,,,,,,,,,,,,,,,,,,,,,,,,,,,,,,,,,,,,,,,,,,,,,,,,,,,,,,,,,,,,,,,,,,,,,,,,,,,,,,,,,,,,,,,,,,,,,,,,,,,,,,,,,,,,,,,,,,,,,,,,
1725717285.86096,1725717285.86327,246.0,0.0,4233.974121,4221.922852,4281.410156,4328.205078,4232.563965,4329.358887,4218.974121,4250.769043,4262.94873,4220.384766,4475.256348,4523.077148,4360.384766,4416.794922,2885.0,0.0,11.0,,,,0.0,4.0,4.0,4.0,4.0,4.0,4.0,4.0,4.0,4.0,4.0,4.0,4.0,4.0,4.0,100.0,,,,,,,,,,,,,,,,,,,,,,,,,,,,,,,,,,,,,,,,,,,,,,,,,,,,,,,,,,,,,,,,,,,,,,,,,,,,,,,,,,,,,,,,,,,,,,,,,,,,,,,,,,,,,,,,,,,,,,,,,,,,,,,,,,,
1725717285.864864,1725717285.867174,247.0,0.0,4233.974121,4220.512695,4281.666504,4327.436035,4234.487305,4332.563965,4219.743652,4251.538574,4263.333496,4219.871582,4478.717773,4524.871582,4360.769043,4416.794922,3129.0,0.0,11.0,,,,0.0,4.0,4.0,4.0,4.0,4.0,4.0,4.0,4.0,4.0,4.0,4.0,4.0,4.0,4.0,100.0,,,,,,,,,,,,,,,,,,,,,,,,,,,,,,,,,,,,,,,,,,,,,,,,,,,,,,,,,,,,,,,,,,,,,,,,,,,,,,,,,,,,,,,,,,,,,,,,,,,,,,,,,,,,,,,,,,,,,,,,,,,,,,,,,,,
1725717285.868768,1725717285.871078,248.0,0.0,4233.717773,4217.179688,4281.025879,4327.179688,4235.512695,4334.230957,4219.743652,4249.358887,4261.666504,4218.974121,4480.769043,4524.871582,4358.205078,4415.256348,3441.0,0.0,11.0,,,,0.0,4.0,4.0,4.0,4.0,4.0,4.0,4.0,4.0,4.0,4.0,4.0,4.0,4.0,4.0,100.0,,,,,,,,,,,,,,,,,,,,,,,,,,,,,,,,,,,,,,,,,,,,,,,,,,,,,,,,,,,,,,,,,,,,,,,,,,,,,,,,,,,,,,,,,,,,,,,,,,,,,,,,,,,,,,,,,,,,,,,,,,,,,,,,,,,
1725717285.872672,1725717285.874982,249.0,0.0,4233.461426,4214.743652,4280.512695,4327.563965,4234.871582,4334.487305,4218.974121,4243.846191,4257.692383,4216.666504,4478.717773,4521.794922,4352.94873,4412.94873,3869.0,0.0,11.0,,,,0.0,4.0,4.0,4.0,4.0,4.0,4.0,4.0,4.0,4.0,4.0,4.0,4.0,4.0,4.0,100.0,,,,,,,,,,,,,,,,,,,,,,,,,,,,,,,,,,,,,,,,,,,,,,,,,,,,,,,,,,,,,,,,,,,,,,,,,,,,,,,,,,,,,,,,,,,,,,,,,,,,,,,,,,,,,,,,,,,,,,,,,,,,,,,,,,,
1725717285.876577,1725717285.878886,250.0,0.0,4233.717773,4216.282227,4280.128418,4328.461426,4233.589844,4334.230957,4218.461426,4236.794922,4252.179688,4211.794922,4472.94873,4516.538574,4346.410156,4410.641113,2885.0,0.0,11.0,,,,0.0,4.0,4.0,4.0,4.0,4.0,4.0,4.0,4.0,4.0,4.0,4.0,4.0,4.0,4.0,100.0,,,,,,,,,,,,,,,,,,,,,,,,,,,,,,,,,,,,,,,,,,,,,,,,,,,,,,,,,,,,,,,,,,,,,,,,,,,,,,,,,,,,,,,,,,,,,,,,,,,,,,,,,,,,,,,,,,,,,,,,,,,,,,,,,,,
1725717285.880481,1725717285.88269,251.0,0.0,4234.358887,4222.179688,4279.743652,4329.358887,4232.563965,4334.102539,4218.846191,4231.922852,4247.05127,4205.641113,4467.05127,4510.897461,4341.282227,4409.615234,3129.0,0.0,11.0,,,,0.0,4.0,4.0,4.0,4.0,4.0,4.0,4.0,4.0,4.0,4.0,4.0,4.0,4.0,4.0,100.0,,,,,,,,,,,,,,,,,,,,,,,,,,,,,,,,,,,,,,,,,,,,,,,,,,,,,,,,,,,,,,,,,,,,,,,,,,,,,,,,,,,,,,,,,,,,,,,,,,,,,,,,,,,,,,,,,,,,,,,,,,,,,,,,,,,
1725717285.884385,1725717285.886594,252.0,0.0,4234.743652,4229.487305,4278.717773,4329.743652,4232.436035,4334.230957,4220.256348,4232.05127,4244.871582,4201.282227,4465.256348,4506.922852,4339.358887,4410.128418,3441.0,0.0,11.0,,,,0.0,4.0,4.0,4.0,4.0,4.0,4.0,4.0,4.0,4.0,4.0,4.0,4.0,4.0,4.0,100.0,,,,,,,,,,,,,,,,,,,,,,,,,,,,,,,,,,,,,,,,,,,,,,,,,,,,,,,,0.0,0.0,1.0,0.0,1024.0,0.01929,,,,,,,,,,,,,,,,,,,,,,,,,,,,,,,,,,,,,,,,,,,,,,,,,,,,,,,,,,,,,,,,,,,,,,
1725717285.888289,1725717285.890498,253.0,0.0,4234.871582,4234.487305,4277.820313,4329.358887,4232.692383,4334.615234,4221.410156,4236.922852,4246.153809,4201.666504,4468.461426,4506.025879,4340.512695,4411.282227,3869.0,0.0,11.0,,,,0.0,4.0,4.0,4.0,4.0,4.0,4.0,4.0,4.0,4.0,4.0,4.0,4.0,4.0,4.0,100.0,,,,,,,,,,,,,,,,,,,,,,,,,,,,,,,,,,,,,,,,,,,,,,,,,,,,,,,,,,,,,,,,,,,,,,,,,,,,,,,,,,,,,,,,,,,,,,,,,,,,,,,,,,,,,,,,,,,,,,,,,,,,,,,,,,,
1725717285.892193,1725717285.894403,254.0,0.0,4234.615234,4235.512695,4277.563965,4328.589844,4232.692383,4335.384766,4221.153809,4243.461426,4249.230957,4206.666504,4473.333496,4509.102539,4342.563965,4411.794922,2885.0,0.0,11.0,,,,0.0,4.0,4.0,4.0,4.0,4.0,4.0,4.0,4.0,4.0,4.0,4.0,4.0,4.0,4.0,100.0,,,,,,,,,,,,,,,,,,,,,,,,,,,,,,,,,,,,,,,,,,,,,,,,,,,,,,,,,,,,,,,,,,,,,,,,,,,,,,,,,,,,,,,,,,,,,,,,,,,,,,,,,,,,,,,,,,,,,,,,,,,,,,,,,,,
1725717285.896097,1725717285.898207,255.0,0.0,4233.974121,4233.461426,4278.461426,4327.820313,4232.692383,4335.897461,4219.230957,4248.333496,4251.666504,4213.077148,4475.128418,4515.512695,4343.205078,4411.410156,11.0,0.0,11.0,,,,0.0,4.0,4.0,4.0,4.0,4.0,4.0,4.0,4.0,4.0,4.0,4.0,4.0,4.0,4.0,100.0,,,,,,,,,,,,,,,,,,,,,,,,,,,,,,,,,,,,,,,,,,,,,,,,,,,,,,,,,,,,,,,,,,,,,,,,,,,,,,,,,,,,,,,,,,,,,,,,,,,,,,,,,,,,,,,,,,,,,,,,,,,,,,,,,,,
1725717285.900001,1725717285.902111,0.0,0.0,4233.461426,4230.512695,4280.0,4327.436035,4232.436035,4336.025879,4217.05127,4249.743652,4252.179688,4216.666504,4472.307617,4523.589844,4341.922852,4411.666504,2697.0,0.0,11.0,,,,0.0,4.0,4.0,4.0,4.0,4.0,4.0,4.0,4.0,4.0,4.0,4.0,4.0,4.0,4.0,100.0,,,,,,,,,,,,,,,,,,,,,,,,,,,,,,,,,,,,,,,,,,,,,,,,,,,,,,,,,,,,,,,,,,,,,,,,,,,,,,,,,,,,,,,,,,,,,,,,,,,,,,,,,,,,,,,,,,,,,,,,,,,,,,,,,,,
1725717285.903905,1725717285.906015,1.0,0.0,4233.333496,4228.846191,4281.153809,4327.692383,4231.922852,4335.256348,4216.794922,4248.846191,4251.410156,4215.641113,4467.436035,4530.384766,4340.256348,4413.974121,2578.0,0.0,11.0,,,,0.0,4.0,4.0,4.0,4.0,4.0,4.0,4.0,4.0,4.0,4.0,4.0,4.0,4.0,4.0,100.0,,,,,,,,,,,,,,,,,,,,,,,,,,,,,,,,,,,,,,,,,,,,,,,,,,,,,,,,,,,,,,,,,,,,,,,,,,,,,,,,,,,,,,,,,,,,,,,,,,,,,,,,,,,,,,,,,,,,,,,,,,,,,,,,,,,
1725717285.907809,1725717285.909919,2.0,0.0,4233.589844,4228.846191,4281.410156,4328.333496,4230.897461,4333.846191,4219.487305,4248.077148,4250.897461,4212.179688,4465.256348,4533.461426,4340.512695,4418.205078,2499.0,0.0,11.0,,,,0.0,4.0,4.0,4.0,4.0,4.0,4.0,4.0,4.0,4.0,4.0,4.0,4.0,4.0,4.0,100.0,,,,,,,,,,,,,,,,,,,,,,,,,,,,,,,,,,,,,,,,,,,,,,,,,,,,,,,,,,,,,,,,,,,,,,,,,,,,,,,,,,,,,,,,,,,,,,,,,,,,,,,,,,,,,,,,,,,,,,,,,,,,,,,,,,,
1725717285.911713,1725717285.913723,3.0,0.0,4233.974121,4229.871582,4280.641113,4328.846191,4229.615234,4332.692383,4224.487305,4248.717773,4251.153809,4210.0,4468.461426,4531.794922,4343.333496,4422.692383,2463.0,0.0,11.0,,,,0.0,4.0,4.0,4.0,4.0,4.0,4.0,4.0,4.0,4.0,4.0,4.0,4.0,4.0,4.0,100.0,,,,,,,,,,,,,,,,,,,,,,,,,,,,,,,,,,,,,,,,,,,,,,,,,,,,,,,,,,,,,,,,,,,,,,,,,,,,,,,,,,,,,,,,,,,,,,,,,,,,,,,,,,,,,,,,,,,,,,,,,,,,,,,,,,,
1725717285.915617,1725717285.917627,4.0,0.0,4233.974121,4230.384766,4279.615234,4328.589844,4228.974121,4332.436035,4229.743652,4250.0,4251.410156,4211.153809,4476.025879,4527.179688,4347.307617,4425.769043,2439.0,0.0,11.0,,,,0.0,4.0,4.0,4.0,4.0,4.0,4.0,4.0,4.0,4.0,4.0,4.0,4.0,4.0,4.0,100.0,,,,,,,,,,,,,,,,,,,,,,,,,,,,,,,,,,,,,,,,,,,,,,,,,,,,,,,,0.0,0.0,1.0,0.0,1024.0,0.01929,,,,,,,,,,,,,,,,,,,,,,,,,,,,,,,,,,,,,,,,,,,,,,,,,,,,,,,,,,,,,,,,,,,,,,
1725717285.919521,1725717285.921531,5.0,0.0,4233.461426,4230.0,4278.974121,4327.307617,4229.230957,4333.333496,4233.077148,4249.743652,4250.641113,4214.615234,4483.717773,4522.436035,4350.384766,4427.05127,2394.0,0.0,11.0,,,,0.0,4.0,4.0,4.0,4.0,4.0,4.0,4.0,4.0,4.0,4.0,4.0,4.0,4.0,4.0,100.0,,,,,,,,,,,,,,,,,,,,,,,,,,,,,,,,,,,,,,,,,,,,,,,,,,,,,,,,,,,,,,,,,,,,,,,,,,,,,,,,,,,,,,,,,,,,,,,,,,,,,,,,,,,,,,,,,,,,,,,,,,,,,,,,,,,
1725717285.923426,1725717285.925535,6.0,0.0,4232.94873,4229.487305,4278.846191,4325.641113,4230.0,4334.615234,4233.461426,4247.820313,4249.487305,4217.692383,4488.205078,4520.512695,4351.282227,4427.436035,2429.0,0.0,11.0,,,,0.0,4.0,4.0,4.0,4.0,4.0,4.0,4.0,4.0,4.0,4.0,4.0,4.0,4.0,4.0,100.0,,,,,,,,,,,,,,,,,,,,,,,,,,,,,,,,,,,,,,,,,,,,,,,,,,,,,,,,,,,,,,,,,,,,,,,,,,,,,,,,,,,,,,,,,,,,,,,,,,,,,,,,,,,,,,,,,,,,,,,,,,,,,,,,,,,
1725717285.92733,1725717285.92944,7.0,0.0,4232.692383,4229.615234,4278.974121,4324.615234,4230.769043,4335.384766,4231.794922,4246.538574,4249.615234,4218.205078,4488.846191,4522.179688,4350.641113,4427.436035,2506.0,0.0,11.0,,,,0.0,4.0,4.0,4.0,4.0,4.0,4.0,4.0,4.0,4.0,4.0,4.0,4.0,4.0,4.0,100.0,,,,,,,,,,,,,,,,,,,,,,,,,,,,,,,,,,,,,,,,,,,,,,,,,,,,,,,,,,,,,,,,,,,,,,,,,,,,,,,,,,,,,,,,,,,,,,,,,,,,,,,,,,,,,,,,,,,,,,,,,,,,,,,,,,,
1725717285.931234,1725717285.933344,8.0,0.0,4233.077148,4230.0,4278.717773,4324.871582,4231.025879,4334.871582,4230.0,4248.974121,4252.436035,4216.666504,4487.820313,4525.512695,4350.384766,4427.436035,2468.0,0.0,11.0,,,,0.0,4.0,4.0,4.0,4.0,4.0,4.0,4.0,4.0,4.0,4.0,4.0,4.0,4.0,4.0,100.0,,,,,,,,,,,,,,,,,,,,,,,,,,,,,,,,,,,,,,,,,,,,,,,,,,,,,,,,,,,,,,,,,,,,,,,,,,,,,,,,,,,,,,,,,,,,,,,,,,,,,,,,,,,,,,,,,,,,,,,,,,,,,,,,,,,
1725717285.935138,1725717285.937248,9.0,0.0,4234.102539,4229.871582,4278.461426,4325.897461,4231.025879,4333.589844,4229.615234,4254.743652,4257.94873,4215.641113,4487.692383,4527.820313,4352.179688,4426.794922,2555.0,0.0,11.0,,,,0.0,4.0,4.0,4.0,4.0,4.0,4.0,4.0,4.0,4.0,4.0,4.0,4.0,4.0,4.0,100.0,,,,,,,,,,,,,,,,,,,,,,,,,,,,,,,,,,,,,,,,,,,,,,,,,,,,,,,,,,,,,,,,,,,,,,,,,,,,,,,,,,,,,,,,,,,,,,,,,,,,,,,,,,,,,,,,,,,,,,,,,,,,,,,,,,,
1725717285.939042,1725717285.941252,10.0,0.0,4235.0,4228.717773,4278.846191,4326.666504,4230.769043,4332.692383,4230.512695,4260.641113,4263.846191,4216.153809,4488.717773,4527.563965,4355.641113,4424.487305,2895.0,0.0,11.0,,,,0.0,4.0,4.0,4.0,4.0,4.0,4.0,4.0,4.0,4.0,4.0,4.0,4.0,4.0,4.0,100.0,,,,,,,,,,,,,,,,,,,,,,,,,,,,,,,,,,,,,,,,,,,,,,,,,,,,,,,,,,,,,,,,,,,,,,,,,,,,,,,,,,,,,,,,,,,,,,,,,,,,,,,,,,,,,,,,,,,,,,,,,,,,,,,,,,,
1725717285.942946,1725717285.945156,11.0,0.0,4235.641113,4227.436035,4279.615234,4325.641113,4230.641113,4333.589844,4232.436035,4262.307617,4267.692383,4218.205078,4489.230957,4524.743652,4359.230957,4420.256348,3129.0,0.0,11.0,,,,0.0,4.0,4.0,4.0,4.0,4.0,4.0,4.0,4.0,4.0,4.0,4.0,4.0,4.0,4.0,100.0,,,,,,,,,,,,,,,,,,,,,,,,,,,,,,,,,,,,,,,,,,,,,,,,,,,,,,,,,,,,,,,,,,,,,,,,,,,,,,,,,,,,,,,,,,,,,,,,,,,,,,,,,,,,,,,,,,,,,,,,,,,,,,,,,,,
1725717285.94685,1725717285.94906,12.0,0.0,4235.641113,4227.563965,4279.487305,4322.94873,4230.769043,4336.666504,4233.846191,4258.589844,4268.333496,4219.743652,4487.820313,4521.153809,4361.282227,4415.384766,3460.0,0.0,11.0,,,,0.0,4.0,4.0,4.0,4.0,4.0,4.0,4.0,4.0,4.0,4.0,4.0,4.0,4.0,4.0,100.0,,,,,,,,,,,,,,,,,,,,,,,,,,,,,,,,,,,,,,,,,,,,,,,,,,,,,,,,0.0,0.0,1.0,0.0,1024.0,0.01929,,,,,,,,,,,,,,,,,,,,,,,,,,,,,,,,,,,,,,,,,,,,,,,,,,,,,,,,,,,,,,,,,,,,,,
1725717285.950754,1725717285.952964,13.0,0.0,4235.0,4229.487305,4276.922852,4319.871582,4230.897461,4340.769043,4234.358887,4252.436035,4266.538574,4220.0,4485.128418,4518.717773,4360.897461,4412.05127,3874.0,0.0,11.0,,,,0.0,4.0,4.0,4.0,4.0,4.0,4.0,4.0,4.0,4.0,4.0,4.0,4.0,4.0,4.0,100.0,,,,,,,,,,,,,,,,,,,,,,,,,,,,,,,,,,,,,,,,,,,,,,,,,,,,,,,,,,,,,,,,,,,,,,,,,,,,,,,,,,,,,,,,,,,,,,,,,,,,,,,,,,,,,,,,,,,,,,,,,,,,,,,,,,,
1725717285.954658,1725717285.956768,14.0,0.0,4233.974121,4232.05127,4272.436035,4317.94873,4230.641113,4343.846191,4233.717773,4248.846191,4264.871582,4219.487305,4482.820313,4519.102539,4359.358887,4412.307617,2895.0,0.0,11.0,,,,0.0,4.0,4.0,4.0,4.0,4.0,4.0,4.0,4.0,4.0,4.0,4.0,4.0,4.0,4.0,100.0,,,,,,,,,,,,,,,,,,,,,,,,,,,,,,,,,,,,,,,,,,,,,,,,,,,,,,,,,,,,,,,,,,,,,,,,,,,,,,,,,,,,,,,,,,,,,,,,,,,,,,,,,,,,,,,,,,,,,,,,,,,,,,,,,,,
1725717285.958562,1725717285.960672,15.0,0.0,4232.820313,4233.717773,4268.974121,4318.077148,4230.128418,4344.358887,4232.94873,4251.538574,4265.0,4219.487305,4482.820313,4522.436035,4358.205078,4416.410156,3129.0,0.0,11.0,,,,0.0,4.0,4.0,4.0,4.0,4.0,4.0,4.0,4.0,4.0,4.0,4.0,4.0,4.0,4.0,100.0,,,,,,,,,,,,,,,,,,,,,,,,,,,,,,,,,,,,,,,,,,,,,,,,,,,,,,,,,,,,,,,,,,,,,,,,,,,,,,,,,,,,,,,,,,,,,,,,,,,,,,,,,,,,,,,,,,,,,,,,,,,,,,,,,,,
1725717285.962467,1725717285.964577,16.0,0.0,4232.05127,4232.94873,4268.974121,4319.358887,4229.743652,4342.692383,4233.333496,4259.358887,4267.05127,4220.128418,4485.256348,4527.563965,4358.589844,4421.922852,3460.0,0.0,11.0,,,,0.0,4.0,4.0,4.0,4.0,4.0,4.0,4.0,4.0,4.0,4.0,4.0,4.0,4.0,4.0,100.0,,,,,,,,,,,,,,,,,,,,,,,,,,,,,,,,,,,,,,,,,,,,,,,,,,,,,,,,,,,,,,,,,,,,,,,,,,,,,,,,,,,,,,,,,,,,,,,,,,,,,,,,,,,,,,,,,,,,,,,,,,,,,,,,,,,
1725717285.966371,1725717285.968581,17.0,0.0,4231.922852,4230.0,4272.179688,4320.256348,4229.743652,4340.512695,4235.384766,4267.05127,4269.230957,4220.512695,4488.974121,4532.179688,4359.871582,4425.384766,3874.0,0.0,11.0,,,,0.0,4.0,4.0,4.0,4.0,4.0,4.0,4.0,4.0,4.0,4.0,4.0,4.0,4.0,4.0,100.0,,,,,,,,,,,,,,,,,,,,,,,,,,,,,,,,,,,,,,,,,,,,,,,,,,,,,,,,,,,,,,,,,,,,,,,,,,,,,,,,,,,,,,,,,,,,,,,,,,,,,,,,,,,,,,,,,,,,,,,,,,,,,,,,,,,
1725717285.970275,1725717285.972485,18.0,0.0,4232.307617,4226.410156,4275.769043,4320.128418,4229.743652,4340.0,4238.974121,4269.615234,4269.487305,4219.487305,4492.436035,4533.974121,4361.025879,4425.128418,2895.0,0.0,11.0,,,,0.0,4.0,4.0,4.0,4.0,4.0,4.0,4.0,4.0,4.0,4.0,4.0,4.0,4.0,4.0,100.0,,,,,,,,,,,,,,,,,,,,,,,,,,,,,,,,,,,,,,,,,,,,,,,,,,,,,,,,,,,,,,,,,,,,,,,,,,,,,,,,,,,,,,,,,,,,,,,,,,,,,,,,,,,,,,,,,,,,,,,,,,,,,,,,,,,
1725717285.974179,1725717285.976389,19.0,0.0,4232.692383,4224.615234,4276.666504,4319.358887,4229.358887,4341.538574,4243.077148,4266.282227,4267.820313,4218.205078,4494.358887,4532.563965,4361.282227,4422.179688,3129.0,0.0,11.0,,,,0.0,4.0,4.0,4.0,4.0,4.0,4.0,4.0,4.0,4.0,4.0,4.0,4.0,4.0,4.0,100.0,,,,,,,,,,,,,,,,,,,,,,,,,,,,,,,,,,,,,,,,,,,,,,,,,,,,,,,,,,,,,,,,,,,,,,,,,,,,,,,,,,,,,,,,,,,,,,,,,,,,,,,,,,,,,,,,,,,,,,,,,,,,,,,,,,,
1725717285.978083,1725717285.980293,20.0,0.0,4232.563965,4226.153809,4274.230957,4318.974121,4228.974121,4343.846191,4246.282227,4260.512695,4265.384766,4218.589844,4493.205078,4528.974121,4360.897461,4419.102539,3460.0,0.0,11.0,,,,0.0,4.0,4.0,4.0,4.0,4.0,4.0,4.0,4.0,4.0,4.0,4.0,4.0,4.0,4.0,100.0,,,,,,,,,,,,,,,,,1.0,0.0,0.0,,,,,,,,,,,,,,,,,,,,,,,,,,,,,,,,,,,,,0.0,0.0,1.0,0.0,1024.0,0.048451,3.105199,1.423192,0.527074,0.230348,0.078214,6.247419,4.20329,1.014285,0.369422,0.172795,2.541122,1.559171,0.972534,0.313499,0.053891,2.943708,1.249337,0.781744,0.153122,0.10952,1.779965,0.632782,0.438276,0.141044,0.079909,0.176349,0.097477,0.130086,0.067979,0.034188,1.160334,0.2709,0.53128,0.172235,0.055789,1.202062,0.901024,1.207471,0.142653,0.174043,1.942096,0.922683,0.48373,0.231428,0.138214,2.953707,1.315194,0.707317,0.308287,0.150964,3.649893,2.177638,1.986774,0.776733,0.450967,5.313592,2.556121,1.518021,0.505288,0.153997,4.017285,1.995575,1.93256,0.497944,0.159211,3.792259,2.438363,1.59649,0.371793,0.112359
1725717285.981987,1725717285.984197,21.0,0.0,4232.05127,4229.871582,4270.512695,4319.743652,4229.487305,4345.128418,4247.94873,4257.436035,4264.230957,4221.538574,4488.717773,4525.897461,4360.769043,4418.205078,3874.0,0.0,11.0,,,,0.0,4.0,4.0,4.0,4.0,4.0,4.0,4.0,4.0,4.0,4.0,4.0,4.0,4.0,4.0,100.0,,,,,,,,,,,,,,,,,,,,,,,,,,,,,,,,,,,,,,,,,,,,,,,,,,,,,,,,,,,,,,,,,,,,,,,,,,,,,,,,,,,,,,,,,,,,,,,,,,,,,,,,,,,,,,,,,,,,,,,,,,,,,,,,,,,
1725717285.985891,1725717285.988001,22.0,0.0,4231.153809,4232.820313,4268.717773,4321.282227,4230.641113,4344.487305,4248.205078,4259.102539,4264.743652,4225.256348,4482.05127,4525.641113,4360.897461,4419.487305,2895.0,0.0,11.0,,,,0.0,4.0,4.0,4.0,4.0,4.0,4.0,4.0,4.0,4.0,4.0,4.0,4.0,4.0,4.0,100.0,,,,,,,,,,,,,,,,,,,,,,,,,,,,,,,,,,,,,,,,,,,,,,,,,,,,,,,,,,,,,,,,,,,,,,,,,,,,,,,,,,,,,,,,,,,,,,,,,,,,,,,,,,,,,,,,,,,,,,,,,,,,,,,,,,,
1725717285.989795,1725717285.991905,23.0,0.0,4229.871582,4232.307617,4270.128418,4322.05127,4231.282227,4342.563965,4248.077148,4263.717773,4266.666504,4226.922852,4476.025879,4528.077148,4361.410156,4421.538574,3129.0,0.0,11.0,,,,0.0,4.0,4.0,4.0,4.0,4.0,4.0,4.0,4.0,4.0,4.0,4.0,4.0,4.0,4.0,100.0,,,,,,,,,,,,,,,,,,,,,,,,,,,,,,,,,,,,,,,,,,,,,,,,,,,,,,,,,,,,,,,,,,,,,,,,,,,,,,,,,,,,,,,,,,,,,,,,,,,,,,,,,,,,,,,,,,,,,,,,,,,,,,,,,,,
1725717285.993699,1725717285.995809,24.0,0.0,4228.589844,4228.461426,4273.077148,4320.897461,4230.128418,4341.025879,4247.820313,4267.307617,4268.461426,4225.641113,4473.974121,4530.897461,4361.153809,4422.179688,3460.0,0.0,11.0,,,,0.0,4.0,4.0,4.0,4.0,4.0,4.0,4.0,4.0,4.0,4.0,4.0,4.0,4.0,4.0,100.0,,,,,,,,,,,,,,,,,,,,,,,,,,,,,,,,,,,,,,,,,,,,,,,,,,,,,,,,,,,,,,,,,,,,,,,,,,,,,,,,,,,,,,,,,,,,,,,,,,,,,,,,,,,,,,,,,,,,,,,,,,,,,,,,,,,
1725717285.997604,1725717285.999713,25.0,0.0,4227.436035,4223.077148,4273.846191,4317.94873,4227.307617,4341.282227,4247.307617,4267.436035,4268.846191,4222.436035,4476.410156,4531.282227,4359.487305,4420.256348,3874.0,0.0,11.0,,,,0.0,4.0,4.0,4.0,4.0,4.0,4.0,4.0,4.0,4.0,4.0,4.0,4.0,4.0,4.0,100.0,,,,,,,,,,,,,,,,,,,,,,,,,,,,,,,,,,,,,,,,,,,,,,,,,,,,,,,,,,,,,,,,,,,,,,,,,,,,,,,,,,,,,,,,,,,,,,,,,,,,,,,,,,,,,,,,,,,,,,,,,,,,,,,,,,,
1725717286.001508,1725717286.003518,26.0,0.0,4226.153809,4218.461426,4269.871582,4314.102539,4223.589844,4342.436035,4245.256348,4263.846191,4267.05127,4219.487305,4480.897461,4526.922852,4356.025879,4415.769043,2895.0,0.0,11.0,,,,0.0,4.0,4.0,4.0,4.0,4.0,4.0,4.0,4.0,4.0,4.0,4.0,4.0,4.0,4.0,100.0,,,,,,,,,,,,,,,,,,,,,,,,,,,,,,,,,,,,,,,,,,,,,,,,,,,,,,,,,,,,,,,,,,,,,,,,,,,,,,,,,,,,,,,,,,,,,,,,,,,,,,,,,,,,,,,,,,,,,,,,,,,,,,,,,,,
1725717286.005412,1725717286.007422,27.0,0.0,4223.589844,4215.641113,4262.05127,4309.871582,4220.256348,4343.077148,4241.794922,4258.333496,4263.461426,4217.436035,4482.563965,4518.333496,4351.410156,4409.487305,3129.0,0.0,11.0,,,,0.0,4.0,4.0,4.0,4.0,4.0,4.0,4.0,4.0,4.0,4.0,4.0,4.0,4.0,4.0,100.0,,,,,,,,,,,,,,,,,,,,,,,,,,,,,,,,,,,,,,,,,,,,,,,,,,,,,,,,,,,,,,,,,,,,,,,,,,,,,,,,,,,,,,,,,,,,,,,,,,,,,,,,,,,,,,,,,,,,,,,,,,,,,,,,,,,
1725717286.009316,1725717286.011326,28.0,0.0,4218.974121,4213.717773,4253.589844,4305.128418,4217.436035,4342.307617,4237.820313,4252.94873,4258.846191,4215.256348,4477.94873,4508.461426,4345.512695,4402.692383,3460.0,0.0,11.0,,,,0.0,4.0,4.0,4.0,4.0,4.0,4.0,4.0,4.0,4.0,4.0,4.0,4.0,4.0,4.0,100.0,,,,,,,,,,,,,,,,,,,,,,,,,,,,,,,,,,,,,,,,,,,,,,,,,,,,,,,,0.0,0.0,1.0,0.0,1024.0,0.048451,,,,,,,,,,,,,,,,,,,,,,,,,,,,,,,,,,,,,,,,,,,,,,,,,,,,,,,,,,,,,,,,,,,,,,
1725717286.01322,1725717286.01523,29.0,0.0,4212.436035,4211.025879,4247.563965,4298.974121,4214.487305,4340.512695,4234.615234,4249.358887,4253.846191,4210.897461,4466.922852,4500.769043,4337.692383,4396.153809,3874.0,0.0,11.0,,,,0.0,4.0,4.0,4.0,4.0,4.0,4.0,4.0,4.0,4.0,4.0,4.0,4.0,4.0,4.0,100.0,,,,,,,,,,,,,,,,,,,,,,,,,,,,,,,,,,,,,,,,,,,,,,,,,,,,,,,,,,,,,,,,,,,,,,,,,,,,,,,,,,,,,,,,,,,,,,,,,,,,,,,,,,,,,,,,,,,,,,,,,,,,,,,,,,,
1725717286.017124,1725717286.019034,30.0,0.0,4205.512695,4206.025879,4244.358887,4291.282227,4210.769043,4338.974121,4232.436035,4248.077148,4248.333496,4202.692383,4453.974121,4496.153809,4327.563965,4389.743652,2895.0,0.0,11.0,,,,0.0,4.0,4.0,4.0,4.0,4.0,4.0,4.0,4.0,4.0,4.0,4.0,4.0,4.0,4.0,100.0,,,,,,,,,,,,,,,,,,,,,,,,,,,,,,,,,,,,,,,,,,,,,,,,,,,,,,,,,,,,,,,,,,,,,,,,,,,,,,,,,,,,,,,,,,,,,,,,,,,,,,,,,,,,,,,,,,,,,,,,,,,,,,,,,,,
1725717286.021028,1725717286.022938,31.0,0.0,4200.256348,4198.461426,4241.666504,4283.461426,4206.025879,4339.102539,4231.282227,4248.589844,4242.436035,4191.794922,4444.102539,4492.820313,4315.512695,4383.461426,3129.0,0.0,11.0,,,,0.0,4.0,4.0,4.0,4.0,4.0,4.0,4.0,4.0,4.0,4.0,4.0,4.0,4.0,4.0,100.0,,,,,,,,,,,,,,,,,,,,,,,,,,,,,,,,,,,,,,,,,,,,,,,,,,,,,,,,,,,,,,,,,,,,,,,,,,,,,,,,,,,,,,,,,,,,,,,,,,,,,,,,,,,,,,,,,,,,,,,,,,,,,,,,,,,
1725717286.024932,1725717286.026842,32.0,0.0,4197.307617,4189.871582,4237.307617,4277.692383,4201.282227,4340.512695,4230.512695,4249.615234,4236.794922,4181.282227,4438.974121,4488.077148,4303.589844,4377.436035,0.0,0.0,11.0,,,,0.0,4.0,4.0,4.0,4.0,4.0,4.0,4.0,4.0,4.0,4.0,4.0,4.0,4.0,4.0,100.0,,,,,,,,,,,,,,,,,,,,,,,,,,,,,,,,,,,,,,,,,,,,,,,,,,,,,,,,,,,,,,,,,,,,,,,,,,,,,,,,,,,,,,,,,,,,,,,,,,,,,,,,,,,,,,,,,,,,,,,,,,,,,,,,,,,
1725717286.028836,1725717286.030647,33.0,0.0,4195.769043,4182.820313,4231.922852,4275.512695,4197.94873,4341.922852,4230.256348,4249.102539,4232.820313,4175.0,4436.794922,4481.538574,4294.743652,4372.436035,0.0,0.0,11.0,,,,0.0,4.0,4.0,4.0,4.0,4.0,4.0,4.0,4.0,4.0,4.0,4.0,4.0,4.0,4.0,100.0,,,,,,,,,,,,,,,,,,,,,,,,,,,,,,,,,,,,,,,,,,,,,,,,,,,,,,,,,,,,,,,,,,,,,,,,,,,,,,,,,,,,,,,,,,,,,,,,,,,,,,,,,,,,,,,,,,,,,,,,,,,,,,,,,,,
1725717286.03274,1725717286.034551,34.0,0.0,4194.487305,4179.487305,4228.077148,4276.410156,4197.563965,4342.05127,4230.897461,4247.05127,4231.794922,4175.0,4435.128418,4475.384766,4291.410156,4369.230957,0.0,0.0,11.0,,,,0.0,4.0,4.0,4.0,4.0,4.0,4.0,4.0,4.0,4.0,4.0,4.0,4.0,4.0,4.0,100.0,,,,,,,,,,,,,,,,,,,,,,,,,,,,,,,,,,,,,,,,,,,,,,,,,,,,,,,,,,,,,,,,,,,,,,,,,,,,,,,,,,,,,,,,,,,,,,,,,,,,,,,,,,,,,,,,,,,,,,,,,,,,,,,,,,,
1725717286.036645,1725717286.038455,35.0,0.0,4194.230957,4181.410156,4228.717773,4279.871582,4200.128418,4341.153809,4233.461426,4245.641113,4235.0,4180.641113,4434.358887,4473.589844,4294.615234,4369.358887,0.0,0.0,11.0,,,,0.0,4.0,4.0,4.0,4.0,4.0,4.0,4.0,4.0,4.0,4.0,4.0,4.0,4.0,4.0,100.0,,,,,,,,,,,,,,,,,,,,,,,,,,,,,,,,,,,,,,,,,,,,,,,,,,,,,,,,,,,,,,,,,,,,,,,,,,,,,,,,,,,,,,,,,,,,,,,,,,,,,,,,,,,,,,,,,,,,,,,,,,,,,,,,,,,
1725717286.040549,1725717286.042459,36.0,0.0,4196.922852,4188.077148,4234.487305,4285.384766,4204.615234,4340.897461,4238.205078,4247.436035,4242.563965,4190.128418,4438.205078,4479.102539,4303.974121,4374.230957,0.0,0.0,11.0,,,,0.0,4.0,4.0,4.0,4.0,4.0,4.0,4.0,4.0,4.0,4.0,4.0,4.0,4.0,4.0,100.0,,,,,,,,,,,,,,,,,,,,,,,,,,,,,,,,,,,,,,,,,,,,,,,,,,,,,,,,0.0,0.0,1.0,0.0,1024.0,0.048451,,,,,,,,,,,,,,,,,,,,,,,,,,,,,,,,,,,,,,,,,,,,,,,,,,,,,,,,,,,,,,,,,,,,,,
1725717286.044453,1725717286.046363,37.0,0.0,4203.717773,4197.563965,4243.589844,4292.692383,4209.102539,4343.077148,4244.743652,4253.333496,4253.077148,4201.025879,4449.102539,4492.05127,4318.077148,4384.230957,0.0,0.0,11.0,,,,0.0,4.0,4.0,4.0,4.0,4.0,4.0,4.0,4.0,4.0,4.0,4.0,4.0,4.0,4.0,100.0,,,,,,,,,,,,,,,,,,,,,,,,,,,,,,,,,,,,,,,,,,,,,,,,,,,,,,,,,,,,,,,,,,,,,,,,,,,,,,,,,,,,,,,,,,,,,,,,,,,,,,,,,,,,,,,,,,,,,,,,,,,,,,,,,,,
1725717286.048357,1725717286.050267,38.0,0.0,4213.717773,4207.563965,4253.205078,4301.153809,4212.820313,4347.820313,4251.538574,4262.05127,4263.717773,4212.307617,4465.897461,4509.358887,4334.102539,4398.077148,0.0,0.0,11.0,,,,0.0,4.0,4.0,4.0,4.0,4.0,4.0,4.0,4.0,4.0,4.0,4.0,4.0,4.0,4.0,100.0,,,,,,,,,,,,,,,,,,,,,,,,,,,,,,,,,,,,,,,,,,,,,,,,,,,,,,,,,,,,,,,,,,,,,,,,,,,,,,,,,,,,,,,,,,,,,,,,,,,,,,,,,,,,,,,,,,,,,,,,,,,,,,,,,,,
1725717286.052261,1725717286.054171,39.0,0.0,4224.230957,4216.282227,4261.282227,4309.487305,4215.897461,4353.974121,4257.179688,4270.0,4271.282227,4222.692383,4483.077148,4525.769043,4348.846191,4412.563965,0.0,0.0,11.0,,,,0.0,4.0,4.0,4.0,4.0,4.0,4.0,4.0,4.0,4.0,4.0,4.0,4.0,4.0,4.0,100.0,,,,,,,,,,,,,,,,,,,,,,,,,,,,,,,,,,,,,,,,,,,,,,,,,,,,,,,,,,,,,,,,,,,,,,,,,,,,,,,,,,,,,,,,,,,,,,,,,,,,,,,,,,,,,,,,,,,,,,,,,,,,,,,,,,,
1725717286.056165,1725717286.058075,40.0,0.0,4232.436035,4222.820313,4266.666504,4316.410156,4219.358887,4358.974121,4260.897461,4274.230957,4273.846191,4230.512695,4494.743652,4536.922852,4360.0,4424.358887,0.0,0.0,11.0,,,,0.0,4.0,4.0,4.0,4.0,4.0,4.0,4.0,4.0,4.0,4.0,4.0,4.0,4.0,4.0,100.0,,,,,,,,,,,,,,,,,,,,,,,,,,,,,,,,,,,,,,,,,,,,,,,,,,,,,,,,,,,,,,,,,,,,,,,,,,,,,,,,,,,,,,,,,,,,,,,,,,,,,,,,,,,,,,,,,,,,,,,,,,,,,,,,,,,
1725717286.060069,1725717286.061879,41.0,0.0,4237.179688,4227.307617,4270.0,4320.769043,4223.461426,4361.410156,4263.205078,4273.461426,4272.05127,4233.717773,4498.205078,4541.538574,4366.410156,4431.153809,0.0,0.0,11.0,,,,0.0,4.0,4.0,4.0,4.0,4.0,4.0,4.0,4.0,4.0,4.0,4.0,4.0,4.0,4.0,100.0,,,,,,,,,,,,,,,,,,,,,,,,,,,,,,,,,,,,,,,,,,,,,,,,,,,,,,,,,,,,,,,,,,,,,,,,,,,,,,,,,,,,,,,,,,,,,,,,,,,,,,,,,,,,,,,,,,,,,,,,,,,,,,,,,,,
1725717286.063973,1725717286.065784,42.0,0.0,4239.230957,4230.384766,4272.563965,4322.563965,4226.666504,4361.025879,4265.128418,4269.230957,4268.205078,4232.692383,4495.897461,4541.666504,4368.589844,4432.94873,0.0,0.0,11.0,,,,0.0,4.0,4.0,4.0,4.0,4.0,4.0,4.0,4.0,4.0,4.0,4.0,4.0,4.0,4.0,100.0,,,,,,,,,,,,,,,,,,,,,,,,,,,,,,,,,,,,,,,,,,,,,,,,,,,,,,,,,,,,,,,,,,,,,,,,,,,,,,,,,,,,,,,,,,,,,,,,,,,,,,,,,,,,,,,,,,,,,,,,,,,,,,,,,,,
1725717286.067877,1725717286.069688,43.0,0.0,4240.512695,4232.692383,4275.769043,4322.692383,4227.94873,4359.230957,4267.563965,4264.743652,4265.256348,4230.128418,4492.436035,4540.384766,4368.077148,4431.794922,0.0,0.0,11.0,,,,0.0,4.0,4.0,4.0,4.0,4.0,4.0,4.0,4.0,4.0,4.0,4.0,4.0,4.0,4.0,100.0,,,,,,,,,,,,,,,,,,,,,,,,,,,,,,,,,,,,,,,,,,,,,,,,,,,,,,,,,,,,,,,,,,,,,,,,,,,,,,,,,,,,,,,,,,,,,,,,,,,,,,,,,,,,,,,,,,,,,,,,,,,,,,,,,,,
1725717286.071781,1725717286.073692,44.0,0.0,4242.307617,4234.615234,4279.230957,4321.922852,4227.307617,4357.692383,4270.384766,4262.05127,4264.487305,4228.846191,4491.282227,4539.487305,4366.538574,4430.769043,0.0,0.0,11.0,,,,0.0,4.0,4.0,4.0,4.0,4.0,4.0,4.0,4.0,4.0,4.0,4.0,4.0,4.0,4.0,100.0,,,,,,,,,,,,,,,,,,,,,,,,,,,,,,,,,,,,,,,,,,,,,,,,,,,,,,,,0.0,0.0,1.0,0.0,1024.0,0.048451,,,,,,,,,,,,,,,,,,,,,,,,,,,,,,,,,,,,,,,,,,,,,,,,,,,,,,,,,,,,,,,,,,,,,,
1725717286.075685,1725717286.077596,45.0,0.0,4243.974121,4235.641113,4281.922852,4321.153809,4226.410156,4357.05127,4273.461426,4261.922852,4265.0,4229.743652,4492.307617,4539.615234,4365.384766,4431.025879,0.0,0.0,11.0,,,,0.0,4.0,4.0,4.0,4.0,4.0,4.0,4.0,4.0,4.0,4.0,4.0,4.0,4.0,4.0,100.0,,,,,,,,,,,,,,,,,,,,,,,,,,,,,,,,,,,,,,,,,,,,,,,,,,,,,,,,,,,,,,,,,,,,,,,,,,,,,,,,,,,,,,,,,,,,,,,,,,,,,,,,,,,,,,,,,,,,,,,,,,,,,,,,,,,
1725717286.079589,1725717286.0815,46.0,0.0,4243.974121,4235.897461,4282.94873,4320.769043,4226.794922,4357.05127,4276.025879,4263.205078,4265.512695,4231.025879,4493.974121,4539.615234,4365.256348,4432.307617,0.0,0.0,11.0,,,,0.0,4.0,4.0,4.0,4.0,4.0,4.0,4.0,4.0,4.0,4.0,4.0,4.0,4.0,4.0,100.0,,,,,,,,,,,,,,,,,,,,,,,,,,,,,,,,,,,,,,,,,,,,,,,,,,,,,,,,,,,,,,,,,,,,,,,,,,,,,,,,,,,,,,,,,,,,,,,,,,,,,,,,,,,,,,,,,,,,,,,,,,,,,,,,,,,
1725717286.083494,1725717286.085404,47.0,0.0,4242.05127,4235.769043,4282.436035,4321.153809,4228.333496,4356.666504,4277.563965,4264.615234,4265.512695,4230.512695,4494.743652,4539.358887,4365.897461,4433.077148,0.0,0.0,11.0,,,,0.0,4.0,4.0,4.0,4.0,4.0,4.0,4.0,4.0,4.0,4.0,4.0,4.0,4.0,4.0,100.0,,,,,,,,,,,,,,,,,,,,,,,,,,,,,,,,,,,,,,,,,,,,,,,,,,,,,,,,,,,,,,,,,,,,,,,,,,,,,,,,,,,,,,,,,,,,,,,,,,,,,,,,,,,,,,,,,,,,,,,,,,,,,,,,,,,
1725717286.087398,1725717286.089308,48.0,0.0,4239.615234,4235.769043,4281.282227,4322.436035,4229.871582,4355.641113,4278.077148,4265.512695,4265.128418,4227.436035,4495.0,4539.102539,4366.666504,4432.692383,0.0,0.0,11.0,,,,0.0,4.0,4.0,4.0,4.0,4.0,4.0,4.0,4.0,4.0,4.0,4.0,4.0,4.0,4.0,100.0,,,,,,,,,,,,,,,,,,,,,,,,,,,,,,,,,,,,,,,,,,,,,,,,,,,,,,,,,,,,,,,,,,,,,,,,,,,,,,,,,,,,,,,,,,,,,,,,,,,,,,,,,,,,,,,,,,,,,,,,,,,,,,,,,,,
1725717286.091302,1725717286.093112,49.0,0.0,4238.589844,4235.897461,4280.512695,4323.974121,4230.512695,4354.102539,4277.94873,4265.256348,4264.871582,4222.692383,4494.615234,4538.717773,4366.794922,4431.282227,0.0,0.0,11.0,,,,0.0,4.0,4.0,4.0,4.0,4.0,4.0,4.0,4.0,4.0,4.0,4.0,4.0,4.0,4.0,100.0,,,,,,,,,,,,,,,,,,,,,,,,,,,,,,,,,,,,,,,,,,,,,,,,,,,,,,,,,,,,,,,,,,,,,,,,,,,,,,,,,,,,,,,,,,,,,,,,,,,,,,,,,,,,,,,,,,,,,,,,,,,,,,,,,,,
1725717286.095206,1725717286.097016,50.0,0.0,4240.256348,4235.512695,4280.256348,4324.871582,4229.615234,4353.077148,4277.820313,4263.974121,4264.871582,4218.461426,4492.94873,4538.333496,4366.410156,4429.743652,0.0,0.0,11.0,,,,0.0,4.0,4.0,4.0,4.0,4.0,4.0,4.0,4.0,4.0,4.0,4.0,4.0,4.0,4.0,100.0,,,,,,,,,,,,,,,,,,,,,,,,,,,,,,,,,,,,,,,,,,,,,,,,,,,,,,,,,,,,,,,,,,,,,,,,,,,,,,,,,,,,,,,,,,,,,,,,,,,,,,,,,,,,,,,,,,,,,,,,,,,,,,,,,,,
1725717286.09911,1725717286.10092,51.0,0.0,4243.589844,4234.102539,4280.256348,4324.487305,4228.077148,4353.205078,4278.205078,4262.94873,4265.0,4216.794922,4489.487305,4538.077148,4365.769043,4428.974121,0.0,0.0,11.0,,,,0.0,4.0,4.0,4.0,4.0,4.0,4.0,4.0,4.0,4.0,4.0,4.0,4.0,4.0,4.0,100.0,,,,,,,,,,,,,,,,,,,,,,,,,,,,,,,,,,,,,,,,,,,,,,,,,,,,,,,,,,,,,,,,,,,,,,,,,,,,,,,,,,,,,,,,,,,,,,,,,,,,,,,,,,,,,,,,,,,,,,,,,,,,,,,,,,,
1725717286.103014,1725717286.104825,52.0,0.0,4246.538574,4232.179688,4280.641113,4323.333496,4226.922852,4354.743652,4279.487305,4263.077148,4264.743652,4217.563965,4485.256348,4538.205078,4365.0,4429.358887,0.0,0.0,11.0,,,,0.0,4.0,4.0,4.0,4.0,4.0,4.0,4.0,4.0,4.0,4.0,4.0,4.0,4.0,4.0,100.0,1.0,66.666664,4.0,4.0,4.0,4.0,4.0,3.0,1.0,4.0,4.0,4.0,4.0,4.0,4.0,4.0,1.0,0.0,0.0,1.0,0.627494,-7.806204,-12.232497,-4.389871,1.0,0.628959,-0.422251,-1.040057,0.043173,1.0,0.420543,3.875626,2.180205,6.21044,0.531453,1.0,0.407544,17.590775,-769.998062,1082.389166,1.0,0.242319,0.115577,0.081181,0.235691,1.0,0.469522,2.73261,-11.967731,19.220513,1.0,0.579229,0.579229,0.0,1.0,0.0,0.0,1.0,0.0,1024.0,0.03253,3.068605,1.335891,0.487917,0.22033,0.069876,7.352512,4.957947,1.255339,0.451318,0.203961,2.482783,1.455694,0.92899,0.30385,0.053357,2.717403,1.186786,0.689945,0.141593,0.102713,1.958705,0.653386,0.430788,0.124778,0.073712,0.18547,0.092151,0.141165,0.065408,0.033032,1.173551,0.351913,0.57816,0.183791,0.060783,1.380066,0.877608,1.376151,0.152386,0.174129,2.424539,0.880747,0.515759,0.217633,0.124177,3.335162,1.254647,0.682495,0.293726,0.15476,4.200431,2.058205,2.004827,0.772787,0.453817,5.95338,2.537119,1.431899,0.478305,0.144748,4.323067,1.846463,1.857002,0.49344,0.167685,4.178361,2.328833,1.567874,0.361264,0.116305
1725717286.106918,1725717286.108629,53.0,0.0,4247.563965,4230.769043,4281.153809,4322.563965,4227.307617,4357.179688,4281.282227,4264.230957,4263.717773,4218.846191,4482.94873,4538.717773,4364.487305,4430.512695,0.0,0.0,11.0,,,,0.0,4.0,4.0,4.0,4.0,4.0,4.0,4.0,4.0,4.0,4.0,4.0,4.0,4.0,4.0,100.0,,,,,,,,,,,,,,,,,,,,,,,,,,,,,,,,,,,,,,,,,,,,,,,,,,,,,,,,,,,,,,,,,,,,,,,,,,,,,,,,,,,,,,,,,,,,,,,,,,,,,,,,,,,,,,,,,,,,,,,,,,,,,,,,,,,
1725717286.110822,1725717286.112533,54.0,0.0,4246.794922,4231.025879,4282.179688,4323.205078,4229.487305,4359.230957,4283.717773,4265.128418,4262.05127,4219.102539,4484.230957,4538.974121,4364.358887,4431.538574,0.0,0.0,11.0,,,,0.0,4.0,4.0,4.0,4.0,4.0,4.0,4.0,4.0,4.0,4.0,4.0,4.0,4.0,4.0,100.0,,,,,,,,,,,,,,,,,,,,,,,,,,,,,,,,,,,,,,,,,,,,,,,,,,,,,,,,,,,,,,,,,,,,,,,,,,,,,,,,,,,,,,,,,,,,,,,,,,,,,,,,,,,,,,,,,,,,,,,,,,,,,,,,,,,
1725717286.114726,1725717286.116437,55.0,0.0,4245.641113,4232.563965,4283.205078,4325.0,4232.179688,4359.487305,4286.794922,4264.358887,4261.025879,4218.333496,4488.974121,4538.589844,4364.615234,4431.538574,0.0,0.0,11.0,,,,0.0,4.0,4.0,4.0,4.0,4.0,4.0,4.0,4.0,4.0,4.0,4.0,4.0,4.0,4.0,100.0,,,,,,,,,,,,,,,,,,,,,,,,,,,,,,,,,,,,,,,,,,,,,,,,,,,,,,,,,,,,,,,,,,,,,,,,,,,,,,,,,,,,,,,,,,,,,,,,,,,,,,,,,,,,,,,,,,,,,,,,,,,,,,,,,,,
1725717286.118631,1725717286.120341,56.0,0.0,4246.025879,4234.358887,4283.333496,4326.794922,4233.205078,4357.94873,4290.256348,4260.897461,4261.282227,4218.589844,4494.743652,4537.692383,4365.256348,4430.256348,0.0,0.0,11.0,,,,0.0,4.0,4.0,4.0,4.0,4.0,4.0,4.0,4.0,4.0,4.0,4.0,4.0,4.0,4.0,100.0,,,,,,,,,,,,,,,,,,,,,,,,,,,,,,,,,,,,,,,,,,,,,,,,,,,,,,,,,,,,,,,,,,,,,,,,,,,,,,,,,,,,,,,,,,,,,,,,,,,,,,,,,,,,,,,,,,,,,,,,,,,,,,,,,,,
1725717286.122535,1725717286.124145,57.0,0.0,4247.436035,4234.743652,4282.307617,4326.794922,4231.666504,4355.384766,4292.94873,4255.641113,4261.666504,4221.153809,4498.077148,4536.282227,4365.512695,4428.461426,0.0,0.0,11.0,,,,0.0,4.0,4.0,4.0,4.0,4.0,4.0,4.0,4.0,4.0,4.0,4.0,4.0,4.0,4.0,100.0,,,,,,,,,,,,,,,,,,,,,,,,,,,,,,,,,,,,,,,,,,,,,,,,,,,,,,,,,,,,,,,,,,,,,,,,,,,,,,,,,,,,,,,,,,,,,,,,,,,,,,,,,,,,,,,,,,,,,,,,,,,,,,,,,,,
1725717286.126439,1725717286.128049,58.0,0.0,4248.461426,4233.333496,4280.641113,4324.871582,4228.461426,4352.94873,4294.102539,4250.641113,4260.641113,4224.871582,4497.307617,4534.102539,4364.230957,4427.436035,0.0,0.0,11.0,,,,0.0,4.0,4.0,4.0,4.0,4.0,4.0,4.0,4.0,4.0,4.0,4.0,4.0,4.0,4.0,100.0,,,,,,,,,,,,,,,,,,,,,,,,,,,,,,,,,,,,,,,,,,,,,,,,,,,,,,,,,,,,,,,,,,,,,,,,,,,,,,,,,,,,,,,,,,,,,,,,,,,,,,,,,,,,,,,,,,,,,,,,,,,,,,,,,,,
1725717286.130343,1725717286.131954,59.0,0.0,4247.563965,4230.897461,4279.358887,4322.05127,4225.769043,4351.922852,4293.974121,4248.077148,4257.94873,4227.307617,4493.205078,4531.025879,4361.922852,4427.94873,0.0,0.0,11.0,,,,0.0,4.0,4.0,4.0,4.0,4.0,4.0,4.0,4.0,4.0,4.0,4.0,4.0,4.0,4.0,100.0,,,,,,,,,,,,,,,,,,,,,,,,,,,,,,,,,,,,,,,,,,,,,,,,,,,,,,,,,,,,,,,,,,,,,,,,,,,,,,,,,,,,,,,,,,,,,,,,,,,,,,,,,,,,,,,,,,,,,,,,,,,,,,,,,,,
1725717286.134247,1725717286.135758,60.0,0.0,4244.487305,4229.230957,4278.717773,4319.487305,4225.256348,4352.820313,4293.717773,4248.205078,4254.743652,4226.538574,4488.205078,4527.692383,4359.743652,4429.230957,0.0,0.0,11.0,,,,0.0,4.0,4.0,4.0,4.0,4.0,4.0,4.0,4.0,4.0,4.0,4.0,4.0,4.0,4.0,100.0,,,,,,,,,,,,,,,,,,,,,,,,,,,,,,,,,,,,,,,,,,,,,,,,,,,,,,,,0.0,0.0,1.0,0.0,1024.0,0.03253,,,,,,,,,,,,,,,,,,,,,,,,,,,,,,,,,,,,,,,,,,,,,,,,,,,,,,,,,,,,,,,,,,,,,,
1725717286.138151,1725717286.139662,61.0,0.0,4240.0,4229.487305,4278.205078,4317.94873,4227.179688,4355.0,4294.615234,4249.743652,4252.307617,4222.94873,4484.230957,4525.256348,4358.846191,4429.102539,0.0,0.0,11.0,,,,0.0,4.0,4.0,4.0,4.0,4.0,4.0,4.0,4.0,4.0,4.0,4.0,4.0,4.0,4.0,100.0,,,,,,,,,,,,,,,,,,,,,,,,,,,,,,,,,,,,,,,,,,,,,,,,,,,,,,,,,,,,,,,,,,,,,,,,,,,,,,,,,,,,,,,,,,,,,,,,,,,,,,,,,,,,,,,,,,,,,,,,,,,,,,,,,,,
1725717286.142055,1725717286.143566,62.0,0.0,4236.025879,4231.282227,4276.538574,4316.538574,4229.743652,4357.179688,4296.282227,4250.256348,4251.282227,4219.102539,4481.538574,4523.846191,4358.717773,4426.538574,0.0,0.0,11.0,,,,0.0,4.0,4.0,4.0,4.0,4.0,4.0,4.0,4.0,4.0,4.0,4.0,4.0,4.0,4.0,100.0,,,,,,,,,,,,,,,,,,,,,,,,,,,,,,,,,,,,,,,,,,,,,,,,,,,,,,,,,,,,,,,,,,,,,,,,,,,,,,,,,,,,,,,,,,,,,,,,,,,,,,,,,,,,,,,,,,,,,,,,,,,,,,,,,,,
1725717286.145959,1725717286.14757,63.0,0.0,4233.846191,4233.205078,4273.333496,4314.487305,4231.153809,4358.461426,4297.563965,4249.358887,4250.769043,4217.436035,4479.358887,4522.436035,4358.717773,4421.922852,0.0,0.0,11.0,,,,0.0,4.0,4.0,4.0,4.0,4.0,4.0,4.0,4.0,4.0,4.0,4.0,4.0,4.0,4.0,100.0,,,,,,,,,,,,,,,,,,,,,,,,,,,,,,,,,,,,,,,,,,,,,,,,,,,,,,,,,,,,,,,,,,,,,,,,,,,,,,,,,,,,,,,,,,,,,,,,,,,,,,,,,,,,,,,,,,,,,,,,,,,,,,,,,,,
1725717286.149863,1725717286.151474,64.0,0.0,4233.589844,4233.077148,4269.230957,4312.179688,4230.641113,4358.205078,4297.94873,4247.94873,4250.0,4217.820313,4476.922852,4519.871582,4358.461426,4416.794922,0.0,0.0,11.0,,,,0.0,4.0,4.0,4.0,4.0,4.0,4.0,4.0,4.0,4.0,4.0,4.0,4.0,4.0,4.0,100.0,,,,,,,,,,,,,,,,,,,,,,,,,,,,,,,,,,,,,,,,,,,,,,,,,,,,,,,,,,,,,,,,,,,,,,,,,,,,,,,,,,,,,,,,,,,,,,,,,,,,,,,,,,,,,,,,,,,,,,,,,,,,,,,,,,,
1725717286.153767,1725717286.155378,65.0,0.0,4234.358887,4230.256348,4265.897461,4310.512695,4228.717773,4357.307617,4297.692383,4247.563965,4249.358887,4218.589844,4474.615234,4516.538574,4358.717773,4413.333496,0.0,0.0,11.0,,,,0.0,4.0,4.0,4.0,4.0,4.0,4.0,4.0,4.0,4.0,4.0,4.0,4.0,4.0,4.0,100.0,,,,,,,,,,,,,,,,,,,,,,,,,,,,,,,,,,,,,,,,,,,,,,,,,,,,,,,,,,,,,,,,,,,,,,,,,,,,,,,,,,,,,,,,,,,,,,,,,,,,,,,,,,,,,,,,,,,,,,,,,,,,,,,,,,,
1725717286.157672,1725717286.159282,66.0,0.0,4234.743652,4225.512695,4264.102539,4310.256348,4226.794922,4356.538574,4297.436035,4248.461426,4250.384766,4218.333496,4473.589844,4513.333496,4359.230957,4412.436035,0.0,0.0,11.0,,,,0.0,4.0,4.0,4.0,4.0,4.0,4.0,4.0,4.0,4.0,4.0,4.0,4.0,4.0,4.0,100.0,,,,,,,,,,,,,,,,,,,,,,,,,,,,,,,,,,,,,,,,,,,,,,,,,,,,,,,,,,,,,,,,,,,,,,,,,,,,,,,,,,,,,,,,,,,,,,,,,,,,,,,,,,,,,,,,,,,,,,,,,,,,,,,,,,,
1725717286.161576,1725717286.163186,67.0,0.0,4234.230957,4220.769043,4264.230957,4311.282227,4226.282227,4356.794922,4297.692383,4249.743652,4253.461426,4217.307617,4474.102539,4511.794922,4359.102539,4413.461426,0.0,0.0,11.0,,,,0.0,4.0,4.0,4.0,4.0,4.0,4.0,4.0,4.0,4.0,4.0,4.0,4.0,4.0,4.0,100.0,,,,,,,,,,,,,,,,,,,,,,,,,,,,,,,,,,,,,,,,,,,,,,,,,,,,,,,,,,,,,,,,,,,,,,,,,,,,,,,,,,,,,,,,,,,,,,,,,,,,,,,,,,,,,,,,,,,,,,,,,,,,,,,,,,,
1725717286.16548,1725717286.166991,68.0,0.0,4232.94873,4217.692383,4265.256348,4312.692383,4227.436035,4357.94873,4298.333496,4250.384766,4257.307617,4216.922852,4475.769043,4511.794922,4356.538574,4414.615234,0.0,0.0,11.0,,,,0.0,4.0,4.0,4.0,4.0,4.0,4.0,4.0,4.0,4.0,4.0,4.0,4.0,4.0,4.0,100.0,,,,,,,,,,,,,,,,,,,,,,,,,,,,,,,,,,,,,,,,,,,,,,,,,,,,,,,,0.0,0.0,1.0,0.0,1024.0,0.03253,,,,,,,,,,,,,,,,,,,,,,,,,,,,,,,,,,,,,,,,,,,,,,,,,,,,,,,,,,,,,,,,,,,,,,
