Timestamp,OriginalTimestamp,EEG.Counter,EEG.Interpolated,EEG.AF3,EEG.F7,EEG.F3,EEG.FC5,EEG.T7,EEG.P7,EEG.O1,EEG.O2,EEG.P8,EEG.T8,EEG.FC6,EEG.F4,EEG.F8,EEG.AF4,EEG.RawCq,EEG.Battery,EEG.BatteryPercent,MarkerIndex,MarkerType,MarkerValueInt,EEG.MarkerHardware,CQ.AF3,CQ.F7,CQ.F3,CQ.FC5,CQ.T7,CQ.P7,CQ.O1,CQ.O2,CQ.P8,CQ.T8,CQ.FC6,CQ.F4,CQ.F8,CQ.AF4,CQ.Overall,EQ.SampleRateQuality,EQ.OVERALL,EQ.AF3,EQ.F7,EQ.F3,EQ.FC5,EQ.T7,EQ.P7,EQ.O1,EQ.O2,EQ.P8,EQ.T8,EQ.FC6,EQ.F4,EQ.F8,EQ.AF4,MC.Action,MC.ActionPower,MC.IsActive,PM.Attention.IsActive,PM.Attention.Scaled,PM.Attention.Raw,PM.Attention.Min,PM.Attention.Max,PM.Engagement.IsActive,PM.Engagement.Scaled,PM.Engagement.Raw,PM.Engagement.Min,PM.Engagement.Max,PM.Excitement.IsActive,PM.Excitement.Scaled,PM.Excitement.Raw,PM.Excitement.Min,PM.Excitement.Max,PM.LongTermExcitement,PM.Stress.IsActive,PM.Stress.Scaled,PM.Stress.Raw,PM.Stress.Min,PM.Stress.Max,PM.Relaxation.IsActive,PM.Relaxation.Scaled,PM.Relaxation.Raw,PM.Relaxation.Min,PM.Relaxation.Max,PM.Interest.IsActive,PM.Interest.Scaled,PM.Interest.Raw,PM.Interest.Min,PM.Interest.Max,PM.Focus.IsActive,PM.Focus.Scaled,PM.Focus.Raw,PM.Focus.Min,PM.Focus.Max,FE.BlinkWink,FE.HorizontalEyesDirection,FE.UpperFaceAction,FE.UpperFaceActionPower,FE.LowerFaceAction,FE.LowerFaceActionPower,POW.AF3.Theta,POW.AF3.Alpha,POW.AF3.BetaL,POW.AF3.BetaH,POW.AF3.Gamma,POW.F7.Theta,POW.F7.Alpha,POW.F7.BetaL,POW.F7.BetaH,POW.F7.Gamma,POW.F3.Theta,POW.F3.Alpha,POW.F3.BetaL,POW.F3.BetaH,POW.F3.Gamma,POW.FC5.Theta,POW.FC5.Alpha,POW.FC5.BetaL,POW.FC5.BetaH,POW.FC5.Gamma,POW.T7.Theta,POW.T7.Alpha,POW.T7.BetaL,POW.T7.BetaH,POW.T7.Gamma,POW.P7.Theta,POW.P7.Alpha,POW.P7.BetaL,POW.P7.BetaH,POW.P7.Gamma,POW.O1.Theta,POW.O1.Alpha,POW.O1.BetaL,POW.O1.BetaH,POW.O1.Gamma,POW.O2.Theta,POW.O2.Alpha,POW.O2.BetaL,POW.O2.BetaH,POW.O2.Gamma,POW.P8.Theta,POW.P8.Alpha,POW.P8.BetaL,POW.P8.BetaH,POW.P8.Gamma,POW.T8.Theta,POW.T8.Alpha,POW.T8.BetaL,POW.T8.BetaH,POW.T8.Gamma,POW.FC6.Theta,POW.FC6.Alpha,POW.FC6.BetaL,POW.FC6.BetaH,POW.FC6.Gamma,POW.F4.Theta,POW.F4.Alpha,POW.F4.BetaL,POW.F4.BetaH,POW.F4.Gamma,POW.F8.Theta,POW.F8.Alpha,POW.F8.BetaL,POW.F8.BetaH,POW.F8.Gamma,POW.AF4.Theta,POW.AF4.Alpha,POW.AF4.BetaL,POW.AF4.BetaH,POW.AF4.Gamma
1725710438.420981,1725710438.421479,53.0,0.0,4277.94873,4270.128418,4256.794922,4311.410156,4233.205078,4241.922852,4488.974121,4274.230957,4251.025879,4219.487305,4556.282227,4542.307617,4400.512695,4475.769043,0.0,1.0,15.0,17.0,1.0,1.0,0.0,4.0,4.0,4.0,4.0,4.0,4.0,4.0,4.0,4.0,4.0,4.0,4.0,4.0,4.0,100.0,,,,,,,,,,,,,,,,,,,,,,,,,,,,,,,,,,,,,,,,,,,,,,,,,,,,,,,,,,,,,,,,,,,,,,,,,,,,,,,,,,,,,,,,,,,,,,,,,,,,,,,,,,,,,,,,,,,,,,,,,,,,,,,,,,,
1725710438.424885,1725710438.425483,54.0,0.0,4275.641113,4270.641113,4253.461426,4309.358887,4233.846191,4238.333496,4491.153809,4273.461426,4249.871582,4217.05127,4555.641113,4541.794922,4401.282227,4474.230957,0.0,1.0,15.0,,,,0.0,4.0,4.0,4.0,4.0,4.0,4.0,4.0,4.0,4.0,4.0,4.0,4.0,4.0,4.0,100.0,,,,,,,,,,,,,,,,,,,,,,,,,,,,,,,,,,,,,,,,,,,,,,,,,,,,,,,,,,,,,,,,,,,,,,,,,,,,,,,,,,,,,,,,,,,,,,,,,,,,,,,,,,,,,,,,,,,,,,,,,,,,,,,,,,,
1725710438.428789,1725710438.429387,55.0,0.0,4271.666504,4269.615234,4250.769043,4308.461426,4233.846191,4234.615234,4492.692383,4273.589844,4248.333496,4214.615234,4555.512695,4540.384766,4400.384766,4473.077148,0.0,1.0,15.0,,,,0.0,4.0,4.0,4.0,4.0,4.0,4.0,4.0,4.0,4.0,4.0,4.0,4.0,4.0,4.0,100.0,,,,,,,,,,,,,,,,,,,,,,,,,,,,,,,,,,,,,,,,,,,,,,,,,,,,,,,,,,,,,,,,,,,,,,,,,,,,,,,,,,,,,,,,,,,,,,,,,,,,,,,,,,,,,,,,,,,,,,,,,,,,,,,,,,,
1725710438.432693,1725710438.433291,56.0,0.0,4267.820313,4267.179688,4250.128418,4308.846191,4233.205078,4232.436035,4492.94873,4273.205078,4248.077148,4214.230957,4556.282227,4538.333496,4398.717773,4472.820313,0.0,1.0,15.0,,,,0.0,4.0,4.0,4.0,4.0,4.0,4.0,4.0,4.0,4.0,4.0,4.0,4.0,4.0,4.0,100.0,,,,,,,,,,,,,,,,,,,,,,,,,,,,,,,,,,,,,,,,,,,,,,,,,,,,,,,,0.0,0.0,1.0,0.0,2048.0,0.0,,,,,,,,,,,,,,,,,,,,,,,,,,,,,,,,,,,,,,,,,,,,,,,,,,,,,,,,,,,,,,,,,,,,,,
1725710438.436597,1725710438.437295,57.0,0.0,4265.384766,4264.615234,4251.153809,4309.615234,4232.436035,4233.205078,4492.436035,4271.410156,4249.102539,4215.256348,4557.307617,4535.769043,4397.307617,4472.692383,0.0,1.0,15.0,,,,0.0,4.0,4.0,4.0,4.0,4.0,4.0,4.0,4.0,4.0,4.0,4.0,4.0,4.0,4.0,100.0,,,,,,,,,,,,,,,,,,,,,,,,,,,,,,,,,,,,,,,,,,,,,,,,,,,,,,,,,,,,,,,,,,,,,,,,,,,,,,,,,,,,,,,,,,,,,,,,,,,,,,,,,,,,,,,,,,,,,,,,,,,,,,,,,,,
1725710438.440501,1725710438.441199,58.0,0.0,4264.871582,4263.205078,4252.179688,4309.487305,4232.307617,4236.922852,4492.05127,4268.717773,4250.384766,4216.025879,4557.563965,4533.589844,4396.922852,4471.922852,0.0,1.0,15.0,,,,0.0,4.0,4.0,4.0,4.0,4.0,4.0,4.0,4.0,4.0,4.0,4.0,4.0,4.0,4.0,100.0,,,,,,,,,,,,,,,,,,,,,,,,,,,,,,,,,,,,,,,,,,,,,,,,,,,,,,,,,,,,,,,,,,,,,,,,,,,,,,,,,,,,,,,,,,,,,,,,,,,,,,,,,,,,,,,,,,,,,,,,,,,,,,,,,,,
1725710438.444405,1725710438.445103,59.0,0.0,4265.769043,4263.461426,4252.05127,4308.205078,4233.205078,4242.05127,4492.436035,4267.05127,4250.769043,4214.487305,4556.666504,4532.563965,4397.820313,4469.871582,0.0,1.0,15.0,,,,0.0,4.0,4.0,4.0,4.0,4.0,4.0,4.0,4.0,4.0,4.0,4.0,4.0,4.0,4.0,100.0,,,,,,,,,,,,,,,,,,,,,,,,,,,,,,,,,,,,,,,,,,,,,,,,,,,,,,,,,,,,,,,,,,,,,,,,,,,,,,,,,,,,,,,,,,,,,,,,,,,,,,,,,,,,,,,,,,,,,,,,,,,,,,,,,,,
1725710438.44831,1725710438.449007,60.0,0.0,4267.05127,4264.871582,4250.641113,4306.538574,4234.615234,4246.922852,4493.461426,4268.461426,4249.743652,4210.769043,4555.384766,4533.205078,4398.974121,4467.307617,0.0,1.0,15.0,,,,0.0,4.0,4.0,4.0,4.0,4.0,4.0,4.0,4.0,4.0,4.0,4.0,4.0,4.0,4.0,100.0,,,,,,,,,,,,,,,,,,,,,,,,,,,,,,,,,,,,,,,,,,,,,,,,,,,,,,,,,,,,,,,,,,,,,,,,,,,,,,,,,,,,,,,,,,,,,,,,,,,,,,,,,,,,,,,,,,,,,,,,,,,,,,,,,,,
1725710438.452214,1725710438.452911,61.0,0.0,4267.563965,4266.153809,4249.358887,4306.153809,4235.641113,4249.743652,4494.487305,4272.692383,4247.563965,4205.769043,4555.256348,4535.128418,4399.102539,4465.384766,0.0,1.0,15.0,,,,0.0,4.0,4.0,4.0,4.0,4.0,4.0,4.0,4.0,4.0,4.0,4.0,4.0,4.0,4.0,100.0,,,,,,,,,,,,,,,,,,,,,,,,,,,,,,,,,,,,,,,,,,,,,,,,,,,,,,,,,,,,,,,,,,,,,,,,,,,,,,,,,,,,,,,,,,,,,,,,,,,,,,,,,,,,,,,,,,,,,,,,,,,,,,,,,,,
1725710438.456118,1725710438.456716,62.0,0.0,4267.179688,4265.641113,4250.0,4307.436035,4235.641113,4250.0,4494.358887,4277.692383,4246.025879,4201.538574,4557.05127,4537.436035,4397.692383,4465.769043,0.0,1.0,15.0,,,,0.0,4.0,4.0,4.0,4.0,4.0,4.0,4.0,4.0,4.0,4.0,4.0,4.0,4.0,4.0,100.0,,,,,,,,,,,,,,,,,,,,,,,,,,,,,,,,,,,,,,,,,,,,,,,,,,,,,,,,,,,,,,,,,,,,,,,,,,,,,,,,,,,,,,,,,,,,,,,,,,,,,,,,,,,,,,,,,,,,,,,,,,,,,,,,,,,
1725710438.460022,1725710438.46062,63.0,0.0,4266.538574,4263.333496,4253.333496,4309.615234,4235.128418,4248.461426,4492.820313,4281.666504,4246.922852,4200.769043,4561.153809,4539.743652,4395.897461,4468.846191,0.0,1.0,15.0,,,,0.0,4.0,4.0,4.0,4.0,4.0,4.0,4.0,4.0,4.0,4.0,4.0,4.0,4.0,4.0,100.0,,,,,,,,,,,,,,,,,,,,,,,,,,,,,,,,,,,,,,,,,,,,,,,,,,,,,,,,,,,,,,,,,,,,,,,,,,,,,,,,,,,,,,,,,,,,,,,,,,,,,,,,,,,,,,,,,,,,,,,,,,,,,,,,,,,
1725710438.463926,1725710438.464524,64.0,0.0,4266.410156,4260.384766,4258.461426,4311.025879,4234.487305,4246.410156,4490.512695,4284.102539,4250.897461,4205.384766,4566.410156,4541.538574,4395.641113,4473.333496,0.0,1.0,15.0,,,,0.0,4.0,4.0,4.0,4.0,4.0,4.0,4.0,4.0,4.0,4.0,4.0,4.0,4.0,4.0,100.0,,,,,,,,,,,,,,,,,,,,,,,,,,,,,,,,,,,,,,,,,,,,,,,,,,,,,,,,0.0,0.0,1.0,0.0,2048.0,0.0,,,,,,,,,,,,,,,,,,,,,,,,,,,,,,,,,,,,,,,,,,,,,,,,,,,,,,,,,,,,,,,,,,,,,,
1725710438.46783,1725710438.468428,65.0,0.0,4267.05127,4258.589844,4262.820313,4310.897461,4234.615234,4245.0,4488.846191,4286.282227,4256.538574,4214.871582,4571.153809,4542.820313,4398.205078,4477.05127,0.0,1.0,15.0,,,,0.0,4.0,4.0,4.0,4.0,4.0,4.0,4.0,4.0,4.0,4.0,4.0,4.0,4.0,4.0,100.0,,,,,,,,,,,,,,,,,,,,,,,,,,,,,,,,,,,,,,,,,,,,,,,,,,,,,,,,,,,,,,,,,,,,,,,,,,,,,,,,,,,,,,,,,,,,,,,,,,,,,,,,,,,,,,,,,,,,,,,,,,,,,,,,,,,
1725710438.471734,1725710438.472232,66.0,0.0,4267.692383,4258.589844,4263.333496,4309.487305,4235.0,4245.256348,4488.589844,4289.102539,4261.922852,4226.025879,4573.589844,4543.846191,4403.205078,4477.94873,0.0,1.0,15.0,,,,0.0,4.0,4.0,4.0,4.0,4.0,4.0,4.0,4.0,4.0,4.0,4.0,4.0,4.0,4.0,100.0,,,,,,,,,,,,,,,,,,,,,,,,,,,,,,,,,,,,,,,,,,,,,,,,,,,,,,,,,,,,,,,,,,,,,,,,,,,,,,,,,,,,,,,,,,,,,,,,,,,,,,,,,,,,,,,,,,,,,,,,,,,,,,,,,,,
1725710438.475638,1725710438.476136,67.0,0.0,4267.94873,4259.615234,4259.102539,4307.94873,4235.128418,4246.538574,4489.487305,4292.05127,4265.769043,4233.846191,4572.94873,4545.0,4409.102539,4476.153809,0.0,1.0,15.0,,,,0.0,4.0,4.0,4.0,4.0,4.0,4.0,4.0,4.0,4.0,4.0,4.0,4.0,4.0,4.0,100.0,,,,,,,,,,,,,,,,,,,,,,,,,,,,,,,,,,,,,,,,,,,,,,,,,,,,,,,,,,,,,,,,,,,,,,,,,,,,,,,,,,,,,,,,,,,,,,,,,,,,,,,,,,,,,,,,,,,,,,,,,,,,,,,,,,,
1725710438.479542,1725710438.48004,68.0,0.0,4267.179688,4260.769043,4252.94873,4307.05127,4234.615234,4247.692383,4491.025879,4293.846191,4267.179688,4235.512695,4570.0,4546.410156,4413.846191,4474.102539,0.0,1.0,15.0,,,,0.0,4.0,4.0,4.0,4.0,4.0,4.0,4.0,4.0,4.0,4.0,4.0,4.0,4.0,4.0,100.0,,,,,,,,,,,,,,,,,,,,,,,,,,,,,,,,,,,,,,,,,,,,,,,,,,,,,,,,,,,,,,,,,,,,,,,,,,,,,,,,,,,,,,,,,,,,,,,,,,,,,,,,,,,,,,,,,,,,,,,,,,,,,,,,,,,
1725710438.483446,1725710438.483944,69.0,0.0,4265.641113,4261.410156,4249.102539,4306.282227,4234.102539,4247.05127,4492.563965,4293.717773,4266.410156,4231.794922,4567.692383,4547.94873,4416.282227,4473.717773,0.0,1.0,15.0,,,,0.0,4.0,4.0,4.0,4.0,4.0,4.0,4.0,4.0,4.0,4.0,4.0,4.0,4.0,4.0,100.0,,,,,,,,,,,,,,,,,,,,,,,,,,,,,,,,,,,,,,,,,,,,,,,,,,,,,,,,,,,,,,,,,,,,,,,,,,,,,,,,,,,,,,,,,,,,,,,,,,,,,,,,,,,,,,,,,,,,,,,,,,,,,,,,,,,
1725710438.487351,1725710438.487749,70.0,0.0,4264.102539,4261.922852,4250.256348,4304.871582,4234.230957,4243.589844,4493.589844,4292.179688,4263.974121,4226.025879,4568.333496,4549.358887,4416.282227,4475.384766,0.0,1.0,15.0,,,,0.0,4.0,4.0,4.0,4.0,4.0,4.0,4.0,4.0,4.0,4.0,4.0,4.0,4.0,4.0,100.0,,,,,,,,,,,,,,,,,,,,,,,,,,,,,,,,,,,,,,,,,,,,,,,,,,,,,,,,,,,,,,,,,,,,,,,,,,,,,,,,,,,,,,,,,,,,,,,,,,,,,,,,,,,,,,,,,,,,,,,,,,,,,,,,,,,
1725710438.491254,1725710438.491653,71.0,0.0,4263.717773,4262.307617,4255.512695,4301.666504,4235.256348,4238.717773,4494.102539,4290.512695,4260.641113,4221.410156,4572.05127,4550.128418,4414.102539,4477.307617,0.0,1.0,15.0,,,,0.0,4.0,4.0,4.0,4.0,4.0,4.0,4.0,4.0,4.0,4.0,4.0,4.0,4.0,4.0,100.0,,,,,,,,,,,,,,,,,,,,,,,,,,,,,,,,,,,,,,,,,,,,,,,,,,,,,,,,,,,,,,,,,,,,,,,,,,,,,,,,,,,,,,,,,,,,,,,,,,,,,,,,,,,,,,,,,,,,,,,,,,,,,,,,,,,
1725710438.495159,1725710438.495557,72.0,0.0,4264.358887,4262.692383,4261.025879,4297.563965,4235.769043,4234.358887,4494.230957,4289.102539,4256.538574,4219.102539,4575.128418,4549.487305,4410.769043,4477.307617,0.0,1.0,15.0,,,,0.0,4.0,4.0,4.0,4.0,4.0,4.0,4.0,4.0,4.0,4.0,4.0,4.0,4.0,4.0,100.0,,,,,,,,,,,,,,,,,,,,,,,,,,,,,,,,,,,,,,,,,,,,,,,,,,,,,,,,0.0,0.0,1.0,0.0,2048.0,0.0,,,,,,,,,,,,,,,,,,,,,,,,,,,,,,,,,,,,,,,,,,,,,,,,,,,,,,,,,,,,,,,,,,,,,,
1725710438.499063,1725710438.499561,73.0,0.0,4265.256348,4262.692383,4262.563965,4294.358887,4234.358887,4232.05127,4494.230957,4286.410156,4252.05127,4218.077148,4573.205078,4546.282227,4406.538574,4474.230957,0.0,1.0,15.0,,,,0.0,4.0,4.0,4.0,4.0,4.0,4.0,4.0,4.0,4.0,4.0,4.0,4.0,4.0,4.0,100.0,,,,,,,,,,,,,,,,,,,,,,,,,,,,,,,,,,,,,,,,,,,,,,,,,,,,,,,,,,,,,,,,,,,,,,,,,,,,,,,,,,,,,,,,,,,,,,,,,,,,,,,,,,,,,,,,,,,,,,,,,,,,,,,,,,,
1725710438.502967,1725710438.503465,74.0,0.0,4265.0,4261.410156,4259.230957,4293.846191,4230.512695,4232.179688,4493.974121,4280.641113,4247.692383,4216.410156,4565.256348,4540.0,4401.153809,4468.589844,0.0,1.0,15.0,,,,0.0,4.0,4.0,4.0,4.0,4.0,4.0,4.0,4.0,4.0,4.0,4.0,4.0,4.0,4.0,100.0,,,,,,,,,,,,,,,,,,,,,,,,,,,,,,,,,,,,,,,,,,,,,,,,,,,,,,,,,,,,,,,,,,,,,,,,,,,,,,,,,,,,,,,,,,,,,,,,,,,,,,,,,,,,,,,,,,,,,,,,,,,,,,,,,,,
1725710438.506871,1725710438.507369,75.0,0.0,4262.436035,4257.94873,4252.94873,4295.769043,4225.0,4233.846191,4493.077148,4271.922852,4243.974121,4212.563965,4554.230957,4532.307617,4394.615234,4461.410156,0.0,1.0,15.0,,,,0.0,4.0,4.0,4.0,4.0,4.0,4.0,4.0,4.0,4.0,4.0,4.0,4.0,4.0,4.0,100.0,,,,,,,,,,,,,,,,,,,,,,,,,,,,,,,,,,,,,,,,,,,,,,,,,,,,,,,,,,,,,,,,,,,,,,,,,,,,,,,,,,,,,,,,,,,,,,,,,,,,,,,,,,,,,,,,,,,,,,,,,,,,,,,,,,,
1725710438.510775,1725710438.511273,76.0,0.0,4257.692383,4252.436035,4247.307617,4297.307617,4219.871582,4235.256348,4490.769043,4262.820313,4240.641113,4206.153809,4544.871582,4525.769043,4387.05127,4453.589844,0.0,1.0,15.0,,,,0.0,4.0,4.0,4.0,4.0,4.0,4.0,4.0,4.0,4.0,4.0,4.0,4.0,4.0,4.0,100.0,,,,,,,,,,,,,,,,,,,,,,,,,,,,,,,,,,,,,,,,,,,,,,,,,,,,,,,,,,,,,,,,,,,,,,,,,,,,,,,,,,,,,,,,,,,,,,,,,,,,,,,,,,,,,,,,,,,,,,,,,,,,,,,,,,,
1725710438.514679,1725710438.515277,77.0,0.0,4251.922852,4245.384766,4244.230957,4295.256348,4216.922852,4235.384766,4487.05127,4257.436035,4237.307617,4198.461426,4539.743652,4521.666504,4379.102539,4446.025879,0.0,1.0,15.0,,,,0.0,4.0,4.0,4.0,4.0,4.0,4.0,4.0,4.0,4.0,4.0,4.0,4.0,4.0,4.0,100.0,,,,,,,,,,,,,,,,,,,,,,,,,,,,,,,,,,,,,,,,,,,,,,,,,,,,,,,,,,,,,,,,,,,,,,,,,,,,,,,,,,,,,,,,,,,,,,,,,,,,,,,,,,,,,,,,,,,,,,,,,,,,,,,,,,,
1725710438.518583,1725710438.519181,78.0,0.0,4247.179688,4237.692383,4243.589844,4288.589844,4216.410156,4233.846191,4482.05127,4258.077148,4233.846191,4191.666504,4537.94873,4519.230957,4372.05127,4440.512695,0.0,1.0,15.0,,,,0.0,4.0,4.0,4.0,4.0,4.0,4.0,4.0,4.0,4.0,4.0,4.0,4.0,4.0,4.0,100.0,,,,,,,,,,,,,,,,,,,,,,,,,,,,,,,,,,,,,,,,,,,,,,,,,,,,,,,,,,,,,,,,,,,,,,,,,,,,,,,,,,,,,,,,,,,,,,,,,,,,,,,,,,,,,,,,,,,,,,,,,,,,,,,,,,,
1725710438.522487,1725710438.523085,79.0,0.0,4244.230957,4230.641113,4243.846191,4279.487305,4217.820313,4231.794922,4477.05127,4263.333496,4231.153809,4187.436035,4536.794922,4516.922852,4367.436035,4438.717773,0.0,1.0,15.0,,,,0.0,4.0,4.0,4.0,4.0,4.0,4.0,4.0,4.0,4.0,4.0,4.0,4.0,4.0,4.0,100.0,,,,,,,,,,,,,,,,,,,,,,,,,,,,,,,,,,,,,,,,,,,,,,,,,,,,,,,,,,,,,,,,,,,,,,,,,,,,,,,,,,,,,,,,,,,,,,,,,,,,,,,,,,,,,,,,,,,,,,,,,,,,,,,,,,,
1725710438.526391,1725710438.52699,80.0,0.0,4242.94873,4226.410156,4244.102539,4272.436035,4219.102539,4231.282227,4473.589844,4270.384766,4230.512695,4186.538574,4535.897461,4515.384766,4367.436035,4441.282227,0.0,1.0,15.0,,,,0.0,4.0,4.0,4.0,4.0,4.0,4.0,4.0,4.0,4.0,4.0,4.0,4.0,4.0,4.0,100.0,,,,,,,,,,,,,,,,,1.0,0.0,0.0,,,,,,,,,,,,,,,,,,,,,,,,,,,,,,,,,,,,,0.0,0.0,1.0,0.0,2048.0,0.0,1.58138,1.101798,0.339801,0.229292,0.039956,1.089819,1.214137,0.730356,0.463307,0.065843,1.098122,0.477923,0.364342,0.11691,0.054752,1.064773,0.624679,0.523604,0.388496,0.083407,0.557341,0.154281,0.227025,0.190516,0.127154,0.29894,0.249838,0.084118,0.062209,0.043951,16.110256,2.739893,5.461335,1.03962,0.205496,0.746842,0.784999,0.936812,0.178849,0.144029,1.369917,0.680588,0.974393,0.193432,0.094115,2.21473,0.972192,1.336002,0.314226,0.1271,2.126789,2.034962,1.051822,0.605707,0.323118,2.226905,1.933829,0.729524,0.348704,0.136354,1.758575,2.67101,0.811584,0.435935,0.165793,1.815176,1.287713,0.544517,0.352926,0.062986
1725710438.530295,1725710438.530794,81.0,0.0,4243.205078,4226.922852,4243.846191,4271.282227,4218.589844,4232.94873,4472.820313,4276.538574,4233.461426,4189.743652,4536.922852,4517.307617,4373.461426,4448.205078,0.0,1.0,15.0,,,,0.0,4.0,4.0,4.0,4.0,4.0,4.0,4.0,4.0,4.0,4.0,4.0,4.0,4.0,4.0,100.0,,,,,,,,,,,,,,,,,,,,,,,,,,,,,,,,,,,,,,,,,,,,,,,,,,,,,,,,,,,,,,,,,,,,,,,,,,,,,,,,,,,,,,,,,,,,,,,,,,,,,,,,,,,,,,,,,,,,,,,,,,,,,,,,,,,
1725710438.5342,1725710438.534698,82.0,0.0,4244.615234,4232.307617,4243.717773,4276.282227,4215.256348,4235.512695,4474.358887,4281.153809,4240.512695,4197.179688,4542.820313,4525.384766,4385.641113,4458.333496,0.0,1.0,15.0,,,,0.0,4.0,4.0,4.0,4.0,4.0,4.0,4.0,4.0,4.0,4.0,4.0,4.0,4.0,4.0,100.0,,,,,,,,,,,,,,,,,,,,,,,,,,,,,,,,,,,,,,,,,,,,,,,,,,,,,,,,,,,,,,,,,,,,,,,,,,,,,,,,,,,,,,,,,,,,,,,,,,,,,,,,,,,,,,,,,,,,,,,,,,,,,,,,,,,
1725710438.538104,1725710438.538602,83.0,0.0,4247.820313,4240.769043,4245.0,4284.615234,4209.358887,4237.05127,4476.794922,4285.641113,4250.256348,4208.589844,4554.487305,4539.102539,4401.153809,4469.358887,0.0,1.0,15.0,,,,0.0,4.0,4.0,4.0,4.0,4.0,4.0,4.0,4.0,4.0,4.0,4.0,4.0,4.0,4.0,100.0,,,,,,,,,,,,,,,,,,,,,,,,,,,,,,,,,,,,,,,,,,,,,,,,,,,,,,,,,,,,,,,,,,,,,,,,,,,,,,,,,,,,,,,,,,,,,,,,,,,,,,,,,,,,,,,,,,,,,,,,,,,,,,,,,,,
1725710438.542008,1725710438.542606,84.0,0.0,4252.820313,4249.358887,4248.717773,4291.666504,4201.922852,4236.538574,4478.205078,4290.641113,4260.0,4221.794922,4569.615234,4553.974121,4414.743652,4478.333496,0.0,1.0,15.0,,,,0.0,4.0,4.0,4.0,4.0,4.0,4.0,4.0,4.0,4.0,4.0,4.0,4.0,4.0,4.0,100.0,,,,,,,,,,,,,,,,,,,,,,,,,,,,,,,,,,,,,,,,,,,,,,,,,,,,,,,,,,,,,,,,,,,,,,,,,,,,,,,,,,,,,,,,,,,,,,,,,,,,,,,,,,,,,,,,,,,,,,,,,,,,,,,,,,,
1725710438.545912,1725710438.54651,85.0,0.0,4258.461426,4255.256348,4253.333496,4295.256348,4193.333496,4234.871582,4477.307617,4295.641113,4266.794922,4232.436035,4583.461426,4564.358887,4421.922852,4483.205078,0.0,1.0,15.0,,,,0.0,4.0,4.0,4.0,4.0,4.0,4.0,4.0,4.0,4.0,4.0,4.0,4.0,4.0,4.0,100.0,,,,,,,,,,,,,,,,,,,,,,,,,,,,,,,,,,,,,,,,,,,,,,,,,,,,,,,,,,,,,,,,,,,,,,,,,,,,,,,,,,,,,,,,,,,,,,,,,,,,,,,,,,,,,,,,,,,,,,,,,,,,,,,,,,,
1725710438.549816,1725710438.550414,86.0,0.0,4262.94873,4257.692383,4256.282227,4295.769043,4183.717773,4234.615234,4473.461426,4299.358887,4269.871582,4237.05127,4591.794922,4567.179688,4421.794922,4483.717773,0.0,1.0,15.0,,,,0.0,4.0,4.0,4.0,4.0,4.0,4.0,4.0,4.0,4.0,4.0,4.0,4.0,4.0,4.0,100.0,,,,,,,,,,,,,,,,,,,,,,,,,,,,,,,,,,,,,,,,,,,,,,,,,,,,,,,,,,,,,,,,,,,,,,,,,,,,,,,,,,,,,,,,,,,,,,,,,,,,,,,,,,,,,,,,,,,,,,,,,,,,,,,,,,,
1725710438.55372,1725710438.554318,87.0,0.0,4264.871582,4257.94873,4256.410156,4296.410156,4173.205078,4237.436035,4467.179688,4300.641113,4269.615234,4235.0,4593.205078,4563.717773,4417.563965,4481.282227,0.0,1.0,15.0,,,,0.0,4.0,4.0,4.0,4.0,4.0,4.0,4.0,4.0,4.0,4.0,4.0,4.0,4.0,4.0,100.0,,,,,,,,,,,,,,,,,,,,,,,,,,,,,,,,,,,,,,,,,,,,,,,,,,,,,,,,,,,,,,,,,,,,,,,,,,,,,,,,,,,,,,,,,,,,,,,,,,,,,,,,,,,,,,,,,,,,,,,,,,,,,,,,,,,
1725710438.557624,1725710438.558322,88.0,0.0,4264.358887,4257.94873,4254.743652,4299.358887,4162.563965,4242.692383,4459.871582,4299.358887,4267.563965,4229.743652,4589.230957,4558.077148,4413.717773,4478.461426,0.0,1.0,15.0,,,,0.0,4.0,4.0,4.0,4.0,4.0,4.0,4.0,4.0,4.0,4.0,4.0,4.0,4.0,4.0,100.0,,,,,,,,,,,,,,,,,,,,,,,,,,,,,,,,,,,,,,,,,,,,,,,,,,,,,,,,0.0,0.0,1.0,0.0,2048.0,0.0,,,,,,,,,,,,,,,,,,,,,,,,,,,,,,,,,,,,,,,,,,,,,,,,,,,,,,,,,,,,,,,,,,,,,,
1725710438.561528,1725710438.562226,89.0,0.0,4262.563965,4259.615234,4253.589844,4304.743652,4152.692383,4247.563965,4453.589844,4296.410156,4264.871582,4226.282227,4583.077148,4554.230957,4412.692383,4476.666504,0.0,1.0,15.0,,,,0.0,4.0,4.0,4.0,4.0,4.0,4.0,4.0,4.0,4.0,4.0,4.0,4.0,4.0,4.0,100.0,,,,,,,,,,,,,,,,,,,,,,,,,,,,,,,,,,,,,,,,,,,,,,,,,,,,,,,,,,,,,,,,,,,,,,,,,,,,,,,,,,,,,,,,,,,,,,,,,,,,,,,,,,,,,,,,,,,,,,,,,,,,,,,,,,,
1725710438.565432,1725710438.56613,90.0,0.0,4261.410156,4262.692383,4254.102539,4310.0,4144.230957,4249.358887,4449.487305,4293.717773,4263.205078,4227.307617,4577.563965,4553.333496,4413.974121,4476.538574,0.0,1.0,15.0,,,,0.0,4.0,4.0,4.0,4.0,4.0,4.0,4.0,4.0,4.0,4.0,4.0,4.0,4.0,4.0,100.0,,,,,,,,,,,,,,,,,,,,,,,,,,,,,,,,,,,,,,,,,,,,,,,,,,,,,,,,,,,,,,,,,,,,,,,,,,,,,,,,,,,,,,,,,,,,,,,,,,,,,,,,,,,,,,,,,,,,,,,,,,,,,,,,,,,
1725710438.569337,1725710438.570035,91.0,0.0,4261.538574,4265.769043,4255.897461,4312.179688,4136.666504,4247.307617,4447.05127,4292.563965,4263.077148,4231.794922,4573.461426,4553.717773,4414.743652,4477.563965,0.0,1.0,15.0,,,,0.0,4.0,4.0,4.0,4.0,4.0,4.0,4.0,4.0,4.0,4.0,4.0,4.0,4.0,4.0,100.0,,,,,,,,,,,,,,,,,,,,,,,,,,,,,,,,,,,,,,,,,,,,,,,,,,,,,,,,,,,,,,,,,,,,,,,,,,,,,,,,,,,,,,,,,,,,,,,,,,,,,,,,,,,,,,,,,,,,,,,,,,,,,,,,,,,
1725710438.573241,1725710438.573939,92.0,0.0,4262.563965,4267.436035,4257.179688,4310.512695,4129.230957,4243.333496,4445.0,4293.589844,4263.974121,4235.769043,4570.769043,4552.179688,4412.692383,4478.205078,0.0,1.0,15.0,,,,0.0,4.0,4.0,4.0,4.0,4.0,4.0,4.0,4.0,4.0,4.0,4.0,4.0,4.0,4.0,100.0,,,,,,,,,,,,,,,,,,,,,,,,,,,,,,,,,,,,,,,,,,,,,,,,,,,,,,,,,,,,,,,,,,,,,,,,,,,,,,,,,,,,,,,,,,,,,,,,,,,,,,,,,,,,,,,,,,,,,,,,,,,,,,,,,,,
1725710438.577145,1725710438.577743,93.0,0.0,4263.077148,4267.307617,4256.538574,4306.666504,4121.794922,4240.128418,4441.794922,4295.128418,4264.230957,4235.384766,4568.589844,4548.077148,4407.05127,4477.179688,0.0,1.0,15.0,,,,0.0,4.0,4.0,4.0,4.0,4.0,4.0,4.0,4.0,4.0,4.0,4.0,4.0,4.0,4.0,100.0,,,,,,,,,,,,,,,,,,,,,,,,,,,,,,,,,,,,,,,,,,,,,,,,,,,,,,,,,,,,,,,,,,,,,,,,,,,,,,,,,,,,,,,,,,,,,,,,,,,,,,,,,,,,,,,,,,,,,,,,,,,,,,,,,,,
1725710438.581049,1725710438.581647,94.0,0.0,4262.436035,4265.384766,4253.461426,4303.333496,4114.615234,4239.487305,4437.05127,4294.358887,4262.307617,4229.358887,4566.922852,4543.461426,4400.256348,4474.615234,0.0,1.0,15.0,,,,0.0,4.0,4.0,4.0,4.0,4.0,4.0,4.0,4.0,4.0,4.0,4.0,4.0,4.0,4.0,100.0,,,,,,,,,,,,,,,,,,,,,,,,,,,,,,,,,,,,,,,,,,,,,,,,,,,,,,,,,,,,,,,,,,,,,,,,,,,,,,,,,,,,,,,,,,,,,,,,,,,,,,,,,,,,,,,,,,,,,,,,,,,,,,,,,,,
1725710438.584953,1725710438.585551,95.0,0.0,4261.153809,4262.179688,4249.358887,4302.563965,4108.077148,4241.153809,4431.666504,4290.128418,4257.692383,4220.384766,4566.153809,4541.666504,4395.897461,4472.05127,0.0,1.0,15.0,,,,0.0,4.0,4.0,4.0,4.0,4.0,4.0,4.0,4.0,4.0,4.0,4.0,4.0,4.0,4.0,100.0,,,,,,,,,,,,,,,,,,,,,,,,,,,,,,,,,,,,,,,,,,,,,,,,,,,,,,,,,,,,,,,,,,,,,,,,,,,,,,,,,,,,,,,,,,,,,,,,,,,,,,,,,,,,,,,,,,,,,,,,,,,,,,,,,,,
1725710438.588857,1725710438.589455,96.0,0.0,4260.0,4258.846191,4246.538574,4304.102539,4102.05127,4243.461426,4427.05127,4283.846191,4252.179688,4213.717773,4566.666504,4543.717773,4397.436035,4472.307617,0.0,1.0,15.0,,,,0.0,4.0,4.0,4.0,4.0,4.0,4.0,4.0,4.0,4.0,4.0,4.0,4.0,4.0,4.0,100.0,,,,,,,,,,,,,,,,,,,,,,,,,,,,,,,,,,,,,,,,,,,,,,,,,,,,,,,,0.0,0.0,1.0,0.0,2048.0,0.0,,,,,,,,,,,,,,,,,,,,,,,,,,,,,,,,,,,,,,,,,,,,,,,,,,,,,,,,,,,,,,,,,,,,,,
1725710438.592761,1725710438.593259,97.0,0.0,4260.384766,4257.563965,4247.05127,4306.538574,4096.666504,4244.743652,4423.974121,4278.333496,4248.461426,4213.333496,4568.717773,4547.94873,4405.384766,4476.666504,0.0,1.0,15.0,,,,0.0,4.0,4.0,4.0,4.0,4.0,4.0,4.0,4.0,4.0,4.0,4.0,4.0,4.0,4.0,100.0,,,,,,,,,,,,,,,,,,,,,,,,,,,,,,,,,,,,,,,,,,,,,,,,,,,,,,,,,,,,,,,,,,,,,,,,,,,,,,,,,,,,,,,,,,,,,,,,,,,,,,,,,,,,,,,,,,,,,,,,,,,,,,,,,,,
1725710438.596665,1725710438.597163,98.0,0.0,4262.563965,4260.0,4250.641113,4308.205078,4091.923096,4244.358887,4421.922852,4275.512695,4248.846191,4218.461426,4572.436035,4551.538574,4416.538574,4484.230957,0.0,1.0,15.0,,,,0.0,4.0,4.0,4.0,4.0,4.0,4.0,4.0,4.0,4.0,4.0,4.0,4.0,4.0,4.0,100.0,,,,,,,,,,,,,,,,,,,,,,,,,,,,,,,,,,,,,,,,,,,,,,,,,,,,,,,,,,,,,,,,,,,,,,,,,,,,,,,,,,,,,,,,,,,,,,,,,,,,,,,,,,,,,,,,,,,,,,,,,,,,,,,,,,,
1725710438.600569,1725710438.601068,99.0,0.0,4265.769043,4266.153809,4255.512695,4308.589844,4088.076904,4242.563965,4419.230957,4275.769043,4252.94873,4225.256348,4577.436035,4553.077148,4425.769043,4491.794922,0.0,1.0,15.0,,,,0.0,4.0,4.0,4.0,4.0,4.0,4.0,4.0,4.0,4.0,4.0,4.0,4.0,4.0,4.0,100.0,,,,,,,,,,,,,,,,,,,,,,,,,,,,,,,,,,,,,,,,,,,,,,,,,,,,,,,,,,,,,,,,,,,,,,,,,,,,,,,,,,,,,,,,,,,,,,,,,,,,,,,,,,,,,,,,,,,,,,,,,,,,,,,,,,,
1725710438.604473,1725710438.604972,100.0,0.0,4268.589844,4273.461426,4259.487305,4308.589844,4085.0,4240.128418,4414.871582,4278.077148,4258.077148,4229.743652,4582.179688,4553.846191,4429.487305,4496.410156,0.0,1.0,15.0,,,,0.0,4.0,4.0,4.0,4.0,4.0,4.0,4.0,4.0,4.0,4.0,4.0,4.0,4.0,4.0,100.0,,,,,,,,,,,,,,,,,,,,,,,,,,,,,,,,,,,,,,,,,,,,,,,,,,,,,,,,,,,,,,,,,,,,,,,,,,,,,,,,,,,,,,,,,,,,,,,,,,,,,,,,,,,,,,,,,,,,,,,,,,,,,,,,,,,
1725710438.608378,1725710438.608776,101.0,0.0,4270.769043,4278.077148,4261.282227,4308.974121,4081.538574,4237.94873,4409.230957,4280.897461,4261.666504,4231.153809,4584.871582,4556.025879,4427.179688,4496.794922,0.0,1.0,15.0,,,,0.0,4.0,4.0,4.0,4.0,4.0,4.0,4.0,4.0,4.0,4.0,4.0,4.0,4.0,4.0,100.0,,,,,,,,,,,,,,,,,,,,,,,,,,,,,,,,,,,,,,,,,,,,,,,,,,,,,,,,,,,,,,,,,,,,,,,,,,,,,,,,,,,,,,,,,,,,,,,,,,,,,,,,,,,,,,,,,,,,,,,,,,,,,,,,,,,
1725710438.612282,1725710438.61268,102.0,0.0,4272.179688,4277.692383,4261.922852,4309.871582,4076.923096,4236.282227,4403.846191,4283.333496,4263.077148,4231.025879,4584.871582,4560.384766,4422.05127,4494.487305,0.0,1.0,15.0,,,,0.0,4.0,4.0,4.0,4.0,4.0,4.0,4.0,4.0,4.0,4.0,4.0,4.0,4.0,4.0,100.0,,,,,,,,,,,,,,,,,,,,,,,,,,,,,,,,,,,,,,,,,,,,,,,,,,,,,,,,,,,,,,,,,,,,,,,,,,,,,,,,,,,,,,,,,,,,,,,,,,,,,,,,,,,,,,,,,,,,,,,,,,,,,,,,,,,
1725710438.616186,1725710438.616584,103.0,0.0,4273.461426,4273.077148,4262.563965,4310.769043,4071.410156,4235.0,4399.871582,4285.256348,4263.333496,4231.153809,4583.205078,4565.769043,4417.692383,4492.05127,0.0,1.0,15.0,,,,0.0,4.0,4.0,4.0,4.0,4.0,4.0,4.0,4.0,4.0,4.0,4.0,4.0,4.0,4.0,100.0,,,,,,,,,,,,,,,,,,,,,,,,,,,,,,,,,,,,,,,,,,,,,,,,,,,,,,,,,,,,,,,,,,,,,,,,,,,,,,,,,,,,,,,,,,,,,,,,,,,,,,,,,,,,,,,,,,,,,,,,,,,,,,,,,,,
1725710438.62009,1725710438.620588,104.0,0.0,4274.230957,4267.820313,4263.589844,4311.153809,4065.384521,4234.615234,4397.179688,4286.410156,4263.589844,4232.179688,4583.077148,4570.512695,4417.05127,4491.794922,0.0,1.0,15.0,,,,0.0,4.0,4.0,4.0,4.0,4.0,4.0,4.0,4.0,4.0,4.0,4.0,4.0,4.0,4.0,100.0,,,,,,,,,,,,,,,,,,,,,,,,,,,,,,,,,,,,,,,,,,,,,,,,,,,,,,,,0.0,0.0,1.0,0.0,2048.0,0.0,,,,,,,,,,,,,,,,,,,,,,,,,,,,,,,,,,,,,,,,,,,,,,,,,,,,,,,,,,,,,,,,,,,,,,
1725710438.623994,1725710438.624492,105.0,0.0,4273.974121,4264.871582,4263.846191,4310.641113,4059.871826,4235.0,4394.871582,4286.538574,4264.230957,4233.333496,4586.922852,4573.461426,4420.512695,4493.461426,0.0,1.0,15.0,,,,0.0,4.0,4.0,4.0,4.0,4.0,4.0,4.0,4.0,4.0,4.0,4.0,4.0,4.0,4.0,100.0,,,,,,,,,,,,,,,,,,,,,,,,,,,,,,,,,,,,,,,,,,,,,,,,,,,,,,,,,,,,,,,,,,,,,,,,,,,,,,,,,,,,,,,,,,,,,,,,,,,,,,,,,,,,,,,,,,,,,,,,,,,,,,,,,,,
1725710438.627898,1725710438.628396,106.0,0.0,4272.436035,4265.0,4263.077148,4309.871582,4055.256348,4235.897461,4391.794922,4286.410156,4265.128418,4233.205078,4594.102539,4574.615234,4425.897461,4495.641113,0.0,1.0,15.0,,,,0.0,4.0,4.0,4.0,4.0,4.0,4.0,4.0,4.0,4.0,4.0,4.0,4.0,4.0,4.0,100.0,,,,,,,,,,,,,,,,,,,,,,,,,,,,,,,,,,,,,,,,,,,,,,,,,,,,,,,,,,,,,,,,,,,,,,,,,,,,,,,,,,,,,,,,,,,,,,,,,,,,,,,,,,,,,,,,,,,,,,,,,,,,,,,,,,,
1725710438.631802,1725710438.6324,107.0,0.0,4270.128418,4267.05127,4262.179688,4309.487305,4051.538574,4236.410156,4387.307617,4286.794922,4265.512695,4232.05127,4601.538574,4574.615234,4430.641113,4496.794922,0.0,1.0,15.0,,,,0.0,4.0,4.0,4.0,4.0,4.0,4.0,4.0,4.0,4.0,4.0,4.0,4.0,4.0,4.0,100.0,,,,,,,,,,,,,,,,,,,,,,,,,,,,,,,,,,,,,,,,,,,,,,,,,,,,,,,,,,,,,,,,,,,,,,,,,,,,,,,,,,,,,,,,,,,,,,,,,,,,,,,,,,,,,,,,,,,,,,,,,,,,,,,,,,,
1725710438.635706,1725710438.636304,108.0,0.0,4267.820313,4268.589844,4262.05127,4310.0,4047.94873,4235.897461,4381.666504,4288.846191,4265.897461,4230.897461,4605.769043,4573.461426,4432.179688,4496.538574,0.0,1.0,15.0,,,,0.0,4.0,4.0,4.0,4.0,4.0,4.0,4.0,4.0,4.0,4.0,4.0,4.0,4.0,4.0,100.0,,,,,,,,,,,,,,,,,,,,,,,,,,,,,,,,,,,,,,,,,,,,,,,,,,,,,,,,,,,,,,,,,,,,,,,,,,,,,,,,,,,,,,,,,,,,,,,,,,,,,,,,,,,,,,,,,,,,,,,,,,,,,,,,,,,
1725710438.63961,1725710438.640209,109.0,0.0,4266.282227,4267.94873,4262.307617,4310.384766,4043.461426,4234.230957,4374.871582,4292.179688,4266.410156,4231.153809,4605.512695,4570.641113,4430.128418,4495.128418,0.0,1.0,15.0,,,,0.0,4.0,4.0,4.0,4.0,4.0,4.0,4.0,4.0,4.0,4.0,4.0,4.0,4.0,4.0,100.0,,,,,,,,,,,,,,,,,,,,,,,,,,,,,,,,,,,,,,,,,,,,,,,,,,,,,,,,,,,,,,,,,,,,,,,,,,,,,,,,,,,,,,,,,,,,,,,,,,,,,,,,,,,,,,,,,,,,,,,,,,,,,,,,,,,
1725710438.643515,1725710438.644113,110.0,0.0,4265.641113,4265.256348,4261.538574,4310.128418,4037.692383,4232.820313,4366.282227,4295.0,4267.436035,4232.692383,4601.666504,4565.641113,4425.769043,4493.205078,0.0,1.0,15.0,,,,0.0,4.0,4.0,4.0,4.0,4.0,4.0,4.0,4.0,4.0,4.0,4.0,4.0,4.0,4.0,100.0,,,,,,,,,,,,,,,,,,,,,,,,,,,,,,,,,,,,,,,,,,,,,,,,,,,,,,,,,,,,,,,,,,,,,,,,,,,,,,,,,,,,,,,,,,,,,,,,,,,,,,,,,,,,,,,,,,,,,,,,,,,,,,,,,,,
1725710438.647419,1725710438.648117,111.0,0.0,4265.641113,4262.307617,4260.0,4309.487305,4031.923096,4232.436035,4356.666504,4294.871582,4267.563965,4234.358887,4595.512695,4559.102539,4420.769043,4491.538574,0.0,1.0,15.0,,,,0.0,4.0,4.0,4.0,4.0,4.0,4.0,4.0,4.0,4.0,4.0,4.0,4.0,4.0,4.0,100.0,,,,,,,,,,,,,,,,,,,,,,,,,,,,,,,,,,,,,,,,,,,,,,,,,,,,,,,,,,,,,,,,,,,,,,,,,,,,,,,,,,,,,,,,,,,,,,,,,,,,,,,,,,,,,,,,,,,,,,,,,,,,,,,,,,,
1725710438.651323,1725710438.652021,112.0,0.0,4265.641113,4261.666504,4258.846191,4309.487305,4027.564209,4233.205078,4347.563965,4290.769043,4265.897461,4234.487305,4588.974121,4553.205078,4416.922852,4490.384766,0.0,1.0,15.0,,,,0.0,4.0,4.0,4.0,4.0,4.0,4.0,4.0,4.0,4.0,4.0,4.0,4.0,4.0,4.0,100.0,,,,,,,,,,,,,,,,,1.0,0.0,0.0,,,,,,,,,,,,,,,,,,,,,,,,,,,,,,,,,,,,,0.0,0.0,1.0,0.0,2048.0,0.105931,1.467779,0.963719,0.323238,0.201175,0.038699,0.890999,0.980576,0.632139,0.387149,0.058175,0.962831,0.45855,0.284119,0.105564,0.053325,0.90609,0.5597,0.462198,0.359026,0.082053,0.494067,0.117456,0.204925,0.196862,0.129549,0.298576,0.236214,0.097102,0.057194,0.039742,15.183305,2.829169,5.159108,1.00934,0.195048,0.736858,0.746806,0.930866,0.160158,0.128727,1.284312,0.776926,0.907163,0.18107,0.100003,1.89913,0.961048,1.186075,0.258487,0.123255,2.194649,1.74577,1.001684,0.559137,0.330142,2.292239,1.640261,0.61858,0.33757,0.134374,1.746391,2.261356,0.732533,0.378652,0.17654,2.002883,1.230294,0.532414,0.34871,0.074452
1725710438.655227,1725710438.655925,113.0,0.0,4265.512695,4263.974121,4258.974121,4310.641113,4025.897461,4234.230957,4340.641113,4284.102539,4263.461426,4232.436035,4583.717773,4550.512695,4415.512695,4490.0,0.0,1.0,15.0,,,,0.0,4.0,4.0,4.0,4.0,4.0,4.0,4.0,4.0,4.0,4.0,4.0,4.0,4.0,4.0,100.0,,,,,,,,,,,,,,,,,,,,,,,,,,,,,,,,,,,,,,,,,,,,,,,,,,,,,,,,,,,,,,,,,,,,,,,,,,,,,,,,,,,,,,,,,,,,,,,,,,,,,,,,,,,,,,,,,,,,,,,,,,,,,,,,,,,
1725710438.659131,1725710438.659829,114.0,0.0,4265.128418,4268.077148,4260.256348,4313.205078,4026.410156,4235.0,4336.153809,4278.589844,4262.436035,4229.102539,4580.641113,4551.794922,4416.538574,4490.256348,0.0,1.0,15.0,,,,0.0,4.0,4.0,4.0,4.0,4.0,4.0,4.0,4.0,4.0,4.0,4.0,4.0,4.0,4.0,100.0,,,,,,,,,,,,,,,,,,,,,,,,,,,,,,,,,,,,,,,,,,,,,,,,,,,,,,,,,,,,,,,,,,,,,,,,,,,,,,,,,,,,,,,,,,,,,,,,,,,,,,,,,,,,,,,,,,,,,,,,,,,,,,,,,,,
1725710438.663035,1725710438.663833,115.0,0.0,4265.128418,4271.282227,4262.05127,4315.897461,4027.179443,4235.512695,4332.563965,4277.05127,4263.974121,4226.025879,4580.0,4554.871582,4418.461426,4490.256348,0.0,1.0,15.0,,,,0.0,4.0,4.0,4.0,4.0,4.0,4.0,4.0,4.0,4.0,4.0,4.0,4.0,4.0,4.0,100.0,,,,,,,,,,,,,,,,,,,,,,,,,,,,,,,,,,,,,,,,,,,,,,,,,,,,,,,,,,,,,,,,,,,,,,,,,,,,,,,,,,,,,,,,,,,,,,,,,,,,,,,,,,,,,,,,,,,,,,,,,,,,,,,,,,,
1725710438.666939,1725710438.667737,116.0,0.0,4265.384766,4271.666504,4263.077148,4317.179688,4026.666748,4235.897461,4327.820313,4278.974121,4266.410156,4223.974121,4580.897461,4555.769043,4418.846191,4488.461426,0.0,1.0,15.0,,,,0.0,4.0,4.0,4.0,4.0,4.0,4.0,4.0,4.0,4.0,4.0,4.0,4.0,4.0,4.0,100.0,,,,,,,,,,,,,,,,,,,,,,,,,,,,,,,,,,,,,,,,,,,,,,,,,,,,,,,,,,,,,,,,,,,,,,,,,,,,,,,,,,,,,,,,,,,,,,,,,,,,,,,,,,,,,,,,,,,,,,,,,,,,,,,,,,,
1725710438.670843,1725710438.671641,117.0,0.0,4266.025879,4268.974121,4262.692383,4315.897461,4025.256348,4236.153809,4321.410156,4281.025879,4266.025879,4222.307617,4582.05127,4551.538574,4415.384766,4483.717773,0.0,1.0,15.0,,,,0.0,4.0,4.0,4.0,4.0,4.0,4.0,4.0,4.0,4.0,4.0,4.0,4.0,4.0,4.0,100.0,,,,,,,,,,,,,,,,,,,,,,,,,,,,,,,,,,,,,,,,,,,,,,,,,,,,,,,,,,,,,,,,,,,,,,,,,,,,,,,,,,,,,,,,,,,,,,,,,,,,,,,,,,,,,,,,,,,,,,,,,,,,,,,,,,,
1725710438.674747,1725710438.675545,118.0,0.0,4266.153809,4264.871582,4261.282227,4312.94873,4024.743652,4236.153809,4314.871582,4280.512695,4261.538574,4220.128418,4581.666504,4543.589844,4408.589844,4477.307617,0.0,1.0,15.0,,,,0.0,4.0,4.0,4.0,4.0,4.0,4.0,4.0,4.0,4.0,4.0,4.0,4.0,4.0,4.0,100.0,,,,,,,,,,,,,,,,,,,,,,,,,,,,,,,,,,,,,,,,,,,,,,,,,,,,,,,,,,,,,,,,,,,,,,,,,,,,,,,,,,,,,,,,,,,,,,,,,,,,,,,,,,,,,,,,,,,,,,,,,,,,,,,,,,,
1725710438.678651,1725710438.679449,119.0,0.0,4265.384766,4261.666504,4259.871582,4310.128418,4025.897461,4236.282227,4310.0,4278.077148,4255.256348,4217.563965,4578.461426,4536.282227,4401.153809,4472.05127,0.0,1.0,15.0,,,,0.0,4.0,4.0,4.0,4.0,4.0,4.0,4.0,4.0,4.0,4.0,4.0,4.0,4.0,4.0,100.0,,,,,,,,,,,,,,,,,,,,,,,,,,,,,,,,,,,,,,,,,,,,,,,,,,,,,,,,,,,,,,,,,,,,,,,,,,,,,,,,,,,,,,,,,,,,,,,,,,,,,,,,,,,,,,,,,,,,,,,,,,,,,,,,,,,
1725710438.682556,1725710438.683254,120.0,0.0,4263.846191,4261.025879,4259.615234,4308.846191,4028.333252,4236.666504,4307.692383,4276.666504,4251.153809,4215.512695,4571.794922,4533.717773,4395.769043,4470.384766,0.0,1.0,15.0,,,,0.0,4.0,4.0,4.0,4.0,4.0,4.0,4.0,4.0,4.0,4.0,4.0,4.0,4.0,4.0,100.0,,,,,,,,,,,,,,,,,,,,,,,,,,,,,,,,,,,,,,,,,,,,,,,,,,,,,,,,0.0,0.0,1.0,0.0,2048.0,0.105931,,,,,,,,,,,,,,,,,,,,,,,,,,,,,,,,,,,,,,,,,,,,,,,,,,,,,,,,,,,,,,,,,,,,,,
1725710438.68646,1725710438.687158,121.0,0.0,4262.563965,4262.692383,4260.512695,4309.358887,4030.897461,4236.922852,4307.307617,4277.692383,4251.794922,4214.743652,4563.205078,4535.512695,4393.461426,4471.794922,0.0,1.0,15.0,,,,0.0,4.0,4.0,4.0,4.0,4.0,4.0,4.0,4.0,4.0,4.0,4.0,4.0,4.0,4.0,100.0,,,,,,,,,,,,,,,,,,,,,,,,,,,,,,,,,,,,,,,,,,,,,,,,,,,,,,,,,,,,,,,,,,,,,,,,,,,,,,,,,,,,,,,,,,,,,,,,,,,,,,,,,,,,,,,,,,,,,,,,,,,,,,,,,,,
1725710438.690364,1725710438.691062,122.0,0.0,4262.436035,4265.512695,4261.794922,4310.384766,4033.205078,4236.794922,4306.794922,4279.871582,4256.538574,4215.128418,4555.769043,4537.563965,4393.717773,4473.589844,0.0,1.0,15.0,,,,0.0,4.0,4.0,4.0,4.0,4.0,4.0,4.0,4.0,4.0,4.0,4.0,4.0,4.0,4.0,100.0,,,,,,,,,,,,,,,,,,,,,,,,,,,,,,,,,,,,,,,,,,,,,,,,,,,,,,,,,,,,,,,,,,,,,,,,,,,,,,,,,,,,,,,,,,,,,,,,,,,,,,,,,,,,,,,,,,,,,,,,,,,,,,,,,,,
1725710438.694268,1725710438.694966,123.0,0.0,4263.205078,4267.563965,4262.436035,4310.769043,4035.384521,4236.153809,4304.615234,4280.512695,4261.922852,4216.153809,4552.820313,4535.769043,4395.512695,4472.563965,0.0,1.0,15.0,,,,0.0,4.0,4.0,4.0,4.0,4.0,4.0,4.0,4.0,4.0,4.0,4.0,4.0,4.0,4.0,100.0,,,,,,,,,,,,,,,,,,,,,,,,,,,,,,,,,,,,,,,,,,,,,,,,,,,,,,,,,,,,,,,,,,,,,,,,,,,,,,,,,,,,,,,,,,,,,,,,,,,,,,,,,,,,,,,,,,,,,,,,,,,,,,,,,,,
1725710438.698172,1725710438.69877,124.0,0.0,4264.102539,4267.563965,4262.05127,4309.871582,4037.692383,4235.641113,4300.769043,4279.102539,4264.871582,4216.538574,4554.615234,4529.871582,4397.436035,4467.436035,0.0,1.0,15.0,,,,0.0,4.0,4.0,4.0,4.0,4.0,4.0,4.0,4.0,4.0,4.0,4.0,4.0,4.0,4.0,100.0,,,,,,,,,,,,,,,,,,,,,,,,,,,,,,,,,,,,,,,,,,,,,,,,,,,,,,,,,,,,,,,,,,,,,,,,,,,,,,,,,,,,,,,,,,,,,,,,,,,,,,,,,,,,,,,,,,,,,,,,,,,,,,,,,,,
1725710438.702076,1725710438.702674,125.0,0.0,4264.615234,4265.512695,4260.897461,4308.846191,4040.256348,4235.512695,4297.179688,4278.205078,4264.615234,4216.153809,4558.717773,4523.333496,4397.692383,4459.871582,0.0,1.0,15.0,,,,0.0,4.0,4.0,4.0,4.0,4.0,4.0,4.0,4.0,4.0,4.0,4.0,4.0,4.0,4.0,100.0,,,,,,,,,,,,,,,,,,,,,,,,,,,,,,,,,,,,,,,,,,,,,,,,,,,,,,,,,,,,,,,,,,,,,,,,,,,,,,,,,,,,,,,,,,,,,,,,,,,,,,,,,,,,,,,,,,,,,,,,,,,,,,,,,,,
1725710438.70598,1725710438.706578,126.0,0.0,4265.0,4262.820313,4260.128418,4308.846191,4042.564209,4236.153809,4295.641113,4280.641113,4263.717773,4215.641113,4562.307617,4520.641113,4395.769043,4453.846191,0.0,1.0,15.0,,,,0.0,4.0,4.0,4.0,4.0,4.0,4.0,4.0,4.0,4.0,4.0,4.0,4.0,4.0,4.0,100.0,,,,,,,,,,,,,,,,,,,,,,,,,,,,,,,,,,,,,,,,,,,,,,,,,,,,,,,,,,,,,,,,,,,,,,,,,,,,,,,,,,,,,,,,,,,,,,,,,,,,,,,,,,,,,,,,,,,,,,,,,,,,,,,,,,,
1725710438.709884,1725710438.710482,127.0,0.0,4265.256348,4261.025879,4260.256348,4310.256348,4044.358887,4237.05127,4296.410156,4286.666504,4264.230957,4215.641113,4565.256348,4524.102539,4393.077148,4453.461426,0.0,1.0,15.0,,,,0.0,4.0,4.0,4.0,4.0,4.0,4.0,4.0,4.0,4.0,4.0,4.0,4.0,4.0,4.0,100.0,,,,,,,,,,,,,,,,,,,,,,,,,,,,,,,,,,,,,,,,,,,,,,,,,,,,,,,,,,,,,,,,,,,,,,,,,,,,,,,,,,,,,,,,,,,,,,,,,,,,,,,,,,,,,,,,,,,,,,,,,,,,,,,,,,,
1725710438.713788,1725710438.714287,128.0,0.0,4265.512695,4260.384766,4260.897461,4311.666504,4045.256348,4236.922852,4297.563965,4293.461426,4266.794922,4216.666504,4569.871582,4531.666504,4391.538574,4459.102539,2702.0,1.0,15.0,,,,0.0,4.0,4.0,4.0,4.0,4.0,4.0,4.0,4.0,4.0,4.0,4.0,4.0,4.0,4.0,100.0,,,,,,,,,,,,,,,,,,,,,,,,,,,,,,,,,,,,,,,,,,,,,,,,,,,,,,,,0.0,0.0,1.0,0.0,2048.0,0.105931,,,,,,,,,,,,,,,,,,,,,,,,,,,,,,,,,,,,,,,,,,,,,,,,,,,,,,,,,,,,,,,,,,,,,,
1725710438.717692,1725710438.718191,129.0,0.0,4265.512695,4260.384766,4261.666504,4311.410156,4045.384521,4235.0,4296.153809,4297.307617,4268.846191,4217.820313,4577.820313,4539.230957,4391.538574,4466.794922,2580.0,1.0,15.0,,,,0.0,4.0,4.0,4.0,4.0,4.0,4.0,4.0,4.0,4.0,4.0,4.0,4.0,4.0,4.0,100.0,,,,,,,,,,,,,,,,,,,,,,,,,,,,,,,,,,,,,,,,,,,,,,,,,,,,,,,,,,,,,,,,,,,,,,,,,,,,,,,,,,,,,,,,,,,,,,,,,,,,,,,,,,,,,,,,,,,,,,,,,,,,,,,,,,,
1725710438.721596,1725710438.722095,130.0,0.0,4264.615234,4260.128418,4261.922852,4309.230957,4045.769287,4232.307617,4291.666504,4296.538574,4268.077148,4217.563965,4588.077148,4543.077148,4392.05127,4470.897461,2515.0,1.0,15.0,,,,0.0,4.0,4.0,4.0,4.0,4.0,4.0,4.0,4.0,4.0,4.0,4.0,4.0,4.0,4.0,100.0,,,,,,,,,,,,,,,,,,,,,,,,,,,,,,,,,,,,,,,,,,,,,,,,,,,,,,,,,,,,,,,,,,,,,,,,,,,,,,,,,,,,,,,,,,,,,,,,,,,,,,,,,,,,,,,,,,,,,,,,,,,,,,,,,,,
1725710438.7255,1725710438.725899,131.0,0.0,4262.94873,4259.871582,4261.922852,4307.436035,4047.94873,4230.897461,4286.153809,4292.820313,4264.743652,4215.769043,4596.538574,4542.307617,4391.410156,4469.487305,2488.0,1.0,15.0,,,,0.0,4.0,4.0,4.0,4.0,4.0,4.0,4.0,4.0,4.0,4.0,4.0,4.0,4.0,4.0,100.0,,,,,,,,,,,,,,,,,,,,,,,,,,,,,,,,,,,,,,,,,,,,,,,,,,,,,,,,,,,,,,,,,,,,,,,,,,,,,,,,,,,,,,,,,,,,,,,,,,,,,,,,,,,,,,,,,,,,,,,,,,,,,,,,,,,
1725710438.729405,1725710438.729803,132.0,0.0,4261.794922,4260.0,4262.179688,4308.205078,4052.435791,4232.692383,4282.94873,4289.230957,4261.410156,4213.974121,4600.641113,4539.358887,4390.128418,4465.384766,2458.0,1.0,15.0,,,,0.0,4.0,4.0,4.0,4.0,4.0,4.0,4.0,4.0,4.0,4.0,4.0,4.0,4.0,4.0,100.0,,,,,,,,,,,,,,,,,,,,,,,,,,,,,,,,,,,,,,,,,,,,,,,,,,,,,,,,,,,,,,,,,,,,,,,,,,,,,,,,,,,,,,,,,,,,,,,,,,,,,,,,,,,,,,,,,,,,,,,,,,,,,,,,,,,
1725710438.733309,1725710438.733707,133.0,0.0,4261.922852,4261.282227,4262.820313,4312.05127,4058.718018,4237.179688,4283.205078,4287.563965,4261.025879,4213.846191,4600.384766,4537.563965,4389.743652,4463.333496,2413.0,1.0,15.0,,,,0.0,4.0,4.0,4.0,4.0,4.0,4.0,4.0,4.0,4.0,4.0,4.0,4.0,4.0,4.0,100.0,,,,,,,,,,,,,,,,,,,,,,,,,,,,,,,,,,,,,,,,,,,,,,,,,,,,,,,,,,,,,,,,,,,,,,,,,,,,,,,,,,,,,,,,,,,,,,,,,,,,,,,,,,,,,,,,,,,,,,,,,,,,,,,,,,,
1725710438.737213,1725710438.737711,134.0,0.0,4263.461426,4263.205078,4263.846191,4317.307617,4065.384521,4241.922852,4284.871582,4287.436035,4263.205078,4215.384766,4598.589844,4538.333496,4391.410156,4465.769043,2468.0,1.0,15.0,,,,0.0,4.0,4.0,4.0,4.0,4.0,4.0,4.0,4.0,4.0,4.0,4.0,4.0,4.0,4.0,100.0,,,,,,,,,,,,,,,,,,,,,,,,,,,,,,,,,,,,,,,,,,,,,,,,,,,,,,,,,,,,,,,,,,,,,,,,,,,,,,,,,,,,,,,,,,,,,,,,,,,,,,,,,,,,,,,,,,,,,,,,,,,,,,,,,,,
1725710438.741117,1725710438.741615,135.0,0.0,4265.769043,4264.871582,4265.0,4321.153809,4071.153809,4243.974121,4284.615234,4287.563965,4264.743652,4216.538574,4598.333496,4540.641113,4395.128418,4471.025879,2488.0,1.0,15.0,,,,0.0,4.0,4.0,4.0,4.0,4.0,4.0,4.0,4.0,4.0,4.0,4.0,4.0,4.0,4.0,100.0,,,,,,,,,,,,,,,,,,,,,,,,,,,,,,,,,,,,,,,,,,,,,,,,,,,,,,,,,,,,,,,,,,,,,,,,,,,,,,,,,,,,,,,,,,,,,,,,,,,,,,,,,,,,,,,,,,,,,,,,,,,,,,,,,,,
1725710438.745021,1725710438.745519,136.0,0.0,4267.436035,4265.0,4265.769043,4321.538574,4074.871826,4241.922852,4280.641113,4286.410156,4262.820313,4215.256348,4600.769043,4542.05127,4398.717773,4475.0,2476.0,1.0,15.0,,,,0.0,4.0,4.0,4.0,4.0,4.0,4.0,4.0,4.0,4.0,4.0,4.0,4.0,4.0,4.0,100.0,,,,,,,,,,,,,,,,,,,,,,,,,,,,,,,,,,,,,,,,,,,,,,,,,,,,,,,,0.0,0.0,1.0,0.0,2048.0,0.105931,,,,,,,,,,,,,,,,,,,,,,,,,,,,,,,,,,,,,,,,,,,,,,,,,,,,,,,,,,,,,,,,,,,,,,
1725710438.748925,1725710438.749424,137.0,0.0,4267.692383,4263.974121,4265.769043,4318.205078,4075.897461,4237.179688,4273.846191,4284.358887,4258.333496,4211.153809,4604.230957,4541.538574,4399.358887,4475.641113,2581.0,1.0,15.0,,,,0.0,4.0,4.0,4.0,4.0,4.0,4.0,4.0,4.0,4.0,4.0,4.0,4.0,4.0,4.0,100.0,,,,,,,,,,,,,,,,,,,,,,,,,,,,,,,,,,,,,,,,,,,,,,,,,,,,,,,,,,,,,,,,,,,,,,,,,,,,,,,,,,,,,,,,,,,,,,,,,,,,,,,,,,,,,,,,,,,,,,,,,,,,,,,,,,,
1725710438.752829,1725710438.753428,138.0,0.0,4267.05127,4262.692383,4265.256348,4313.589844,4075.128174,4232.692383,4267.307617,4282.179688,4254.358887,4205.769043,4605.512695,4540.128418,4396.025879,4473.717773,2919.0,1.0,15.0,,,,0.0,4.0,4.0,4.0,4.0,4.0,4.0,4.0,4.0,4.0,4.0,4.0,4.0,4.0,4.0,100.0,,,,,,,,,,,,,,,,,,,,,,,,,,,,,,,,,,,,,,,,,,,,,,,,,,,,,,,,,,,,,,,,,,,,,,,,,,,,,,,,,,,,,,,,,,,,,,,,,,,,,,,,,,,,,,,,,,,,,,,,,,,,,,,,,,,
1725710438.756733,1725710438.757332,139.0,0.0,4266.410156,4262.179688,4264.358887,4310.384766,4074.358887,4230.641113,4263.461426,4281.025879,4253.846191,4201.922852,4603.461426,4538.846191,4390.0,4471.538574,3161.0,1.0,15.0,,,,0.0,4.0,4.0,4.0,4.0,4.0,4.0,4.0,4.0,4.0,4.0,4.0,4.0,4.0,4.0,100.0,,,,,,,,,,,,,,,,,,,,,,,,,,,,,,,,,,,,,,,,,,,,,,,,,,,,,,,,,,,,,,,,,,,,,,,,,,,,,,,,,,,,,,,,,,,,,,,,,,,,,,,,,,,,,,,,,,,,,,,,,,,,,,,,,,,
1725710438.760637,1725710438.761236,140.0,0.0,4266.282227,4262.05127,4263.974121,4309.871582,4075.512939,4231.410156,4261.666504,4280.512695,4257.692383,4200.769043,4600.512695,4538.077148,4385.128418,4470.512695,3425.0,1.0,15.0,,,,0.0,4.0,4.0,4.0,4.0,4.0,4.0,4.0,4.0,4.0,4.0,4.0,4.0,4.0,4.0,100.0,,,,,,,,,,,,,,,,,,,,,,,,,,,,,,,,,,,,,,,,,,,,,,,,,,,,,,,,,,,,,,,,,,,,,,,,,,,,,,,,,,,,,,,,,,,,,,,,,,,,,,,,,,,,,,,,,,,,,,,,,,,,,,,,,,,
1725710438.764542,1725710438.76514,141.0,0.0,4266.153809,4260.897461,4264.102539,4311.282227,4079.487061,4233.461426,4260.0,4279.358887,4263.077148,4201.666504,4600.128418,4537.05127,4384.487305,4470.641113,3961.0,1.0,15.0,,,,0.0,4.0,4.0,4.0,4.0,4.0,4.0,4.0,4.0,4.0,4.0,4.0,4.0,4.0,4.0,100.0,,,,,,,,,,,,,,,,,,,,,,,,,,,,,,,,,,,,,,,,,,,,,,,,,,,,,,,,,,,,,,,,,,,,,,,,,,,,,,,,,,,,,,,,,,,,,,,,,,,,,,,,,,,,,,,,,,,,,,,,,,,,,,,,,,,
1725710438.768446,1725710438.769144,142.0,0.0,4265.512695,4257.94873,4264.487305,4312.563965,4084.487061,4235.128418,4256.282227,4277.05127,4266.282227,4202.436035,4603.077148,4534.615234,4388.077148,4470.256348,2919.0,1.0,15.0,,,,0.0,4.0,4.0,4.0,4.0,4.0,4.0,4.0,4.0,4.0,4.0,4.0,4.0,4.0,4.0,100.0,,,,,,,,,,,,,,,,,,,,,,,,,,,,,,,,,,,,,,,,,,,,,,,,,,,,,,,,,,,,,,,,,,,,,,,,,,,,,,,,,,,,,,,,,,,,,,,,,,,,,,,,,,,,,,,,,,,,,,,,,,,,,,,,,,,
1725710438.77235,1725710438.773048,143.0,0.0,4264.487305,4253.846191,4264.743652,4312.307617,4087.692383,4235.641113,4250.256348,4274.230957,4263.974121,4201.922852,4606.538574,4531.025879,4391.794922,4468.077148,3161.0,1.0,15.0,,,,0.0,4.0,4.0,4.0,4.0,4.0,4.0,4.0,4.0,4.0,4.0,4.0,4.0,4.0,4.0,100.0,,,,,,,,,,,,,,,,,,,,,,,,,,,,,,,,,,,,,,,,,,,,,,,,,,,,,,,,,,,,,,,,,,,,,,,,,,,,,,,,,,,,,,,,,,,,,,,,,,,,,,,,,,,,,,,,,,,,,,,,,,,,,,,,,,,
1725710438.776254,1725710438.776952,144.0,0.0,4263.077148,4249.743652,4264.487305,4310.384766,4087.435791,4234.743652,4243.333496,4272.307617,4257.05127,4200.512695,4606.922852,4526.922852,4390.769043,4463.461426,3425.0,1.0,15.0,,,,0.0,4.0,4.0,4.0,4.0,4.0,4.0,4.0,4.0,4.0,4.0,4.0,4.0,4.0,4.0,100.0,1.0,50.0,4.0,4.0,4.0,4.0,1.0,4.0,1.0,4.0,4.0,4.0,4.0,4.0,4.0,4.0,1.0,0.0,0.0,,,,,,,,,,,,,,,,,,,,,,,,,,,,,,,,,,,,,0.0,0.0,1.0,0.0,1.0,0.0,1.274891,0.750902,0.289412,0.165863,0.038235,0.689933,0.707119,0.483575,0.305684,0.055692,0.857506,0.433131,0.209251,0.093722,0.052854,0.781975,0.457723,0.376511,0.306566,0.081175,0.523719,0.090398,0.17093,0.187346,0.120478,0.306976,0.233604,0.112794,0.053414,0.036639,13.257472,2.736393,4.274131,0.881014,0.1759,0.708065,0.743793,0.881204,0.140619,0.119295,1.161401,0.890985,0.804529,0.169227,0.105433,1.527057,0.944231,1.001998,0.19739,0.114293,2.258792,1.402226,0.956909,0.510229,0.34314,2.500228,1.333422,0.532006,0.325996,0.13145,1.655684,1.734997,0.626966,0.314568,0.17522,2.22761,1.141599,0.501104,0.340024,0.088252
1725710438.780158,1725710438.780856,145.0,0.0,4261.538574,4246.538574,4263.589844,4308.333496,4084.358887,4233.333496,4236.538574,4271.922852,4250.128418,4200.128418,4604.102539,4523.589844,4384.358887,4457.94873,3961.0,1.0,15.0,,,,0.0,4.0,4.0,4.0,4.0,4.0,4.0,4.0,4.0,4.0,4.0,4.0,4.0,4.0,4.0,100.0,,,,,,,,,,,,,,,,,,,,,,,,,,,,,,,,,,,,,,,,,,,,,,,,,,,,,,,,,,,,,,,,,,,,,,,,,,,,,,,,,,,,,,,,,,,,,,,,,,,,,,,,,,,,,,,,,,,,,,,,,,,,,,,,,,,
1725710438.784062,1725710438.78486,146.0,0.0,4259.743652,4244.743652,4262.436035,4307.820313,4081.153809,4231.922852,4230.0,4272.692383,4247.820313,4202.05127,4601.025879,4521.538574,4377.307617,4454.615234,2919.0,1.0,15.0,,,,0.0,4.0,4.0,4.0,4.0,4.0,4.0,4.0,4.0,4.0,4.0,4.0,4.0,4.0,4.0,100.0,,,,,,,,,,,,,,,,,,,,,,,,,,,,,,,,,,,,,,,,,,,,,,,,,,,,,,,,,,,,,,,,,,,,,,,,,,,,,,,,,,,,,,,,,,,,,,,,,,,,,,,,,,,,,,,,,,,,,,,,,,,,,,,,,,,
1725710438.787966,1725710438.788764,147.0,0.0,4257.820313,4243.461426,4261.538574,4308.589844,4080.769287,4230.897461,4222.94873,4273.974121,4251.794922,4205.641113,4601.282227,4521.282227,4375.769043,4455.0,3161.0,1.0,15.0,,,,0.0,4.0,4.0,4.0,4.0,4.0,4.0,4.0,4.0,4.0,4.0,4.0,4.0,4.0,4.0,100.0,,,,,,,,,,,,,,,,,,,,,,,,,,,,,,,,,,,,,,,,,,,,,,,,,,,,,,,,,,,,,,,,,,,,,,,,,,,,,,,,,,,,,,,,,,,,,,,,,,,,,,,,,,,,,,,,,,,,,,,,,,,,,,,,,,,
1725710438.79187,1725710438.792668,148.0,0.0,4255.769043,4242.436035,4261.153809,4308.974121,4083.718018,4230.384766,4215.0,4275.641113,4259.102539,4208.717773,4605.0,4521.922852,4381.025879,4457.94873,3425.0,1.0,15.0,,,,0.0,4.0,4.0,4.0,4.0,4.0,4.0,4.0,4.0,4.0,4.0,4.0,4.0,4.0,4.0,100.0,,,,,,,,,,,,,,,,,,,,,,,,,,,,,,,,,,,,,,,,,,,,,,,,,,,,,,,,,,,,,,,,,,,,,,,,,,,,,,,,,,,,,,,,,,,,,,,,,,,,,,,,,,,,,,,,,,,,,,,,,,,,,,,,,,,
1725710438.795774,1725710438.796572,149.0,0.0,4254.230957,4241.922852,4261.410156,4307.563965,4087.820557,4230.769043,4207.05127,4277.563965,4265.128418,4208.974121,4609.615234,4522.820313,4388.717773,4460.769043,3961.0,1.0,15.0,,,,0.0,4.0,4.0,4.0,4.0,4.0,4.0,4.0,4.0,4.0,4.0,4.0,4.0,4.0,4.0,100.0,,,,,,,,,,,,,,,,,,,,,,,,,,,,,,,,,,,,,,,,,,,,,,,,,,,,,,,,,,,,,,,,,,,,,,,,,,,,,,,,,,,,,,,,,,,,,,,,,,,,,,,,,,,,,,,,,,,,,,,,,,,,,,,,,,,
1725710438.799678,1725710438.800477,150.0,0.0,4253.717773,4242.820313,4261.666504,4304.487305,4090.769287,4232.05127,4200.512695,4279.230957,4266.794922,4206.282227,4611.410156,4523.589844,4393.333496,4462.179688,2919.0,1.0,15.0,,,,0.0,4.0,4.0,4.0,4.0,4.0,4.0,4.0,4.0,4.0,4.0,4.0,4.0,4.0,4.0,100.0,,,,,,,,,,,,,,,,,,,,,,,,,,,,,,,,,,,,,,,,,,,,,,,,,,,,,,,,,,,,,,,,,,,,,,,,,,,,,,,,,,,,,,,,,,,,,,,,,,,,,,,,,,,,,,,,,,,,,,,,,,,,,,,,,,,
1725710438.803583,1725710438.804381,151.0,0.0,4254.487305,4245.769043,4261.538574,4301.922852,4091.410156,4233.205078,4196.025879,4279.615234,4264.487305,4202.179688,4608.717773,4523.717773,4392.05127,4462.179688,3161.0,1.0,15.0,,,,0.0,4.0,4.0,4.0,4.0,4.0,4.0,4.0,4.0,4.0,4.0,4.0,4.0,4.0,4.0,100.0,,,,,,,,,,,,,,,,,,,,,,,,,,,,,,,,,,,,,,,,,,,,,,,,,,,,,,,,,,,,,,,,,,,,,,,,,,,,,,,,,,,,,,,,,,,,,,,,,,,,,,,,,,,,,,,,,,,,,,,,,,,,,,,,,,,
1725710438.807487,1725710438.808285,152.0,0.0,4256.282227,4248.846191,4261.153809,4301.666504,4091.153809,4232.692383,4192.820313,4278.333496,4261.153809,4199.743652,4602.692383,4523.077148,4386.794922,4461.794922,3425.0,1.0,15.0,,,,0.0,4.0,4.0,4.0,4.0,4.0,4.0,4.0,4.0,4.0,4.0,4.0,4.0,4.0,4.0,100.0,,,,,,,,,,,,,,,,,,,,,,,,,,,,,,,,,,,,,,,,,,,,,,,,,,,,,,,,0.0,0.0,1.0,0.0,1.0,0.0,,,,,,,,,,,,,,,,,,,,,,,,,,,,,,,,,,,,,,,,,,,,,,,,,,,,,,,,,,,,,,,,,,,,,,
1725710438.811391,1725710438.812189,153.0,0.0,4257.94873,4249.230957,4260.641113,4304.102539,4092.05127,4230.512695,4189.102539,4275.897461,4259.230957,4200.512695,4596.922852,4521.666504,4382.05127,4461.282227,3961.0,1.0,15.0,,,,0.0,4.0,4.0,4.0,4.0,4.0,4.0,4.0,4.0,4.0,4.0,4.0,4.0,4.0,4.0,100.0,,,,,,,,,,,,,,,,,,,,,,,,,,,,,,,,,,,,,,,,,,,,,,,,,,,,,,,,,,,,,,,,,,,,,,,,,,,,,,,,,,,,,,,,,,,,,,,,,,,,,,,,,,,,,,,,,,,,,,,,,,,,,,,,,,,
1725710438.815295,1725710438.815993,154.0,0.0,4258.846191,4245.512695,4260.769043,4307.692383,4095.769287,4228.205078,4183.846191,4273.333496,4260.0,4204.230957,4595.641113,4520.769043,4381.922852,4460.512695,2919.0,1.0,15.0,,,,0.0,4.0,4.0,4.0,4.0,4.0,4.0,4.0,4.0,4.0,4.0,4.0,4.0,4.0,4.0,100.0,,,,,,,,,,,,,,,,,,,,,,,,,,,,,,,,,,,,,,,,,,,,,,,,,,,,,,,,,,,,,,,,,,,,,,,,,,,,,,,,,,,,,,,,,,,,,,,,,,,,,,,,,,,,,,,,,,,,,,,,,,,,,,,,,,,
1725710438.819199,1725710438.819897,155.0,0.0,4259.102539,4238.717773,4261.666504,4310.769043,4101.922852,4228.205078,4177.05127,4272.307617,4262.820313,4209.487305,4600.641113,4521.922852,4387.692383,4460.769043,3161.0,1.0,15.0,,,,0.0,4.0,4.0,4.0,4.0,4.0,4.0,4.0,4.0,4.0,4.0,4.0,4.0,4.0,4.0,100.0,,,,,,,,,,,,,,,,,,,,,,,,,,,,,,,,,,,,,,,,,,,,,,,,,,,,,,,,,,,,,,,,,,,,,,,,,,,,,,,,,,,,,,,,,,,,,,,,,,,,,,,,,,,,,,,,,,,,,,,,,,,,,,,,,,,
1725710438.823103,1725710438.823801,156.0,0.0,4259.487305,4232.563965,4262.820313,4312.05127,4107.94873,4230.897461,4170.128418,4274.230957,4266.282227,4214.871582,4610.384766,4525.897461,4396.666504,4462.820313,3425.0,1.0,15.0,,,,0.0,4.0,4.0,4.0,4.0,4.0,4.0,4.0,4.0,4.0,4.0,4.0,4.0,4.0,4.0,100.0,,,,,,,,,,,,,,,,,,,,,,,,,,,,,,,,,,,,,,,,,,,,,,,,,,,,,,,,,,,,,,,,,,,,,,,,,,,,,,,,,,,,,,,,,,,,,,,,,,,,,,,,,,,,,,,,,,,,,,,,,,,,,,,,,,,
1725710438.827007,1725710438.827705,157.0,0.0,4260.769043,4230.512695,4263.846191,4311.922852,4111.025879,4234.358887,4163.846191,4278.333496,4268.461426,4218.205078,4620.128418,4532.05127,4402.94873,4466.025879,3961.0,1.0,15.0,,,,0.0,4.0,4.0,4.0,4.0,4.0,4.0,4.0,4.0,4.0,4.0,4.0,4.0,4.0,4.0,100.0,,,,,,,,,,,,,,,,,,,,,,,,,,,,,,,,,,,,,,,,,,,,,,,,,,,,,,,,,,,,,,,,,,,,,,,,,,,,,,,,,,,,,,,,,,,,,,,,,,,,,,,,,,,,,,,,,,,,,,,,,,,,,,,,,,,
1725710438.830911,1725710438.83151,158.0,0.0,4262.307617,4233.461426,4263.974121,4311.282227,4110.512695,4235.897461,4157.436035,4282.179688,4268.333496,4217.179688,4623.846191,4536.666504,4402.307617,4467.563965,2919.0,1.0,15.0,,,,0.0,4.0,4.0,4.0,4.0,4.0,4.0,4.0,4.0,4.0,4.0,4.0,4.0,4.0,4.0,100.0,,,,,,,,,,,,,,,,,,,,,,,,,,,,,,,,,,,,,,,,,,,,,,,,,,,,,,,,,,,,,,,,,,,,,,,,,,,,,,,,,,,,,,,,,,,,,,,,,,,,,,,,,,,,,,,,,,,,,,,,,,,,,,,,,,,
1725710438.834815,1725710438.835414,159.0,0.0,4263.333496,4239.358887,4263.205078,4311.794922,4108.461426,4234.102539,4150.0,4282.436035,4266.282227,4210.641113,4618.974121,4536.282227,4395.128418,4465.641113,3161.0,1.0,15.0,,,,0.0,4.0,4.0,4.0,4.0,4.0,4.0,4.0,4.0,4.0,4.0,4.0,4.0,4.0,4.0,100.0,,,,,,,,,,,,,,,,,,,,,,,,,,,,,,,,,,,,,,,,,,,,,,,,,,,,,,,,,,,,,,,,,,,,,,,,,,,,,,,,,,,,,,,,,,,,,,,,,,,,,,,,,,,,,,,,,,,,,,,,,,,,,,,,,,,
1725710438.838719,1725710438.839318,160.0,0.0,4263.461426,4245.128418,4262.179688,4313.974121,4107.692383,4230.512695,4142.307617,4278.205078,4263.589844,4200.128418,4608.333496,4530.256348,4386.794922,4461.538574,3425.0,1.0,15.0,,,,0.0,4.0,4.0,4.0,4.0,4.0,4.0,4.0,4.0,4.0,4.0,4.0,4.0,4.0,4.0,100.0,,,,,,,,,,,,,,,,,,,,,,,,,,,,,,,,,,,,,,,,,,,,,,,,,,,,,,,,0.0,0.0,1.0,0.0,1.0,0.0,,,,,,,,,,,,,,,,,,,,,,,,,,,,,,,,,,,,,,,,,,,,,,,,,,,,,,,,,,,,,,,,,,,,,,
1725710438.842624,1725710438.843322,161.0,0.0,4262.94873,4249.102539,4261.538574,4317.692383,4109.615234,4227.436035,4135.897461,4271.666504,4261.666504,4190.384766,4598.333496,4522.436035,4383.589844,4459.102539,3961.0,1.0,15.0,,,,0.0,4.0,4.0,4.0,4.0,4.0,4.0,4.0,4.0,4.0,4.0,4.0,4.0,4.0,4.0,100.0,,,,,,,,,,,,,,,,,,,,,,,,,,,,,,,,,,,,,,,,,,,,,,,,,,,,,,,,,,,,,,,,,,,,,,,,,,,,,,,,,,,,,,,,,,,,,,,,,,,,,,,,,,,,,,,,,,,,,,,,,,,,,,,,,,,
1725710438.846528,1725710438.847226,162.0,0.0,4262.94873,4251.025879,4261.666504,4321.794922,4113.846191,4226.922852,4132.436035,4267.692383,4261.153809,4186.794922,4595.641113,4518.461426,4388.974121,4461.025879,2919.0,1.0,15.0,,,,0.0,4.0,4.0,4.0,4.0,4.0,4.0,4.0,4.0,4.0,4.0,4.0,4.0,4.0,4.0,100.0,,,,,,,,,,,,,,,,,,,,,,,,,,,,,,,,,,,,,,,,,,,,,,,,,,,,,,,,,,,,,,,,,,,,,,,,,,,,,,,,,,,,,,,,,,,,,,,,,,,,,,,,,,,,,,,,,,,,,,,,,,,,,,,,,,,
1725710438.850432,1725710438.85113,163.0,0.0,4263.589844,4251.666504,4262.563965,4325.128418,4118.205078,4228.717773,4132.179688,4269.358887,4262.436035,4192.05127,4602.563965,4521.922852,4400.897461,4467.307617,3161.0,1.0,15.0,,,,0.0,4.0,4.0,4.0,4.0,4.0,4.0,4.0,4.0,4.0,4.0,4.0,4.0,4.0,4.0,100.0,,,,,,,,,,,,,,,,,,,,,,,,,,,,,,,,,,,,,,,,,,,,,,,,,,,,,,,,,,,,,,,,,,,,,,,,,,,,,,,,,,,,,,,,,,,,,,,,,,,,,,,,,,,,,,,,,,,,,,,,,,,,,,,,,,,
1725710438.854336,1725710438.855034,164.0,0.0,4264.358887,4251.153809,4263.974121,4327.307617,4121.153809,4231.153809,4133.205078,4275.256348,4264.743652,4203.717773,4615.256348,4530.769043,4413.589844,4474.743652,3425.0,1.0,15.0,,,,0.0,4.0,4.0,4.0,4.0,4.0,4.0,4.0,4.0,4.0,4.0,4.0,4.0,4.0,4.0,100.0,,,,,,,,,,,,,,,,,,,,,,,,,,,,,,,,,,,,,,,,,,,,,,,,,,,,,,,,,,,,,,,,,,,,,,,,,,,,,,,,,,,,,,,,,,,,,,,,,,,,,,,,,,,,,,,,,,,,,,,,,,,,,,,,,,,
1725710438.85824,1725710438.859038,165.0,0.0,4264.743652,4250.256348,4265.512695,4328.333496,4122.05127,4232.563965,4133.333496,4280.769043,4266.794922,4214.743652,4626.153809,4539.358887,4420.512695,4479.743652,3961.0,1.0,15.0,,,,0.0,4.0,4.0,4.0,4.0,4.0,4.0,4.0,4.0,4.0,4.0,4.0,4.0,4.0,4.0,100.0,,,,,,,,,,,,,,,,,,,,,,,,,,,,,,,,,,,,,,,,,,,,,,,,,,,,,,,,,,,,,,,,,,,,,,,,,,,,,,,,,,,,,,,,,,,,,,,,,,,,,,,,,,,,,,,,,,,,,,,,,,,,,,,,,,,
1725710438.862144,1725710438.862942,166.0,0.0,4264.615234,4249.358887,4266.538574,4328.589844,4121.794922,4232.179688,4131.538574,4281.282227,4267.436035,4218.974121,4629.358887,4542.05127,4418.461426,4480.128418,2919.0,1.0,15.0,,,,0.0,4.0,4.0,4.0,4.0,4.0,4.0,4.0,4.0,4.0,4.0,4.0,4.0,4.0,4.0,100.0,,,,,,,,,,,,,,,,,,,,,,,,,,,,,,,,,,,,,,,,,,,,,,,,,,,,,,,,,,,,,,,,,,,,,,,,,,,,,,,,,,,,,,,,,,,,,,,,,,,,,,,,,,,,,,,,,,,,,,,,,,,,,,,,,,,
1725710438.866048,1725710438.866846,167.0,0.0,4264.230957,4248.846191,4266.410156,4327.94873,4121.410156,4230.769043,4128.205078,4276.538574,4266.538574,4214.871582,4624.871582,4538.205078,4409.743652,4476.922852,3161.0,1.0,15.0,,,,0.0,4.0,4.0,4.0,4.0,4.0,4.0,4.0,4.0,4.0,4.0,4.0,4.0,4.0,4.0,100.0,,,,,,,,,,,,,,,,,,,,,,,,,,,,,,,,,,,,,,,,,,,,,,,,,,,,,,,,,,,,,,,,,,,,,,,,,,,,,,,,,,,,,,,,,,,,,,,,,,,,,,,,,,,,,,,,,,,,,,,,,,,,,,,,,,,
1725710438.869952,1725710438.87075,168.0,0.0,4263.974121,4248.717773,4265.256348,4327.05127,4121.666504,4229.615234,4124.871582,4270.256348,4264.871582,4206.794922,4617.692383,4531.922852,4400.128418,4472.94873,3425.0,1.0,15.0,,,,0.0,4.0,4.0,4.0,4.0,4.0,4.0,4.0,4.0,4.0,4.0,4.0,4.0,4.0,4.0,100.0,,,,,,,,,,,,,,,,,,,,,,,,,,,,,,,,,,,,,,,,,,,,,,,,,,,,,,,,0.0,0.0,1.0,0.0,1.0,0.0,,,,,,,,,,,,,,,,,,,,,,,,,,,,,,,,,,,,,,,,,,,,,,,,,,,,,,,,,,,,,,,,,,,,,,
1725710438.873856,1725710438.874655,169.0,0.0,4263.974121,4248.333496,4264.230957,4326.282227,4122.820313,4229.743652,4123.333496,4267.307617,4263.717773,4201.025879,4614.102539,4528.846191,4395.769043,4471.666504,3961.0,1.0,15.0,,,,0.0,4.0,4.0,4.0,4.0,4.0,4.0,4.0,4.0,4.0,4.0,4.0,4.0,4.0,4.0,100.0,,,,,,,,,,,,,,,,,,,,,,,,,,,,,,,,,,,,,,,,,,,,,,,,,,,,,,,,,,,,,,,,,,,,,,,,,,,,,,,,,,,,,,,,,,,,,,,,,,,,,,,,,,,,,,,,,,,,,,,,,,,,,,,,,,,
1725710438.877761,1725710438.878459,170.0,0.0,4264.358887,4247.563965,4264.358887,4326.666504,4124.871582,4230.897461,4124.743652,4269.743652,4263.205078,4201.666504,4615.897461,4531.410156,4399.615234,4474.102539,2919.0,1.0,15.0,,,,0.0,4.0,4.0,4.0,4.0,4.0,4.0,4.0,4.0,4.0,4.0,4.0,4.0,4.0,4.0,100.0,,,,,,,,,,,,,,,,,,,,,,,,,,,,,,,,,,,,,,,,,,,,,,,,,,,,,,,,,,,,,,,,,,,,,,,,,,,,,,,,,,,,,,,,,,,,,,,,,,,,,,,,,,,,,,,,,,,,,,,,,,,,,,,,,,,
1725710438.881665,1725710438.882363,171.0,0.0,4264.743652,4247.05127,4266.282227,4327.94873,4127.820313,4232.563965,4128.205078,4275.384766,4263.333496,4207.563965,4620.897461,4537.05127,4408.717773,4478.333496,3161.0,1.0,15.0,,,,0.0,4.0,4.0,4.0,4.0,4.0,4.0,4.0,4.0,4.0,4.0,4.0,4.0,4.0,4.0,100.0,,,,,,,,,,,,,,,,,,,,,,,,,,,,,,,,,,,,,,,,,,,,,,,,,,,,,,,,,,,,,,,,,,,,,,,,,,,,,,,,,,,,,,,,,,,,,,,,,,,,,,,,,,,,,,,,,,,,,,,,,,,,,,,,,,,
1725710438.885569,1725710438.886267,172.0,0.0,4265.0,4247.179688,4268.974121,4329.230957,4130.897461,4233.589844,4131.410156,4279.871582,4264.487305,4214.743652,4625.128418,4541.538574,4416.794922,4481.282227,3425.0,1.0,15.0,,,,0.0,4.0,4.0,4.0,4.0,4.0,4.0,4.0,4.0,4.0,4.0,4.0,4.0,4.0,4.0,100.0,,,,,,,,,,,,,,,,,,,,,,,,,,,,,,,,,,,,,,,,,,,,,,,,,,,,,,,,,,,,,,,,,,,,,,,,,,,,,,,,,,,,,,,,,,,,,,,,,,,,,,,,,,,,,,,,,,,,,,,,,,,,,,,,,,,
1725710438.889473,1725710438.890171,173.0,0.0,4265.128418,4247.820313,4270.384766,4329.487305,4133.461426,4233.077148,4132.05127,4280.128418,4267.307617,4219.102539,4625.512695,4542.307617,4419.230957,4481.410156,3961.0,1.0,15.0,,,,0.0,4.0,4.0,4.0,4.0,4.0,4.0,4.0,4.0,4.0,4.0,4.0,4.0,4.0,4.0,100.0,,,,,,,,,,,,,,,,,,,,,,,,,,,,,,,,,,,,,,,,,,,,,,,,,,,,,,,,,,,,,,,,,,,,,,,,,,,,,,,,,,,,,,,,,,,,,,,,,,,,,,,,,,,,,,,,,,,,,,,,,,,,,,,,,,,
1725710438.893377,1725710438.893975,174.0,0.0,4265.256348,4248.077148,4269.487305,4328.333496,4135.128418,4230.897461,4129.615234,4276.922852,4271.282227,4219.358887,4621.666504,4540.128418,4415.512695,4479.487305,2919.0,1.0,15.0,,,,0.0,4.0,4.0,4.0,4.0,4.0,4.0,4.0,4.0,4.0,4.0,4.0,4.0,4.0,4.0,100.0,,,,,,,,,,,,,,,,,,,,,,,,,,,,,,,,,,,,,,,,,,,,,,,,,,,,,,,,,,,,,,,,,,,,,,,,,,,,,,,,,,,,,,,,,,,,,,,,,,,,,,,,,,,,,,,,,,,,,,,,,,,,,,,,,,,
1725710438.897281,1725710438.897879,175.0,0.0,4265.512695,4246.666504,4266.922852,4326.538574,4135.641113,4227.94873,4125.512695,4273.717773,4274.743652,4217.563965,4615.512695,4537.820313,4409.615234,4477.307617,3161.0,1.0,15.0,,,,0.0,4.0,4.0,4.0,4.0,4.0,4.0,4.0,4.0,4.0,4.0,4.0,4.0,4.0,4.0,100.0,,,,,,,,,,,,,,,,,,,,,,,,,,,,,,,,,,,,,,,,,,,,,,,,,,,,,,,,,,,,,,,,,,,,,,,,,,,,,,,,,,,,,,,,,,,,,,,,,,,,,,,,,,,,,,,,,,,,,,,,,,,,,,,,,,,
1725710438.901185,1725710438.901784,176.0,0.0,4265.512695,4243.333496,4264.615234,4325.0,4135.512695,4225.769043,4122.05127,4273.846191,4275.256348,4215.897461,4610.0,4537.05127,4406.153809,4475.769043,3425.0,1.0,15.0,,,,0.0,4.0,4.0,4.0,4.0,4.0,4.0,4.0,4.0,4.0,4.0,4.0,4.0,4.0,4.0,100.0,,,,,,,,,,,,,,,,,1.0,0.0,0.0,,,,,,,,,,,,,,,,,,,,,,,,,,,,,,,,,,,,,0.0,0.0,1.0,0.0,1.0,0.0,1.075256,0.523429,0.260847,0.136446,0.03855,0.578787,0.480549,0.347373,0.246028,0.059082,0.790861,0.407427,0.166281,0.085806,0.054416,0.747607,0.363587,0.291576,0.247288,0.081235,0.868576,0.08673,0.142992,0.164812,0.102203,0.323367,0.246625,0.128071,0.053689,0.036067,10.795956,2.537274,3.103934,0.689983,0.150829,0.638207,0.812634,0.845324,0.125703,0.116633,1.028512,1.032556,0.734441,0.163987,0.108435,1.191047,0.954643,0.927338,0.155546,0.107904,2.298395,1.13947,1.008152,0.484129,0.36176,2.700923,1.119303,0.54261,0.326248,0.127356,1.52137,1.256837,0.587534,0.280307,0.165095,2.460333,1.050041,0.495336,0.344315,0.101876
1725710438.905089,1725710438.905688,177.0,0.0,4265.0,4238.846191,4264.230957,4324.102539,4135.256348,4225.769043,4120.512695,4277.179688,4272.05127,4215.128418,4607.563965,4537.436035,4407.436035,4475.256348,3961.0,1.0,15.0,,,,0.0,4.0,4.0,4.0,4.0,4.0,4.0,4.0,4.0,4.0,4.0,4.0,4.0,4.0,4.0,100.0,,,,,,,,,,,,,,,,,,,,,,,,,,,,,,,,,,,,,,,,,,,,,,,,,,,,,,,,,,,,,,,,,,,,,,,,,,,,,,,,,,,,,,,,,,,,,,,,,,,,,,,,,,,,,,,,,,,,,,,,,,,,,,,,,,,
1725710438.908993,1725710438.909492,178.0,0.0,4264.358887,4235.0,4266.282227,4323.846191,4135.641113,4227.820313,4120.384766,4281.794922,4267.307617,4214.743652,4609.743652,4538.717773,4411.666504,4475.641113,2919.0,1.0,15.0,,,,0.0,4.0,4.0,4.0,4.0,4.0,4.0,4.0,4.0,4.0,4.0,4.0,4.0,4.0,4.0,100.0,,,,,,,,,,,,,,,,,,,,,,,,,,,,,,,,,,,,,,,,,,,,,,,,,,,,,,,,,,,,,,,,,,,,,,,,,,,,,,,,,,,,,,,,,,,,,,,,,,,,,,,,,,,,,,,,,,,,,,,,,,,,,,,,,,,
1725710438.912897,1725710438.913396,179.0,0.0,4264.230957,4233.205078,4269.615234,4323.974121,4136.922852,4230.897461,4120.384766,4285.641113,4265.384766,4214.230957,4616.025879,4540.897461,4416.025879,4477.307617,3161.0,1.0,15.0,,,,0.0,4.0,4.0,4.0,4.0,4.0,4.0,4.0,4.0,4.0,4.0,4.0,4.0,4.0,4.0,100.0,,,,,,,,,,,,,,,,,,,,,,,,,,,,,,,,,,,,,,,,,,,,,,,,,,,,,,,,,,,,,,,,,,,,,,,,,,,,,,,,,,,,,,,,,,,,,,,,,,,,,,,,,,,,,,,,,,,,,,,,,,,,,,,,,,,
1725710438.916802,1725710438.9173,180.0,0.0,4265.128418,4233.846191,4272.692383,4324.743652,4139.102539,4233.205078,4120.384766,4288.461426,4268.717773,4213.974121,4623.589844,4544.743652,4417.307617,4479.615234,3425.0,1.0,15.0,,,,0.0,4.0,4.0,4.0,4.0,4.0,4.0,4.0,4.0,4.0,4.0,4.0,4.0,4.0,4.0,100.0,,,,,,,,,,,,,,,,,,,,,,,,,,,,,,,,,,,,,,,,,,,,,,,,,,,,,,,,,,,,,,,,,,,,,,,,,,,,,,,,,,,,,,,,,,,,,,,,,,,,,,,,,,,,,,,,,,,,,,,,,,,,,,,,,,,
1725710438.920706,1725710438.921104,181.0,0.0,4266.666504,4236.153809,4274.487305,4325.769043,4141.666504,4233.461426,4120.512695,4290.256348,4275.384766,4214.487305,4628.589844,4549.743652,4414.615234,4482.05127,3961.0,1.0,15.0,,,,0.0,4.0,4.0,4.0,4.0,4.0,4.0,4.0,4.0,4.0,4.0,4.0,4.0,4.0,4.0,100.0,,,,,,,,,,,,,,,,,,,,,,,,,,,,,,,,,,,,,,,,,,,,,,,,,,,,,,,,,,,,,,,,,,,,,,,,,,,,,,,,,,,,,,,,,,,,,,,,,,,,,,,,,,,,,,,,,,,,,,,,,,,,,,,,,,,
1725710438.92461,1725710438.925008,182.0,0.0,4267.692383,4238.333496,4274.871582,4326.410156,4144.230957,4231.666504,4120.512695,4290.769043,4280.512695,4214.743652,4627.563965,4553.717773,4409.230957,4483.333496,2919.0,1.0,15.0,,,,0.0,4.0,4.0,4.0,4.0,4.0,4.0,4.0,4.0,4.0,4.0,4.0,4.0,4.0,4.0,100.0,,,,,,,,,,,,,,,,,,,,,,,,,,,,,,,,,,,,,,,,,,,,,,,,,,,,,,,,,,,,,,,,,,,,,,,,,,,,,,,,,,,,,,,,,,,,,,,,,,,,,,,,,,,,,,,,,,,,,,,,,,,,,,,,,,,
1725710438.928514,1725710438.928912,183.0,0.0,4267.179688,4238.717773,4274.743652,4326.153809,4146.666504,4229.615234,4120.256348,4289.615234,4280.0,4213.333496,4621.025879,4554.230957,4403.717773,4482.820313,3161.0,1.0,15.0,,,,0.0,4.0,4.0,4.0,4.0,4.0,4.0,4.0,4.0,4.0,4.0,4.0,4.0,4.0,4.0,100.0,,,,,,,,,,,,,,,,,,,,,,,,,,,,,,,,,,,,,,,,,,,,,,,,,,,,,,,,,,,,,,,,,,,,,,,,,,,,,,,,,,,,,,,,,,,,,,,,,,,,,,,,,,,,,,,,,,,,,,,,,,,,,,,,,,,
1725710438.932418,1725710438.932817,184.0,0.0,4265.256348,4236.922852,4274.487305,4324.871582,4148.974121,4228.846191,4119.487305,4286.666504,4274.102539,4209.487305,4613.077148,4550.512695,4400.512695,4480.641113,3425.0,1.0,15.0,,,,0.0,4.0,4.0,4.0,4.0,4.0,4.0,4.0,4.0,4.0,4.0,4.0,4.0,4.0,4.0,100.0,,,,,,,,,,,,,,,,,,,,,,,,,,,,,,,,,,,,,,,,,,,,,,,,,,,,,,,,0.0,0.0,1.0,0.0,1.0,0.0,,,,,,,,,,,,,,,,,,,,,,,,,,,,,,,,,,,,,,,,,,,,,,,,,,,,,,,,,,,,,,,,,,,,,,
1725710438.936322,1725710438.936621,185.0,0.0,4262.436035,4233.846191,4274.615234,4322.94873,4150.641113,4229.487305,4117.94873,4283.717773,4267.436035,4204.358887,4608.589844,4544.743652,4399.230957,4477.94873,3961.0,1.0,15.0,,,,0.0,4.0,4.0,4.0,4.0,4.0,4.0,4.0,4.0,4.0,4.0,4.0,4.0,4.0,4.0,100.0,,,,,,,,,,,,,,,,,,,,,,,,,,,,,,,,,,,,,,,,,,,,,,,,,,,,,,,,,,,,,,,,,,,,,,,,,,,,,,,,,,,,,,,,,,,,,,,,,,,,,,,,,,,,,,,,,,,,,,,,,,,,,,,,,,,
1725710438.940226,1725710438.940525,186.0,0.0,4260.512695,4231.282227,4274.615234,4321.025879,4151.538574,4230.641113,4115.641113,4282.179688,4264.615234,4200.256348,4609.230957,4539.871582,4398.333496,4475.769043,2919.0,1.0,15.0,,,,0.0,4.0,4.0,4.0,4.0,4.0,4.0,4.0,4.0,4.0,4.0,4.0,4.0,4.0,4.0,100.0,,,,,,,,,,,,,,,,,,,,,,,,,,,,,,,,,,,,,,,,,,,,,,,,,,,,,,,,,,,,,,,,,,,,,,,,,,,,,,,,,,,,,,,,,,,,,,,,,,,,,,,,,,,,,,,,,,,,,,,,,,,,,,,,,,,
1725710438.94413,1725710438.944429,187.0,0.0,4260.641113,4230.512695,4274.102539,4320.0,4151.794922,4231.410156,4112.436035,4282.436035,4266.794922,4198.846191,4612.05127,4537.94873,4396.410156,4474.358887,3161.0,1.0,15.0,,,,0.0,4.0,4.0,4.0,4.0,4.0,4.0,4.0,4.0,4.0,4.0,4.0,4.0,4.0,4.0,100.0,,,,,,,,,,,,,,,,,,,,,,,,,,,,,,,,,,,,,,,,,,,,,,,,,,,,,,,,,,,,,,,,,,,,,,,,,,,,,,,,,,,,,,,,,,,,,,,,,,,,,,,,,,,,,,,,,,,,,,,,,,,,,,,,,,,
1725710438.948034,1725710438.948433,188.0,0.0,4263.077148,4231.794922,4273.333496,4320.384766,4152.05127,4231.666504,4110.0,4283.077148,4271.410156,4200.256348,4612.563965,4538.461426,4394.102539,4473.717773,3425.0,1.0,15.0,,,,0.0,4.0,4.0,4.0,4.0,4.0,4.0,4.0,4.0,4.0,4.0,4.0,4.0,4.0,4.0,100.0,,,,,,,,,,,,,,,,,,,,,,,,,,,,,,,,,,,,,,,,,,,,,,,,,,,,,,,,,,,,,,,,,,,,,,,,,,,,,,,,,,,,,,,,,,,,,,,,,,,,,,,,,,,,,,,,,,,,,,,,,,,,,,,,,,,
1725710438.951938,1725710438.952337,189.0,0.0,4265.512695,4233.205078,4272.307617,4321.025879,4152.820313,4231.666504,4109.102539,4282.436035,4274.615234,4203.333496,4608.974121,4539.487305,4392.307617,4473.333496,3961.0,1.0,15.0,,,,0.0,4.0,4.0,4.0,4.0,4.0,4.0,4.0,4.0,4.0,4.0,4.0,4.0,4.0,4.0,100.0,,,,,,,,,,,,,,,,,,,,,,,,,,,,,,,,,,,,,,,,,,,,,,,,,,,,,,,,,,,,,,,,,,,,,,,,,,,,,,,,,,,,,,,,,,,,,,,,,,,,,,,,,,,,,,,,,,,,,,,,,,,,,,,,,,,
1725710438.955842,1725710438.956241,190.0,0.0,4265.0,4232.692383,4270.897461,4320.384766,4153.846191,4231.666504,4109.358887,4280.0,4274.871582,4206.410156,4604.102539,4539.615234,4391.666504,4472.94873,2919.0,1.0,15.0,,,,0.0,4.0,4.0,4.0,4.0,4.0,4.0,4.0,4.0,4.0,4.0,4.0,4.0,4.0,4.0,100.0,,,,,,,,,,,,,,,,,,,,,,,,,,,,,,,,,,,,,,,,,,,,,,,,,,,,,,,,,,,,,,,,,,,,,,,,,,,,,,,,,,,,,,,,,,,,,,,,,,,,,,,,,,,,,,,,,,,,,,,,,,,,,,,,,,,
1725710438.959746,1725710438.960145,191.0,0.0,4260.384766,4229.358887,4268.974121,4317.94873,4154.230957,4232.05127,4108.461426,4276.922852,4273.717773,4209.358887,4601.666504,4538.974121,4391.538574,4472.563965,3161.0,1.0,15.0,,,,0.0,4.0,4.0,4.0,4.0,4.0,4.0,4.0,4.0,4.0,4.0,4.0,4.0,4.0,4.0,100.0,,,,,,,,,,,,,,,,,,,,,,,,,,,,,,,,,,,,,,,,,,,,,,,,,,,,,,,,,,,,,,,,,,,,,,,,,,,,,,,,,,,,,,,,,,,,,,,,,,,,,,,,,,,,,,,,,,,,,,,,,,,,,,,,,,,
1725710438.963651,1725710438.964149,192.0,0.0,4253.974121,4223.846191,4266.794922,4314.743652,4153.846191,4232.307617,4105.0,4275.0,4273.717773,4212.179688,4603.077148,4538.461426,4392.05127,4472.563965,3425.0,1.0,15.0,,,,0.0,4.0,4.0,4.0,4.0,4.0,4.0,4.0,4.0,4.0,4.0,4.0,4.0,4.0,4.0,100.0,,,,,,,,,,,,,,,,,,,,,,,,,,,,,,,,,,,,,,,,,,,,,,,,,,,,,,,,0.0,0.0,1.0,0.0,1.0,0.0,,,,,,,,,,,,,,,,,,,,,,,,,,,,,,,,,,,,,,,,,,,,,,,,,,,,,,,,,,,,,,,,,,,,,,
1725710438.967555,1725710438.968053,193.0,0.0,4249.871582,4218.589844,4265.384766,4312.179688,4153.077148,4231.922852,4100.0,4275.897461,4276.282227,4214.615234,4606.282227,4539.102539,4394.102539,4473.205078,3961.0,1.0,15.0,,,,0.0,4.0,4.0,4.0,4.0,4.0,4.0,4.0,4.0,4.0,4.0,4.0,4.0,4.0,4.0,100.0,,,,,,,,,,,,,,,,,,,,,,,,,,,,,,,,,,,,,,,,,,,,,,,,,,,,,,,,,,,,,,,,,,,,,,,,,,,,,,,,,,,,,,,,,,,,,,,,,,,,,,,,,,,,,,,,,,,,,,,,,,,,,,,,,,,
1725710438.971459,1725710438.971957,194.0,0.0,4251.282227,4215.769043,4265.128418,4310.641113,4152.563965,4230.897461,4095.384521,4279.358887,4280.128418,4216.538574,4608.846191,4540.512695,4398.333496,4474.743652,2919.0,1.0,15.0,,,,0.0,4.0,4.0,4.0,4.0,4.0,4.0,4.0,4.0,4.0,4.0,4.0,4.0,4.0,4.0,100.0,,,,,,,,,,,,,,,,,,,,,,,,,,,,,,,,,,,,,,,,,,,,,,,,,,,,,,,,,,,,,,,,,,,,,,,,,,,,,,,,,,,,,,,,,,,,,,,,,,,,,,,,,,,,,,,,,,,,,,,,,,,,,,,,,,,
1725710438.975363,1725710438.975862,195.0,0.0,4257.05127,4216.153809,4266.025879,4309.102539,4152.692383,4229.230957,4092.820557,4282.94873,4283.077148,4217.820313,4609.230957,4541.794922,4404.102539,4476.794922,3161.0,1.0,15.0,,,,0.0,4.0,4.0,4.0,4.0,4.0,4.0,4.0,4.0,4.0,4.0,4.0,4.0,4.0,4.0,100.0,,,,,,,,,,,,,,,,,,,,,,,,,,,,,,,,,,,,,,,,,,,,,,,,,,,,,,,,,,,,,,,,,,,,,,,,,,,,,,,,,,,,,,,,,,,,,,,,,,,,,,,,,,,,,,,,,,,,,,,,,,,,,,,,,,,
1725710438.979267,1725710438.979766,196.0,0.0,4262.820313,4218.333496,4267.05127,4306.538574,4152.820313,4227.179688,4091.281982,4283.974121,4283.205078,4218.333496,4607.436035,4541.666504,4409.102539,4478.333496,3425.0,1.0,15.0,,,,0.0,4.0,4.0,4.0,4.0,4.0,4.0,4.0,4.0,4.0,4.0,4.0,4.0,4.0,4.0,100.0,,,,,,,,,,,,,,,,,,,,,,,,,,,,,,,,,,,,,,,,,,,,,,,,,,,,,,,,,,,,,,,,,,,,,,,,,,,,,,,,,,,,,,,,,,,,,,,,,,,,,,,,,,,,,,,,,,,,,,,,,,,,,,,,,,,
1725710438.983171,1725710438.98357,197.0,0.0,4263.974121,4219.871582,4267.307617,4302.820313,4152.563965,4224.358887,4088.846191,4281.794922,4281.153809,4217.94873,4604.358887,4540.256348,4410.0,4478.461426,3961.0,1.0,15.0,,,,0.0,4.0,4.0,4.0,4.0,4.0,4.0,4.0,4.0,4.0,4.0,4.0,4.0,4.0,4.0,100.0,,,,,,,,,,,,,,,,,,,,,,,,,,,,,,,,,,,,,,,,,,,,,,,,,,,,,,,,,,,,,,,,,,,,,,,,,,,,,,,,,,,,,,,,,,,,,,,,,,,,,,,,,,,,,,,,,,,,,,,,,,,,,,,,,,,
1725710438.987075,1725710438.987474,198.0,0.0,4259.230957,4218.846191,4266.538574,4300.0,4151.794922,4220.897461,4084.487061,4278.589844,4278.461426,4216.538574,4600.0,4538.205078,4404.871582,4476.025879,2919.0,1.0,15.0,,,,0.0,4.0,4.0,4.0,4.0,4.0,4.0,4.0,4.0,4.0,4.0,4.0,4.0,4.0,4.0,100.0,,,,,,,,,,,,,,,,,,,,,,,,,,,,,,,,,,,,,,,,,,,,,,,,,,,,,,,,,,,,,,,,,,,,,,,,,,,,,,,,,,,,,,,,,,,,,,,,,,,,,,,,,,,,,,,,,,,,,,,,,,,,,,,,,,,
1725710438.990979,1725710438.991378,199.0,0.0,4251.538574,4216.025879,4265.384766,4299.615234,4151.153809,4217.436035,4078.333252,4277.436035,4277.179688,4213.974121,4595.0,4537.179688,4394.871582,4471.025879,3161.0,1.0,15.0,,,,0.0,4.0,4.0,4.0,4.0,4.0,4.0,4.0,4.0,4.0,4.0,4.0,4.0,4.0,4.0,100.0,,,,,,,,,,,,,,,,,,,,,,,,,,,,,,,,,,,,,,,,,,,,,,,,,,,,,,,,,,,,,,,,,,,,,,,,,,,,,,,,,,,,,,,,,,,,,,,,,,,,,,,,,,,,,,,,,,,,,,,,,,,,,,,,,,,
1725710438.994883,1725710438.995282,200.0,0.0,4245.128418,4213.333496,4264.358887,4301.410156,4151.922852,4215.897461,4071.794922,4279.487305,4277.94873,4210.512695,4589.871582,4537.692383,4384.230957,4465.0,3425.0,1.0,15.0,,,,0.0,4.0,4.0,4.0,4.0,4.0,4.0,4.0,4.0,4.0,4.0,4.0,4.0,4.0,4.0,100.0,,,,,,,,,,,,,,,,,,,,,,,,,,,,,,,,,,,,,,,,,,,,,,,,,,,,,,,,0.0,0.0,1.0,0.0,1.0,0.0,,,,,,,,,,,,,,,,,,,,,,,,,,,,,,,,,,,,,,,,,,,,,,,,,,,,,,,,,,,,,,,,,,,,,,
1725710438.998788,1725710438.999086,201.0,0.0,4243.077148,4212.179688,4263.461426,4303.461426,4153.717773,4217.820313,4065.897461,4283.077148,4280.0,4206.794922,4586.282227,4538.333496,4378.077148,4460.512695,3961.0,1.0,15.0,,,,0.0,4.0,4.0,4.0,4.0,4.0,4.0,4.0,4.0,4.0,4.0,4.0,4.0,4.0,4.0,100.0,,,,,,,,,,,,,,,,,,,,,,,,,,,,,,,,,,,,,,,,,,,,,,,,,,,,,,,,,,,,,,,,,,,,,,,,,,,,,,,,,,,,,,,,,,,,,,,,,,,,,,,,,,,,,,,,,,,,,,,,,,,,,,,,,,,
1725710439.002692,1725710439.002991,202.0,0.0,4245.128418,4212.563965,4262.820313,4303.333496,4155.256348,4222.563965,4060.897461,4285.641113,4281.922852,4203.461426,4586.538574,4537.820313,4378.846191,4458.846191,2919.0,1.0,15.0,,,,0.0,4.0,4.0,4.0,4.0,4.0,4.0,4.0,4.0,4.0,4.0,4.0,4.0,4.0,4.0,100.0,,,,,,,,,,,,,,,,,,,,,,,,,,,,,,,,,,,,,,,,,,,,,,,,,,,,,,,,,,,,,,,,,,,,,,,,,,,,,,,,,,,,,,,,,,,,,,,,,,,,,,,,,,,,,,,,,,,,,,,,,,,,,,,,,,,
1725710439.006596,1725710439.006895,203.0,0.0,4248.205078,4213.974121,4262.820313,4300.512695,4155.641113,4228.077148,4057.05127,4285.512695,4282.307617,4201.153809,4591.794922,4535.769043,4384.487305,4460.0,3161.0,1.0,15.0,,,,0.0,4.0,4.0,4.0,4.0,4.0,4.0,4.0,4.0,4.0,4.0,4.0,4.0,4.0,4.0,100.0,,,,,,,,,,,,,,,,,,,,,,,,,,,,,,,,,,,,,,,,,,,,,,,,,,,,,,,,,,,,,,,,,,,,,,,,,,,,,,,,,,,,,,,,,,,,,,,,,,,,,,,,,,,,,,,,,,,,,,,,,,,,,,,,,,,
1725710439.0105,1725710439.010899,204.0,0.0,4249.743652,4215.769043,4263.205078,4296.538574,4155.0,4231.794922,4054.487061,4283.589844,4280.769043,4200.256348,4599.871582,4533.717773,4390.256348,4462.05127,3425.0,1.0,15.0,,,,0.0,4.0,4.0,4.0,4.0,4.0,4.0,4.0,4.0,4.0,4.0,4.0,4.0,4.0,4.0,100.0,,,,,,,,,,,,,,,,,,,,,,,,,,,,,,,,,,,,,,,,,,,,,,,,,,,,,,,,,,,,,,,,,,,,,,,,,,,,,,,,,,,,,,,,,,,,,,,,,,,,,,,,,,,,,,,,,,,,,,,,,,,,,,,,,,,
1725710439.014404,1725710439.014803,205.0,0.0,4248.974121,4216.922852,4263.974121,4294.358887,4154.743652,4232.820313,4053.076904,4281.153809,4277.436035,4200.641113,4606.025879,4532.436035,4391.794922,4463.077148,3961.0,1.0,15.0,,,,0.0,4.0,4.0,4.0,4.0,4.0,4.0,4.0,4.0,4.0,4.0,4.0,4.0,4.0,4.0,100.0,,,,,,,,,,,,,,,,,,,,,,,,,,,,,,,,,,,,,,,,,,,,,,,,,,,,,,,,,,,,,,,,,,,,,,,,,,,,,,,,,,,,,,,,,,,,,,,,,,,,,,,,,,,,,,,,,,,,,,,,,,,,,,,,,,,
1725710439.018308,1725710439.018707,206.0,0.0,4247.436035,4216.410156,4264.871582,4295.769043,4156.282227,4231.794922,4053.205078,4278.589844,4273.205078,4201.282227,4605.897461,4531.794922,4388.077148,4462.563965,2919.0,1.0,15.0,,,,0.0,4.0,4.0,4.0,4.0,4.0,4.0,4.0,4.0,4.0,4.0,4.0,4.0,4.0,4.0,100.0,,,,,,,,,,,,,,,,,,,,,,,,,,,,,,,,,,,,,,,,,,,,,,,,,,,,,,,,,,,,,,,,,,,,,,,,,,,,,,,,,,,,,,,,,,,,,,,,,,,,,,,,,,,,,,,,,,,,,,,,,,,,,,,,,,,
1725710439.022212,1725710439.022611,207.0,0.0,4246.922852,4213.589844,4265.384766,4300.384766,4159.743652,4229.871582,4054.102539,4276.153809,4269.230957,4201.794922,4599.615234,4531.410156,4382.307617,4460.641113,3161.0,1.0,15.0,,,,0.0,4.0,4.0,4.0,4.0,4.0,4.0,4.0,4.0,4.0,4.0,4.0,4.0,4.0,4.0,100.0,,,,,,,,,,,,,,,,,,,,,,,,,,,,,,,,,,,,,,,,,,,,,,,,,,,,,,,,,,,,,,,,,,,,,,,,,,,,,,,,,,,,,,,,,,,,,,,,,,,,,,,,,,,,,,,,,,,,,,,,,,,,,,,,,,,
1725710439.026116,1725710439.026415,208.0,0.0,4247.563965,4209.102539,4265.256348,4305.641113,4164.102539,4227.94873,4054.102539,4274.230957,4266.794922,4202.05127,4591.666504,4531.282227,4378.461426,4458.846191,3425.0,1.0,15.0,,,,0.0,4.0,4.0,4.0,4.0,4.0,4.0,4.0,4.0,4.0,4.0,4.0,4.0,4.0,4.0,100.0,,,,,,,,,,,,,,,,,1.0,0.0,0.0,,,,,,,,,,,,,,,,,,,,,,,,,,,,,,,,,,,,,0.0,0.0,1.0,0.0,128.0,0.017628,0.943924,0.333886,0.260607,0.122479,0.039231,0.6193,0.356592,0.280737,0.223473,0.067594,0.758478,0.381122,0.168553,0.084774,0.058461,0.835456,0.31948,0.232191,0.196223,0.082681,1.724534,0.116356,0.139963,0.136365,0.080108,0.353051,0.27816,0.139282,0.059237,0.039323,9.070816,2.313577,1.995187,0.486757,0.125169,0.548171,0.973935,0.889541,0.120185,0.119369,0.874388,1.193328,0.756487,0.168736,0.10964,0.939395,1.007944,1.065553,0.147707,0.112264,2.346374,1.084621,1.220409,0.500758,0.381759,2.809249,1.057785,0.702774,0.349107,0.123439,1.418784,0.952658,0.687523,0.301254,0.155657,2.710296,0.982477,0.557497,0.373021,0.114861
1725710439.03002,1725710439.030319,209.0,0.0,4248.461426,4205.0,4264.871582,4308.589844,4167.563965,4227.05127,4051.794922,4273.077148,4266.282227,4201.922852,4586.666504,4531.153809,4378.077148,4458.589844,3961.0,1.0,15.0,,,,0.0,4.0,4.0,4.0,4.0,4.0,4.0,4.0,4.0,4.0,4.0,4.0,4.0,4.0,4.0,100.0,,,,,,,,,,,,,,,,,,,,,,,,,,,,,,,,,,,,,,,,,,,,,,,,,,,,,,,,,,,,,,,,,,,,,,,,,,,,,,,,,,,,,,,,,,,,,,,,,,,,,,,,,,,,,,,,,,,,,,,,,,,,,,,,,,,
1725710439.033924,1725710439.034223,210.0,0.0,4248.846191,4203.974121,4264.230957,4307.94873,4169.102539,4227.692383,4047.435791,4272.436035,4266.666504,4201.153809,4585.384766,4530.641113,4379.358887,4460.384766,2919.0,1.0,15.0,,,,0.0,4.0,4.0,4.0,4.0,4.0,4.0,4.0,4.0,4.0,4.0,4.0,4.0,4.0,4.0,100.0,,,,,,,,,,,,,,,,,,,,,,,,,,,,,,,,,,,,,,,,,,,,,,,,,,,,,,,,,,,,,,,,,,,,,,,,,,,,,,,,,,,,,,,,,,,,,,,,,,,,,,,,,,,,,,,,,,,,,,,,,,,,,,,,,,,
1725710439.037829,1725710439.038127,211.0,0.0,4248.589844,4207.05127,4263.461426,4304.871582,4169.358887,4229.487305,4043.205078,4271.666504,4266.666504,4199.871582,4584.615234,4530.0,4380.384766,4463.205078,3161.0,1.0,15.0,,,,0.0,4.0,4.0,4.0,4.0,4.0,4.0,4.0,4.0,4.0,4.0,4.0,4.0,4.0,4.0,100.0,,,,,,,,,,,,,,,,,,,,,,,,,,,,,,,,,,,,,,,,,,,,,,,,,,,,,,,,,,,,,,,,,,,,,,,,,,,,,,,,,,,,,,,,,,,,,,,,,,,,,,,,,,,,,,,,,,,,,,,,,,,,,,,,,,,
1725710439.041733,1725710439.041932,212.0,0.0,4248.205078,4212.692383,4262.820313,4301.538574,4169.230957,4230.897461,4041.153809,4270.256348,4265.897461,4198.205078,4581.538574,4529.230957,4380.641113,4465.256348,3425.0,1.0,15.0,,,,0.0,4.0,4.0,4.0,4.0,4.0,4.0,4.0,4.0,4.0,4.0,4.0,4.0,4.0,4.0,100.0,,,,,,,,,,,,,,,,,,,,,,,,,,,,,,,,,,,,,,,,,,,,,,,,,,,,,,,,,,,,,,,,,,,,,,,,,,,,,,,,,,,,,,,,,,,,,,,,,,,,,,,,,,,,,,,,,,,,,,,,,,,,,,,,,,,
1725710439.045637,1725710439.045836,213.0,0.0,4248.461426,4217.436035,4262.820313,4299.615234,4170.0,4230.512695,4041.410156,4268.461426,4264.743652,4197.179688,4576.153809,4527.94873,4380.384766,4464.615234,3961.0,1.0,15.0,,,,0.0,4.0,4.0,4.0,4.0,4.0,4.0,4.0,4.0,4.0,4.0,4.0,4.0,4.0,4.0,100.0,,,,,,,,,,,,,,,,,,,,,,,,,,,,,,,,,,,,,,,,,,,,,,,,,,,,,,,,,,,,,,,,,,,,,,,,,,,,,,,,,,,,,,,,,,,,,,,,,,,,,,,,,,,,,,,,,,,,,,,,,,,,,,,,,,,
1725710439.049541,1725710439.04974,214.0,0.0,4248.717773,4218.461426,4263.461426,4298.974121,4171.282227,4228.205078,4041.153809,4266.538574,4264.102539,4197.307617,4570.897461,4525.769043,4380.0,4460.769043,2919.0,1.0,15.0,,,,0.0,4.0,4.0,4.0,4.0,4.0,4.0,4.0,4.0,4.0,4.0,4.0,4.0,4.0,4.0,100.0,,,,,,,,,,,,,,,,,,,,,,,,,,,,,,,,,,,,,,,,,,,,,,,,,,,,,,,,,,,,,,,,,,,,,,,,,,,,,,,,,,,,,,,,,,,,,,,,,,,,,,,,,,,,,,,,,,,,,,,,,,,,,,,,,,,
1725710439.053445,1725710439.053744,215.0,0.0,4248.205078,4215.769043,4263.717773,4298.077148,4172.179688,4225.256348,4037.179443,4264.743652,4264.358887,4198.461426,4567.436035,4521.794922,4379.358887,4454.358887,3161.0,1.0,15.0,,,,0.0,4.0,4.0,4.0,4.0,4.0,4.0,4.0,4.0,4.0,4.0,4.0,4.0,4.0,4.0,100.0,,,,,,,,,,,,,,,,,,,,,,,,,,,,,,,,,,,,,,,,,,,,,,,,,,,,,,,,,,,,,,,,,,,,,,,,,,,,,,,,,,,,,,,,,,,,,,,,,,,,,,,,,,,,,,,,,,,,,,,,,,,,,,,,,,,
1725710439.057349,1725710439.057648,216.0,0.0,4246.538574,4212.307617,4263.077148,4295.641113,4171.922852,4222.820313,4028.718018,4263.205078,4265.769043,4199.615234,4566.282227,4515.897461,4378.461426,4446.922852,3425.0,1.0,15.0,,,,0.0,4.0,4.0,4.0,4.0,4.0,4.0,4.0,4.0,4.0,4.0,4.0,4.0,4.0,4.0,100.0,,,,,,,,,,,,,,,,,,,,,,,,,,,,,,,,,,,,,,,,,,,,,,,,,,,,,,,,0.0,0.0,1.0,0.0,128.0,0.017628,,,,,,,,,,,,,,,,,,,,,,,,,,,,,,,,,,,,,,,,,,,,,,,,,,,,,,,,,,,,,,,,,,,,,,
1725710439.061253,1725710439.061552,217.0,0.0,4244.230957,4211.153809,4261.025879,4291.922852,4170.769043,4221.410156,4018.333252,4262.307617,4267.692383,4200.0,4565.769043,4509.102539,4377.563965,4441.153809,3961.0,1.0,15.0,,,,0.0,4.0,4.0,4.0,4.0,4.0,4.0,4.0,4.0,4.0,4.0,4.0,4.0,4.0,4.0,100.0,,,,,,,,,,,,,,,,,,,,,,,,,,,,,,,,,,,,,,,,,,,,,,,,,,,,,,,,,,,,,,,,,,,,,,,,,,,,,,,,,,,,,,,,,,,,,,,,,,,,,,,,,,,,,,,,,,,,,,,,,,,,,,,,,,,
1725710439.065157,1725710439.065556,218.0,0.0,4241.794922,4212.307617,4258.461426,4288.077148,4169.615234,4221.025879,4009.871826,4262.563965,4270.0,4199.743652,4564.358887,4503.974121,4376.666504,4438.461426,2919.0,1.0,15.0,,,,0.0,4.0,4.0,4.0,4.0,4.0,4.0,4.0,4.0,4.0,4.0,4.0,4.0,4.0,4.0,100.0,,,,,,,,,,,,,,,,,,,,,,,,,,,,,,,,,,,,,,,,,,,,,,,,,,,,,,,,,,,,,,,,,,,,,,,,,,,,,,,,,,,,,,,,,,,,,,,,,,,,,,,,,,,,,,,,,,,,,,,,,,,,,,,,,,,
1725710439.069061,1725710439.06946,219.0,0.0,4238.974121,4213.589844,4256.794922,4285.512695,4169.487305,4220.897461,4005.512939,4264.102539,4272.94873,4199.743652,4561.282227,4502.94873,4375.641113,4438.846191,3161.0,1.0,15.0,,,,0.0,4.0,4.0,4.0,4.0,4.0,4.0,4.0,4.0,4.0,4.0,4.0,4.0,4.0,4.0,100.0,,,,,,,,,,,,,,,,,,,,,,,,,,,,,,,,,,,,,,,,,,,,,,,,,,,,,,,,,,,,,,,,,,,,,,,,,,,,,,,,,,,,,,,,,,,,,,,,,,,,,,,,,,,,,,,,,,,,,,,,,,,,,,,,,,,
1725710439.072966,1725710439.073364,220.0,0.0,4235.769043,4211.922852,4257.05127,4284.487305,4170.0,4220.641113,4004.230713,4267.307617,4276.666504,4200.512695,4557.05127,4506.153809,4373.589844,4440.256348,3425.0,1.0,15.0,,,,0.0,4.0,4.0,4.0,4.0,4.0,4.0,4.0,4.0,4.0,4.0,4.0,4.0,4.0,4.0,100.0,,,,,,,,,,,,,,,,,,,,,,,,,,,,,,,,,,,,,,,,,,,,,,,,,,,,,,,,,,,,,,,,,,,,,,,,,,,,,,,,,,,,,,,,,,,,,,,,,,,,,,,,,,,,,,,,,,,,,,,,,,,,,,,,,,,
1725710439.07687,1725710439.077268,221.0,0.0,4233.077148,4207.179688,4258.846191,4284.871582,4170.256348,4220.128418,4003.718018,4271.410156,4280.641113,4201.794922,4553.717773,4511.922852,4370.769043,4441.153809,3961.0,1.0,15.0,,,,0.0,4.0,4.0,4.0,4.0,4.0,4.0,4.0,4.0,4.0,4.0,4.0,4.0,4.0,4.0,100.0,,,,,,,,,,,,,,,,,,,,,,,,,,,,,,,,,,,,,,,,,,,,,,,,,,,,,,,,,,,,,,,,,,,,,,,,,,,,,,,,,,,,,,,,,,,,,,,,,,,,,,,,,,,,,,,,,,,,,,,,,,,,,,,,,,,
1725710439.080774,1725710439.081173,222.0,0.0,4231.922852,4202.05127,4261.282227,4285.512695,4169.743652,4219.615234,4001.666748,4275.641113,4283.717773,4202.563965,4554.487305,4517.692383,4368.717773,4441.666504,2919.0,1.0,15.0,,,,0.0,4.0,4.0,4.0,4.0,4.0,4.0,4.0,4.0,4.0,4.0,4.0,4.0,4.0,4.0,100.0,,,,,,,,,,,,,,,,,,,,,,,,,,,,,,,,,,,,,,,,,,,,,,,,,,,,,,,,,,,,,,,,,,,,,,,,,,,,,,,,,,,,,,,,,,,,,,,,,,,,,,,,,,,,,,,,,,,,,,,,,,,,,,,,,,,
1725710439.084678,1725710439.085177,223.0,0.0,4233.717773,4200.256348,4262.94873,4285.641113,4168.974121,4219.487305,3997.94873,4279.102539,4284.615234,4201.922852,4559.743652,4521.794922,4370.0,4443.333496,3161.0,1.0,15.0,,,,0.0,4.0,4.0,4.0,4.0,4.0,4.0,4.0,4.0,4.0,4.0,4.0,4.0,4.0,4.0,100.0,,,,,,,,,,,,,,,,,,,,,,,,,,,,,,,,,,,,,,,,,,,,,,,,,,,,,,,,,,,,,,,,,,,,,,,,,,,,,,,,,,,,,,,,,,,,,,,,,,,,,,,,,,,,,,,,,,,,,,,,,,,,,,,,,,,
1725710439.088582,1725710439.089081,224.0,0.0,4238.077148,4203.333496,4263.461426,4285.128418,4169.487305,4219.487305,3993.718018,4281.025879,4283.205078,4199.743652,4566.922852,4523.846191,4376.282227,4447.05127,3425.0,1.0,15.0,,,,0.0,4.0,4.0,4.0,4.0,4.0,4.0,4.0,4.0,4.0,4.0,4.0,4.0,4.0,4.0,100.0,,,,,,,,,,,,,,,,,,,,,,,,,,,,,,,,,,,,,,,,,,,,,,,,,,,,,,,,0.0,0.0,1.0,0.0,128.0,0.017628,,,,,,,,,,,,,,,,,,,,,,,,,,,,,,,,,,,,,,,,,,,,,,,,,,,,,,,,,,,,,,,,,,,,,,
1725710439.092486,1725710439.092985,225.0,0.0,4243.589844,4209.230957,4264.102539,4285.256348,4171.922852,4218.846191,3990.256348,4281.282227,4280.897461,4197.307617,4572.05127,4524.358887,4386.025879,4452.307617,3961.0,1.0,15.0,,,,0.0,4.0,4.0,4.0,4.0,4.0,4.0,4.0,4.0,4.0,4.0,4.0,4.0,4.0,4.0,100.0,,,,,,,,,,,,,,,,,,,,,,,,,,,,,,,,,,,,,,,,,,,,,,,,,,,,,,,,,,,,,,,,,,,,,,,,,,,,,,,,,,,,,,,,,,,,,,,,,,,,,,,,,,,,,,,,,,,,,,,,,,,,,,,,,,,
1725710439.09639,1725710439.096889,226.0,0.0,4248.205078,4215.0,4265.769043,4286.922852,4176.025879,4217.94873,3988.846191,4280.384766,4279.358887,4196.538574,4573.205078,4524.615234,4395.384766,4457.563965,2919.0,1.0,15.0,,,,0.0,4.0,4.0,4.0,4.0,4.0,4.0,4.0,4.0,4.0,4.0,4.0,4.0,4.0,4.0,100.0,,,,,,,,,,,,,,,,,,,,,,,,,,,,,,,,,,,,,,,,,,,,,,,,,,,,,,,,,,,,,,,,,,,,,,,,,,,,,,,,,,,,,,,,,,,,,,,,,,,,,,,,,,,,,,,,,,,,,,,,,,,,,,,,,,,
1725710439.100294,1725710439.100693,227.0,0.0,4250.641113,4218.717773,4268.974121,4290.256348,4180.128418,4218.333496,3989.487061,4279.102539,4279.487305,4197.94873,4570.769043,4525.641113,4399.743652,4461.410156,3161.0,1.0,15.0,,,,0.0,4.0,4.0,4.0,4.0,4.0,4.0,4.0,4.0,4.0,4.0,4.0,4.0,4.0,4.0,100.0,,,,,,,,,,,,,,,,,,,,,,,,,,,,,,,,,,,,,,,,,,,,,,,,,,,,,,,,,,,,,,,,,,,,,,,,,,,,,,,,,,,,,,,,,,,,,,,,,,,,,,,,,,,,,,,,,,,,,,,,,,,,,,,,,,,
1725710439.104198,1725710439.104597,228.0,0.0,4250.897461,4220.0,4272.307617,4293.333496,4183.333496,4221.410156,3991.025635,4277.179688,4280.641113,4200.256348,4565.897461,4526.410156,4396.922852,4462.820313,3425.0,1.0,15.0,,,,0.0,4.0,4.0,4.0,4.0,4.0,4.0,4.0,4.0,4.0,4.0,4.0,4.0,4.0,4.0,100.0,,,,,,,,,,,,,,,,,,,,,,,,,,,,,,,,,,,,,,,,,,,,,,,,,,,,,,,,,,,,,,,,,,,,,,,,,,,,,,,,,,,,,,,,,,,,,,,,,,,,,,,,,,,,,,,,,,,,,,,,,,,,,,,,,,,
1725710439.108102,1725710439.108501,229.0,0.0,4250.256348,4219.871582,4273.717773,4293.846191,4185.256348,4226.538574,3991.923096,4273.205078,4280.769043,4200.512695,4559.358887,4524.743652,4388.333496,4461.410156,3961.0,1.0,15.0,,,,0.0,4.0,4.0,4.0,4.0,4.0,4.0,4.0,4.0,4.0,4.0,4.0,4.0,4.0,4.0,100.0,,,,,,,,,,,,,,,,,,,,,,,,,,,,,,,,,,,,,,,,,,,,,,,,,,,,,,,,,,,,,,,,,,,,,,,,,,,,,,,,,,,,,,,,,,,,,,,,,,,,,,,,,,,,,,,,,,,,,,,,,,,,,,,,,,,
1725710439.112007,1725710439.112405,230.0,0.0,4249.615234,4219.358887,4272.307617,4291.153809,4186.025879,4230.769043,3991.025635,4267.307617,4277.820313,4196.794922,4552.05127,4519.102539,4378.333496,4457.436035,2919.0,1.0,15.0,,,,0.0,4.0,4.0,4.0,4.0,4.0,4.0,4.0,4.0,4.0,4.0,4.0,4.0,4.0,4.0,100.0,,,,,,,,,,,,,,,,,,,,,,,,,,,,,,,,,,,,,,,,,,,,,,,,,,,,,,,,,,,,,,,,,,,,,,,,,,,,,,,,,,,,,,,,,,,,,,,,,,,,,,,,,,,,,,,,,,,,,,,,,,,,,,,,,,,
1725710439.115911,1725710439.11621,231.0,0.0,4249.358887,4219.102539,4268.974121,4286.538574,4186.538574,4231.410156,3988.461426,4262.05127,4271.153809,4189.615234,4545.512695,4511.538574,4371.666504,4452.436035,3161.0,1.0,15.0,,,,0.0,4.0,4.0,4.0,4.0,4.0,4.0,4.0,4.0,4.0,4.0,4.0,4.0,4.0,4.0,100.0,,,,,,,,,,,,,,,,,,,,,,,,,,,,,,,,,,,,,,,,,,,,,,,,,,,,,,,,,,,,,,,,,,,,,,,,,,,,,,,,,,,,,,,,,,,,,,,,,,,,,,,,,,,,,,,,,,,,,,,,,,,,,,,,,,,
1725710439.119815,1725710439.120114,232.0,0.0,4249.487305,4218.717773,4265.512695,4282.692383,4187.307617,4228.077148,3984.743652,4260.641113,4263.077148,4182.563965,4541.153809,4505.384766,4370.256348,4448.077148,3425.0,1.0,15.0,,,,0.0,4.0,4.0,4.0,4.0,4.0,4.0,4.0,4.0,4.0,4.0,4.0,4.0,4.0,4.0,100.0,,,,,,,,,,,,,,,,,,,,,,,,,,,,,,,,,,,,,,,,,,,,,,,,,,,,,,,,0.0,0.0,1.0,0.0,128.0,0.017628,,,,,,,,,,,,,,,,,,,,,,,,,,,,,,,,,,,,,,,,,,,,,,,,,,,,,,,,,,,,,,,,,,,,,,
1725710439.123719,1725710439.124018,233.0,0.0,4249.615234,4217.94873,4263.717773,4281.025879,4188.205078,4223.077148,3980.769287,4262.820313,4256.666504,4178.974121,4539.358887,4503.333496,4372.179688,4446.025879,3961.0,1.0,15.0,,,,0.0,4.0,4.0,4.0,4.0,4.0,4.0,4.0,4.0,4.0,4.0,4.0,4.0,4.0,4.0,100.0,,,,,,,,,,,,,,,,,,,,,,,,,,,,,,,,,,,,,,,,,,,,,,,,,,,,,,,,,,,,,,,,,,,,,,,,,,,,,,,,,,,,,,,,,,,,,,,,,,,,,,,,,,,,,,,,,,,,,,,,,,,,,,,,,,,
1725710439.127623,1725710439.127922,234.0,0.0,4249.230957,4217.179688,4263.461426,4281.153809,4188.589844,4220.128418,3976.794922,4265.0,4254.358887,4179.487305,4539.487305,4505.256348,4373.461426,4446.282227,2919.0,1.0,15.0,,,,0.0,4.0,4.0,4.0,4.0,4.0,4.0,4.0,4.0,4.0,4.0,4.0,4.0,4.0,4.0,100.0,,,,,,,,,,,,,,,,,,,,,,,,,,,,,,,,,,,,,,,,,,,,,,,,,,,,,,,,,,,,,,,,,,,,,,,,,,,,,,,,,,,,,,,,,,,,,,,,,,,,,,,,,,,,,,,,,,,,,,,,,,,,,,,,,,,
1725710439.131527,1725710439.131726,235.0,0.0,4248.333496,4216.794922,4263.717773,4281.282227,4187.94873,4221.153809,3973.461426,4263.461426,4255.769043,4182.179688,4540.256348,4508.846191,4371.794922,4447.307617,3161.0,1.0,15.0,,,,0.0,4.0,4.0,4.0,4.0,4.0,4.0,4.0,4.0,4.0,4.0,4.0,4.0,4.0,4.0,100.0,,,,,,,,,,,,,,,,,,,,,,,,,,,,,,,,,,,,,,,,,,,,,,,,,,,,,,,,,,,,,,,,,,,,,,,,,,,,,,,,,,,,,,,,,,,,,,,,,,,,,,,,,,,,,,,,,,,,,,,,,,,,,,,,,,,
1725710439.135431,1725710439.13563,236.0,0.0,4247.179688,4217.436035,4263.461426,4280.641113,4186.410156,4225.384766,3971.666748,4257.94873,4258.974121,4184.102539,4540.512695,4510.384766,4368.461426,4447.436035,3425.0,1.0,15.0,,,,0.0,4.0,4.0,4.0,4.0,4.0,4.0,4.0,4.0,4.0,4.0,4.0,4.0,4.0,4.0,100.0,,,,,,,,,,,,,,,,,,,,,,,,,,,,,,,,,,,,,,,,,,,,,,,,,,,,,,,,,,,,,,,,,,,,,,,,,,,,,,,,,,,,,,,,,,,,,,,,,,,,,,,,,,,,,,,,,,,,,,,,,,,,,,,,,,,
1725710439.139335,1725710439.139534,237.0,0.0,4246.538574,4218.589844,4262.563965,4279.487305,4185.128418,4230.128418,3971.281982,4252.179688,4261.922852,4184.102539,4539.743652,4508.717773,4366.794922,4446.410156,3961.0,1.0,15.0,,,,0.0,4.0,4.0,4.0,4.0,4.0,4.0,4.0,4.0,4.0,4.0,4.0,4.0,4.0,4.0,100.0,,,,,,,,,,,,,,,,,,,,,,,,,,,,,,,,,,,,,,,,,,,,,,,,,,,,,,,,,,,,,,,,,,,,,,,,,,,,,,,,,,,,,,,,,,,,,,,,,,,,,,,,,,,,,,,,,,,,,,,,,,,,,,,,,,,
1725710439.143239,1725710439.143438,238.0,0.0,4246.153809,4219.358887,4261.153809,4278.461426,4185.128418,4232.692383,3971.794922,4250.128418,4263.205078,4182.563965,4537.94873,4505.256348,4369.102539,4445.0,2919.0,1.0,15.0,,,,0.0,4.0,4.0,4.0,4.0,4.0,4.0,4.0,4.0,4.0,4.0,4.0,4.0,4.0,4.0,100.0,,,,,,,,,,,,,,,,,,,,,,,,,,,,,,,,,,,,,,,,,,,,,,,,,,,,,,,,,,,,,,,,,,,,,,,,,,,,,,,,,,,,,,,,,,,,,,,,,,,,,,,,,,,,,,,,,,,,,,,,,,,,,,,,,,,
1725710439.147143,1725710439.147243,239.0,0.0,4245.897461,4219.230957,4259.871582,4278.077148,4186.410156,4231.538574,3971.153809,4252.94873,4263.077148,4181.153809,4535.769043,4503.077148,4373.974121,4444.743652,3161.0,1.0,15.0,,,,0.0,4.0,4.0,4.0,4.0,4.0,4.0,4.0,4.0,4.0,4.0,4.0,4.0,4.0,4.0,100.0,,,,,,,,,,,,,,,,,,,,,,,,,,,,,,,,,,,,,,,,,,,,,,,,,,,,,,,,,,,,,,,,,,,,,,,,,,,,,,,,,,,,,,,,,,,,,,,,,,,,,,,,,,,,,,,,,,,,,,,,,,,,,,,,,,,
1725710439.151047,1725710439.151147,240.0,0.0,4246.282227,4218.846191,4259.358887,4278.717773,4187.692383,4227.05127,3968.589844,4258.717773,4262.436035,4181.025879,4534.615234,4504.743652,4378.717773,4446.922852,3425.0,1.0,15.0,,,,0.0,4.0,4.0,4.0,4.0,4.0,4.0,4.0,4.0,4.0,4.0,4.0,4.0,4.0,4.0,100.0,,,,,,,,,,,,,,,,,1.0,0.0,0.0,,,,,,,,,,,,,,,,,,,,,,,,,,,,,,,,,,,,,0.0,0.0,1.0,0.0,128.0,0.039511,0.929918,0.207257,0.294913,0.125213,0.03987,0.841348,0.333702,0.299201,0.236629,0.079692,0.743996,0.34694,0.208197,0.090229,0.06408,1.065716,0.338688,0.207091,0.160707,0.085681,3.138108,0.185034,0.173957,0.110204,0.060682,0.386947,0.324492,0.14284,0.068884,0.046698,8.735079,2.092455,1.189055,0.317214,0.104228,0.444883,1.210876,1.027578,0.123843,0.125301,0.721131,1.34542,0.879196,0.18158,0.112101,0.796385,1.098119,1.413205,0.173529,0.133062,2.444082,1.286188,1.57263,0.561449,0.398681,2.821414,1.142459,0.996149,0.39421,0.122868,1.456161,0.850941,0.928133,0.37864,0.160034,2.993396,0.945182,0.689199,0.421357,0.127906
1725710439.154951,1725710439.155051,241.0,0.0,4247.307617,4218.974121,4259.615234,4280.256348,4188.077148,4221.153809,3964.487061,4263.461426,4262.563965,4182.307617,4535.384766,4510.0,4380.641113,4451.666504,3961.0,1.0,15.0,,,,0.0,4.0,4.0,4.0,4.0,4.0,4.0,4.0,4.0,4.0,4.0,4.0,4.0,4.0,4.0,100.0,,,,,,,,,,,,,,,,,,,,,,,,,,,,,,,,,,,,,,,,,,,,,,,,,,,,,,,,,,,,,,,,,,,,,,,,,,,,,,,,,,,,,,,,,,,,,,,,,,,,,,,,,,,,,,,,,,,,,,,,,,,,,,,,,,,
1725710439.158856,1725710439.159055,242.0,0.0,4248.846191,4219.743652,4260.384766,4281.666504,4187.563965,4216.282227,3961.025635,4264.743652,4263.846191,4183.974121,4537.307617,4516.794922,4379.358887,4457.563965,2919.0,1.0,15.0,,,,0.0,4.0,4.0,4.0,4.0,4.0,4.0,4.0,4.0,4.0,4.0,4.0,4.0,4.0,4.0,100.0,,,,,,,,,,,,,,,,,,,,,,,,,,,,,,,,,,,,,,,,,,,,,,,,,,,,,,,,,,,,,,,,,,,,,,,,,,,,,,,,,,,,,,,,,,,,,,,,,,,,,,,,,,,,,,,,,,,,,,,,,,,,,,,,,,,
1725710439.16276,1725710439.162959,243.0,0.0,4249.871582,4220.128418,4261.153809,4281.538574,4187.563965,4214.615234,3960.384521,4262.820313,4265.512695,4184.871582,4538.717773,4522.307617,4376.410156,4461.410156,3161.0,1.0,15.0,,,,0.0,4.0,4.0,4.0,4.0,4.0,4.0,4.0,4.0,4.0,4.0,4.0,4.0,4.0,4.0,100.0,,,,,,,,,,,,,,,,,,,,,,,,,,,,,,,,,,,,,,,,,,,,,,,,,,,,,,,,,,,,,,,,,,,,,,,,,,,,,,,,,,,,,,,,,,,,,,,,,,,,,,,,,,,,,,,,,,,,,,,,,,,,,,,,,,,
1725710439.166664,1725710439.166863,244.0,0.0,4249.743652,4219.615234,4261.666504,4279.871582,4188.974121,4216.922852,3962.94873,4260.384766,4266.282227,4185.384766,4538.846191,4524.487305,4373.974121,4461.025879,3425.0,1.0,15.0,,,,0.0,4.0,4.0,4.0,4.0,4.0,4.0,4.0,4.0,4.0,4.0,4.0,4.0,4.0,4.0,100.0,,,,,,,,,,,,,,,,,,,,,,,,,,,,,,,,,,,,,,,,,,,,,,,,,,,,,,,,,,,,,,,,,,,,,,,,,,,,,,,,,,,,,,,,,,,,,,,,,,,,,,,,,,,,,,,,,,,,,,,,,,,,,,,,,,,
1725710439.170568,1725710439.170867,245.0,0.0,4248.846191,4218.333496,4262.05127,4277.692383,4192.05127,4221.922852,3967.307617,4259.487305,4265.512695,4185.897461,4538.589844,4523.077148,4373.205078,4457.05127,3961.0,1.0,15.0,,,,0.0,4.0,4.0,4.0,4.0,4.0,4.0,4.0,4.0,4.0,4.0,4.0,4.0,4.0,4.0,100.0,,,,,,,,,,,,,,,,,,,,,,,,,,,,,,,,,,,,,,,,,,,,,,,,,,,,,,,,,,,,,,,,,,,,,,,,,,,,,,,,,,,,,,,,,,,,,,,,,,,,,,,,,,,,,,,,,,,,,,,,,,,,,,,,,,,
1725710439.174472,1725710439.174771,246.0,0.0,4247.820313,4217.179688,4262.563965,4276.666504,4195.897461,4227.436035,3971.538574,4260.897461,4263.333496,4186.410156,4539.230957,4519.743652,4373.846191,4451.922852,2919.0,1.0,15.0,,,,0.0,4.0,4.0,4.0,4.0,4.0,4.0,4.0,4.0,4.0,4.0,4.0,4.0,4.0,4.0,100.0,,,,,,,,,,,,,,,,,,,,,,,,,,,,,,,,,,,,,,,,,,,,,,,,,,,,,,,,,,,,,,,,,,,,,,,,,,,,,,,,,,,,,,,,,,,,,,,,,,,,,,,,,,,,,,,,,,,,,,,,,,,,,,,,,,,
1725710439.178376,1725710439.178675,247.0,0.0,4247.05127,4216.666504,4263.205078,4277.563965,4199.358887,4231.282227,3974.487061,4263.333496,4260.897461,4186.025879,4540.512695,4516.153809,4373.974121,4448.461426,3161.0,1.0,15.0,,,,0.0,4.0,4.0,4.0,4.0,4.0,4.0,4.0,4.0,4.0,4.0,4.0,4.0,4.0,4.0,100.0,,,,,,,,,,,,,,,,,,,,,,,,,,,,,,,,,,,,,,,,,,,,,,,,,,,,,,,,,,,,,,,,,,,,,,,,,,,,,,,,,,,,,,,,,,,,,,,,,,,,,,,,,,,,,,,,,,,,,,,,,,,,,,,,,,,
1725710439.18228,1725710439.182579,248.0,0.0,4247.05127,4216.794922,4263.846191,4279.487305,4201.410156,4232.436035,3976.025635,4265.0,4260.128418,4184.230957,4540.384766,4513.589844,4372.307617,4447.307617,3425.0,1.0,15.0,,,,0.0,4.0,4.0,4.0,4.0,4.0,4.0,4.0,4.0,4.0,4.0,4.0,4.0,4.0,4.0,100.0,,,,,,,,,,,,,,,,,,,,,,,,,,,,,,,,,,,,,,,,,,,,,,,,,,,,,,,,0.0,0.0,1.0,0.0,128.0,0.039511,,,,,,,,,,,,,,,,,,,,,,,,,,,,,,,,,,,,,,,,,,,,,,,,,,,,,,,,,,,,,,,,,,,,,,
1725710439.186184,1725710439.186483,249.0,0.0,4247.436035,4217.179688,4264.230957,4280.897461,4202.307617,4231.538574,3977.179443,4265.128418,4261.282227,4182.05127,4537.05127,4512.05127,4369.102539,4447.307617,3961.0,1.0,15.0,,,,0.0,4.0,4.0,4.0,4.0,4.0,4.0,4.0,4.0,4.0,4.0,4.0,4.0,4.0,4.0,100.0,,,,,,,,,,,,,,,,,,,,,,,,,,,,,,,,,,,,,,,,,,,,,,,,,,,,,,,,,,,,,,,,,,,,,,,,,,,,,,,,,,,,,,,,,,,,,,,,,,,,,,,,,,,,,,,,,,,,,,,,,,,,,,,,,,,
1725710439.190088,1725710439.190388,250.0,0.0,4247.692383,4217.436035,4264.358887,4280.128418,4202.436035,4230.384766,3979.230713,4264.230957,4263.461426,4180.256348,4530.769043,4510.769043,4366.025879,4447.179688,2919.0,1.0,15.0,,,,0.0,4.0,4.0,4.0,4.0,4.0,4.0,4.0,4.0,4.0,4.0,4.0,4.0,4.0,4.0,100.0,,,,,,,,,,,,,,,,,,,,,,,,,,,,,,,,,,,,,,,,,,,,,,,,,,,,,,,,,,,,,,,,,,,,,,,,,,,,,,,,,,,,,,,,,,,,,,,,,,,,,,,,,,,,,,,,,,,,,,,,,,,,,,,,,,,
1725710439.193993,1725710439.194192,251.0,0.0,4247.692383,4217.563965,4264.230957,4277.563965,4202.563965,4230.384766,3982.307617,4263.077148,4264.487305,4179.230957,4523.589844,4509.358887,4364.615234,4446.025879,3161.0,1.0,15.0,,,,0.0,4.0,4.0,4.0,4.0,4.0,4.0,4.0,4.0,4.0,4.0,4.0,4.0,4.0,4.0,100.0,,,,,,,,,,,,,,,,,,,,,,,,,,,,,,,,,,,,,,,,,,,,,,,,,,,,,,,,,,,,,,,,,,,,,,,,,,,,,,,,,,,,,,,,,,,,,,,,,,,,,,,,,,,,,,,,,,,,,,,,,,,,,,,,,,,
1725710439.197897,1725710439.198096,252.0,0.0,4247.436035,4217.692383,4264.102539,4274.615234,4203.589844,4231.282227,3985.512939,4261.922852,4263.717773,4179.230957,4518.717773,4507.820313,4365.128418,4444.230957,3425.0,1.0,15.0,,,,0.0,4.0,4.0,4.0,4.0,4.0,4.0,4.0,4.0,4.0,4.0,4.0,4.0,4.0,4.0,100.0,,,,,,,,,,,,,,,,,,,,,,,,,,,,,,,,,,,,,,,,,,,,,,,,,,,,,,,,,,,,,,,,,,,,,,,,,,,,,,,,,,,,,,,,,,,,,,,,,,,,,,,,,,,,,,,,,,,,,,,,,,,,,,,,,,,
1725710439.201801,1725710439.202,253.0,0.0,4247.179688,4218.077148,4264.102539,4273.205078,4205.769043,4231.794922,3987.435791,4260.897461,4262.05127,4179.871582,4518.205078,4507.05127,4366.153809,4442.436035,3961.0,1.0,15.0,,,,0.0,4.0,4.0,4.0,4.0,4.0,4.0,4.0,4.0,4.0,4.0,4.0,4.0,4.0,4.0,100.0,,,,,,,,,,,,,,,,,,,,,,,,,,,,,,,,,,,,,,,,,,,,,,,,,,,,,,,,,,,,,,,,,,,,,,,,,,,,,,,,,,,,,,,,,,,,,,,,,,,,,,,,,,,,,,,,,,,,,,,,,,,,,,,,,,,
1725710439.205705,1725710439.205804,254.0,0.0,4247.05127,4218.846191,4264.230957,4273.589844,4208.461426,4231.410156,3988.076904,4260.769043,4261.410156,4181.153809,4521.282227,4507.307617,4366.410156,4441.794922,2919.0,1.0,15.0,,,,0.0,4.0,4.0,4.0,4.0,4.0,4.0,4.0,4.0,4.0,4.0,4.0,4.0,4.0,4.0,100.0,,,,,,,,,,,,,,,,,,,,,,,,,,,,,,,,,,,,,,,,,,,,,,,,,,,,,,,,,,,,,,,,,,,,,,,,,,,,,,,,,,,,,,,,,,,,,,,,,,,,,,,,,,,,,,,,,,,,,,,,,,,,,,,,,,,
1725710439.209609,1725710439.209708,255.0,0.0,4246.794922,4219.871582,4264.102539,4274.615234,4211.025879,4230.897461,3988.974365,4262.05127,4262.307617,4182.563965,4525.0,4507.820313,4365.641113,4442.307617,15.0,1.0,15.0,,,,0.0,4.0,4.0,4.0,4.0,4.0,4.0,4.0,4.0,4.0,4.0,4.0,4.0,4.0,4.0,100.0,,,,,,,,,,,,,,,,,,,,,,,,,,,,,,,,,,,,,,,,,,,,,,,,,,,,,,,,,,,,,,,,,,,,,,,,,,,,,,,,,,,,,,,,,,,,,,,,,,,,,,,,,,,,,,,,,,,,,,,,,,,,,,,,,,,
1725710439.213513,1725710439.213612,0.0,0.0,4246.410156,4220.641113,4263.717773,4274.358887,4212.94873,4231.153809,3990.769287,4263.974121,4263.974121,4183.846191,4526.153809,4507.692383,4364.358887,4443.077148,2702.0,1.0,15.0,,,,0.0,4.0,4.0,4.0,4.0,4.0,4.0,4.0,4.0,4.0,4.0,4.0,4.0,4.0,4.0,100.0,,,,,,,,,,,,,,,,,,,,,,,,,,,,,,,,,,,,,,,,,,,,,,,,,,,,,,,,0.0,0.0,1.0,0.0,128.0,0.039511,,,,,,,,,,,,,,,,,,,,,,,,,,,,,,,,,,,,,,,,,,,,,,,,,,,,,,,,,,,,,,,,,,,,,,
1725710439.217417,1725710439.217516,1.0,0.0,4246.025879,4220.897461,4263.077148,4272.563965,4213.205078,4231.794922,3992.564209,4264.487305,4264.743652,4184.102539,4523.974121,4506.282227,4363.589844,4442.820313,2585.0,1.0,15.0,,,,0.0,4.0,4.0,4.0,4.0,4.0,4.0,4.0,4.0,4.0,4.0,4.0,4.0,4.0,4.0,100.0,,,,,,,,,,,,,,,,,,,,,,,,,,,,,,,,,,,,,,,,,,,,,,,,,,,,,,,,,,,,,,,,,,,,,,,,,,,,,,,,,,,,,,,,,,,,,,,,,,,,,,,,,,,,,,,,,,,,,,,,,,,,,,,,,,,
1725710439.221321,1725710439.221321,2.0,0.0,4245.641113,4220.128418,4262.436035,4270.641113,4210.897461,4231.666504,3993.076904,4262.307617,4263.846191,4183.077148,4520.641113,4504.358887,4363.717773,4441.538574,2515.0,1.0,15.0,,,,0.0,4.0,4.0,4.0,4.0,4.0,4.0,4.0,4.0,4.0,4.0,4.0,4.0,4.0,4.0,100.0,,,,,,,,,,,,,,,,,,,,,,,,,,,,,,,,,,,,,,,,,,,,,,,,,,,,,,,,,,,,,,,,,,,,,,,,,,,,,,,,,,,,,,,,,,,,,,,,,,,,,,,,,,,,,,,,,,,,,,,,,,,,,,,,,,,
1725710439.225225,1725710439.225225,3.0,0.0,4245.512695,4218.333496,4262.179688,4270.256348,4206.410156,4229.743652,3992.05127,4258.717773,4262.307617,4181.794922,4519.230957,4503.077148,4365.0,4440.256348,2486.0,1.0,15.0,,,,0.0,4.0,4.0,4.0,4.0,4.0,4.0,4.0,4.0,4.0,4.0,4.0,4.0,4.0,4.0,100.0,,,,,,,,,,,,,,,,,,,,,,,,,,,,,,,,,,,,,,,,,,,,,,,,,,,,,,,,,,,,,,,,,,,,,,,,,,,,,,,,,,,,,,,,,,,,,,,,,,,,,,,,,,,,,,,,,,,,,,,,,,,,,,,,,,,
1725710439.229129,1725710439.229129,4.0,0.0,4245.897461,4216.153809,4262.179688,4271.666504,4202.307617,4225.512695,3991.281982,4256.538574,4262.05127,4181.282227,4520.512695,4503.461426,4367.307617,4440.384766,2448.0,1.0,15.0,,,,0.0,4.0,4.0,4.0,4.0,4.0,4.0,4.0,4.0,4.0,4.0,4.0,4.0,4.0,4.0,100.0,,,,,,,,,,,,,,,,,,,,,,,,,,,,,,,,,,,,,,,,,,,,,,,,,,,,,,,,,,,,,,,,,,,,,,,,,,,,,,,,,,,,,,,,,,,,,,,,,,,,,,,,,,,,,,,,,,,,,,,,,,,,,,,,,,,
1725710439.233034,1725710439.233033,5.0,0.0,4246.666504,4215.0,4262.563965,4273.717773,4201.282227,4220.641113,3992.564209,4257.436035,4263.461426,4182.307617,4523.077148,4505.256348,4370.128418,4442.820313,2413.0,1.0,15.0,,,,0.0,4.0,4.0,4.0,4.0,4.0,4.0,4.0,4.0,4.0,4.0,4.0,4.0,4.0,4.0,100.0,,,,,,,,,,,,,,,,,,,,,,,,,,,,,,,,,,,,,,,,,,,,,,,,,,,,,,,,,,,,,,,,,,,,,,,,,,,,,,,,,,,,,,,,,,,,,,,,,,,,,,,,,,,,,,,,,,,,,,,,,,,,,,,,,,,
1725710439.236938,1725710439.236837,6.0,0.0,4247.307617,4216.666504,4262.94873,4274.230957,4203.974121,4217.307617,3996.410156,4260.512695,4265.641113,4184.615234,4524.615234,4507.436035,4372.563965,4445.897461,2463.0,1.0,15.0,,,,0.0,4.0,4.0,4.0,4.0,4.0,4.0,4.0,4.0,4.0,4.0,4.0,4.0,4.0,4.0,100.0,,,,,,,,,,,,,,,,,,,,,,,,,,,,,,,,,,,,,,,,,,,,,,,,,,,,,,,,,,,,,,,,,,,,,,,,,,,,,,,,,,,,,,,,,,,,,,,,,,,,,,,,,,,,,,,,,,,,,,,,,,,,,,,,,,,
1725710439.240842,1725710439.240741,7.0,0.0,4247.563965,4221.794922,4263.461426,4272.436035,4208.077148,4217.05127,4001.281982,4263.461426,4266.922852,4187.307617,4524.487305,4508.846191,4373.205078,4447.94873,2499.0,1.0,15.0,,,,0.0,4.0,4.0,4.0,4.0,4.0,4.0,4.0,4.0,4.0,4.0,4.0,4.0,4.0,4.0,100.0,,,,,,,,,,,,,,,,,,,,,,,,,,,,,,,,,,,,,,,,,,,,,,,,,,,,,,,,,,,,,,,,,,,,,,,,,,,,,,,,,,,,,,,,,,,,,,,,,,,,,,,,,,,,,,,,,,,,,,,,,,,,,,,,,,,
1725710439.244746,1725710439.244645,8.0,0.0,4247.436035,4228.589844,4263.974121,4268.589844,4210.641113,4218.846191,4004.743652,4264.102539,4267.179688,4189.358887,4524.230957,4509.358887,4371.410156,4447.436035,2479.0,1.0,15.0,,,,0.0,4.0,4.0,4.0,4.0,4.0,4.0,4.0,4.0,4.0,4.0,4.0,4.0,4.0,4.0,100.0,,,,,,,,,,,,,,,,,,,,,,,,,,,,,,,,,,,,,,,,,,,,,,,,,,,,,,,,0.0,0.0,1.0,0.0,128.0,0.039511,,,,,,,,,,,,,,,,,,,,,,,,,,,,,,,,,,,,,,,,,,,,,,,,,,,,,,,,,,,,,,,,,,,,,,
1725710439.24865,1725710439.248649,9.0,0.0,4247.307617,4233.461426,4264.358887,4265.128418,4210.128418,4220.384766,4005.256348,4262.307617,4267.563965,4190.128418,4526.025879,4509.871582,4368.205078,4445.384766,2575.0,1.0,15.0,,,,0.0,4.0,4.0,4.0,4.0,4.0,4.0,4.0,4.0,4.0,4.0,4.0,4.0,4.0,4.0,100.0,,,,,,,,,,,,,,,,,,,,,,,,,,,,,,,,,,,,,,,,,,,,,,,,,,,,,,,,,,,,,,,,,,,,,,,,,,,,,,,,,,,,,,,,,,,,,,,,,,,,,,,,,,,,,,,,,,,,,,,,,,,,,,,,,,,
1725710439.252554,1725710439.252554,10.0,0.0,4247.563965,4233.717773,4264.743652,4264.102539,4208.333496,4220.0,4003.846191,4260.0,4269.230957,4189.743652,4531.025879,4511.922852,4365.769043,4443.717773,2929.0,1.0,15.0,,,,0.0,4.0,4.0,4.0,4.0,4.0,4.0,4.0,4.0,4.0,4.0,4.0,4.0,4.0,4.0,100.0,,,,,,,,,,,,,,,,,,,,,,,,,,,,,,,,,,,,,,,,,,,,,,,,,,,,,,,,,,,,,,,,,,,,,,,,,,,,,,,,,,,,,,,,,,,,,,,,,,,,,,,,,,,,,,,,,,,,,,,,,,,,,,,,,,,
1725710439.256458,1725710439.256458,11.0,0.0,4248.589844,4229.871582,4264.871582,4265.897461,4207.563965,4218.333496,4002.94873,4258.974121,4271.922852,4189.102539,4537.307617,4515.769043,4366.282227,4443.974121,3161.0,1.0,15.0,,,,0.0,4.0,4.0,4.0,4.0,4.0,4.0,4.0,4.0,4.0,4.0,4.0,4.0,4.0,4.0,100.0,,,,,,,,,,,,,,,,,,,,,,,,,,,,,,,,,,,,,,,,,,,,,,,,,,,,,,,,,,,,,,,,,,,,,,,,,,,,,,,,,,,,,,,,,,,,,,,,,,,,,,,,,,,,,,,,,,,,,,,,,,,,,,,,,,,
1725710439.260362,1725710439.260362,12.0,0.0,4249.871582,4225.0,4265.0,4268.846191,4209.615234,4217.94873,4004.358887,4260.128418,4274.102539,4188.846191,4541.410156,4519.871582,4370.384766,4446.025879,3448.0,1.0,15.0,,,,0.0,4.0,4.0,4.0,4.0,4.0,4.0,4.0,4.0,4.0,4.0,4.0,4.0,4.0,4.0,100.0,,,,,,,,,,,,,,,,,,,,,,,,,,,,,,,,,,,,,,,,,,,,,,,,,,,,,,,,,,,,,,,,,,,,,,,,,,,,,,,,,,,,,,,,,,,,,,,,,,,,,,,,,,,,,,,,,,,,,,,,,,,,,,,,,,,
1725710439.264266,1725710439.264366,13.0,0.0,4250.769043,4222.820313,4265.256348,4270.897461,4213.333496,4221.025879,4007.435791,4262.436035,4273.717773,4189.102539,4539.615234,4522.179688,4376.410156,4447.94873,3962.0,1.0,15.0,,,,0.0,4.0,4.0,4.0,4.0,4.0,4.0,4.0,4.0,4.0,4.0,4.0,4.0,4.0,4.0,100.0,,,,,,,,,,,,,,,,,,,,,,,,,,,,,,,,,,,,,,,,,,,,,,,,,,,,,,,,,,,,,,,,,,,,,,,,,,,,,,,,,,,,,,,,,,,,,,,,,,,,,,,,,,,,,,,,,,,,,,,,,,,,,,,,,,,
1725710439.26817,1725710439.26827,14.0,0.0,4251.025879,4224.487305,4265.512695,4270.897461,4216.410156,4226.666504,4010.641113,4263.717773,4270.512695,4189.102539,4532.307617,4522.307617,4381.410156,4447.692383,2929.0,1.0,15.0,,,,0.0,4.0,4.0,4.0,4.0,4.0,4.0,4.0,4.0,4.0,4.0,4.0,4.0,4.0,4.0,100.0,,,,,,,,,,,,,,,,,,,,,,,,,,,,,,,,,,,,,,,,,,,,,,,,,,,,,,,,,,,,,,,,,,,,,,,,,,,,,,,,,,,,,,,,,,,,,,,,,,,,,,,,,,,,,,,,,,,,,,,,,,,,,,,,,,,
1725710439.272075,1725710439.272174,15.0,0.0,4250.384766,4228.589844,4265.769043,4268.846191,4216.922852,4231.922852,4012.692383,4262.692383,4265.641113,4188.333496,4524.102539,4521.538574,4383.205078,4445.512695,3161.0,1.0,15.0,,,,0.0,4.0,4.0,4.0,4.0,4.0,4.0,4.0,4.0,4.0,4.0,4.0,4.0,4.0,4.0,100.0,,,,,,,,,,,,,,,,,,,,,,,,,,,,,,,,,,,,,,,,,,,,,,,,,,,,,,,,,,,,,,,,,,,,,,,,,,,,,,,,,,,,,,,,,,,,,,,,,,,,,,,,,,,,,,,,,,,,,,,,,,,,,,,,,,,
1725710439.275979,1725710439.276178,16.0,0.0,4249.358887,4231.922852,4265.897461,4266.282227,4215.256348,4233.461426,4013.718018,4259.743652,4262.05127,4186.922852,4521.025879,4521.410156,4381.410156,4443.461426,3448.0,1.0,15.0,,,,0.0,4.0,4.0,4.0,4.0,4.0,4.0,4.0,4.0,4.0,4.0,4.0,4.0,4.0,4.0,100.0,1.0,41.666668,4.0,4.0,4.0,4.0,1.0,4.0,0.0,4.0,4.0,4.0,4.0,4.0,4.0,4.0,1.0,0.0,0.0,,,,,,,,,,,,,,,,,,,,,,,,,,,,,,,,,,,,,0.0,0.0,1.0,0.0,128.0,0.063978,1.031968,0.142641,0.348968,0.138118,0.040858,1.211135,0.375375,0.370947,0.27167,0.09367,0.734372,0.3012,0.260931,0.09847,0.069119,1.406155,0.407581,0.205968,0.140438,0.089781,4.89836,0.286191,0.240329,0.092113,0.048604,0.413241,0.372,0.139506,0.079799,0.057011,9.870312,1.859281,0.741916,0.205245,0.090986,0.375257,1.462394,1.203482,0.131705,0.132412,0.582374,1.452332,1.042453,0.195318,0.119026,0.742224,1.203794,1.846162,0.22087,0.16977,2.618865,1.682041,1.947781,0.648629,0.410408,2.756666,1.316327,1.328552,0.450465,0.128336,1.668354,0.89396,1.227082,0.492238,0.188814,3.27653,0.933753,0.846235,0.4734,0.141192
1725710439.279883,1725710439.280082,17.0,0.0,4248.589844,4232.820313,4265.641113,4264.102539,4213.461426,4231.153809,4014.743652,4256.666504,4261.410156,4185.897461,4525.384766,4522.05127,4378.846191,4444.230957,3962.0,1.0,15.0,,,,0.0,4.0,4.0,4.0,4.0,4.0,4.0,4.0,4.0,4.0,4.0,4.0,4.0,4.0,4.0,100.0,,,,,,,,,,,,,,,,,,,,,,,,,,,,,,,,,,,,,,,,,,,,,,,,,,,,,,,,,,,,,,,,,,,,,,,,,,,,,,,,,,,,,,,,,,,,,,,,,,,,,,,,,,,,,,,,,,,,,,,,,,,,,,,,,,,
1725710439.283787,1725710439.283986,18.0,0.0,4248.333496,4231.410156,4265.256348,4263.205078,4213.461426,4227.820313,4016.281982,4254.230957,4263.589844,4185.769043,4533.461426,4521.794922,4378.205078,4448.333496,2929.0,1.0,15.0,,,,0.0,4.0,4.0,4.0,4.0,4.0,4.0,4.0,4.0,4.0,4.0,4.0,4.0,4.0,4.0,100.0,,,,,,,,,,,,,,,,,,,,,,,,,,,,,,,,,,,,,,,,,,,,,,,,,,,,,,,,,,,,,,,,,,,,,,,,,,,,,,,,,,,,,,,,,,,,,,,,,,,,,,,,,,,,,,,,,,,,,,,,,,,,,,,,,,,
1725710439.287691,1725710439.28789,19.0,0.0,4248.717773,4229.615234,4265.0,4263.589844,4215.384766,4226.538574,4017.692383,4252.05127,4266.153809,4186.410156,4538.846191,4518.717773,4380.512695,4453.589844,3161.0,1.0,15.0,,,,0.0,4.0,4.0,4.0,4.0,4.0,4.0,4.0,4.0,4.0,4.0,4.0,4.0,4.0,4.0,100.0,,,,,,,,,,,,,,,,,,,,,,,,,,,,,,,,,,,,,,,,,,,,,,,,,,,,,,,,,,,,,,,,,,,,,,,,,,,,,,,,,,,,,,,,,,,,,,,,,,,,,,,,,,,,,,,,,,,,,,,,,,,,,,,,,,,
1725710439.291595,1725710439.291794,20.0,0.0,4249.358887,4229.358887,4264.871582,4265.0,4217.692383,4227.820313,4017.564209,4249.871582,4267.05127,4186.922852,4537.05127,4513.589844,4383.717773,4457.307617,3448.0,1.0,15.0,,,,0.0,4.0,4.0,4.0,4.0,4.0,4.0,4.0,4.0,4.0,4.0,4.0,4.0,4.0,4.0,100.0,,,,,,,,,,,,,,,,,,,,,,,,,,,,,,,,,,,,,,,,,,,,,,,,,,,,,,,,,,,,,,,,,,,,,,,,,,,,,,,,,,,,,,,,,,,,,,,,,,,,,,,,,,,,,,,,,,,,,,,,,,,,,,,,,,,
1725710439.295499,1725710439.295599,21.0,0.0,4250.256348,4230.641113,4265.0,4266.666504,4218.589844,4229.487305,4015.512939,4248.461426,4265.897461,4186.410156,4529.871582,4509.230957,4385.128418,4457.94873,3962.0,1.0,15.0,,,,0.0,4.0,4.0,4.0,4.0,4.0,4.0,4.0,4.0,4.0,4.0,4.0,4.0,4.0,4.0,100.0,,,,,,,,,,,,,,,,,,,,,,,,,,,,,,,,,,,,,,,,,,,,,,,,,,,,,,,,,,,,,,,,,,,,,,,,,,,,,,,,,,,,,,,,,,,,,,,,,,,,,,,,,,,,,,,,,,,,,,,,,,,,,,,,,,,
1725710439.299403,1725710439.299503,22.0,0.0,4250.897461,4231.922852,4265.256348,4267.436035,4217.692383,4228.717773,4012.820557,4249.358887,4264.743652,4185.384766,4522.563965,4508.974121,4383.461426,4456.282227,2929.0,1.0,15.0,,,,0.0,4.0,4.0,4.0,4.0,4.0,4.0,4.0,4.0,4.0,4.0,4.0,4.0,4.0,4.0,100.0,,,,,,,,,,,,,,,,,,,,,,,,,,,,,,,,,,,,,,,,,,,,,,,,,,,,,,,,,,,,,,,,,,,,,,,,,,,,,,,,,,,,,,,,,,,,,,,,,,,,,,,,,,,,,,,,,,,,,,,,,,,,,,,,,,,
1725710439.303307,1725710439.303407,23.0,0.0,4250.897461,4232.05127,4265.512695,4266.922852,4216.666504,4225.256348,4011.281982,4253.077148,4265.769043,4184.743652,4520.128418,4513.717773,4379.871582,4454.615234,3161.0,1.0,15.0,,,,0.0,4.0,4.0,4.0,4.0,4.0,4.0,4.0,4.0,4.0,4.0,4.0,4.0,4.0,4.0,100.0,,,,,,,,,,,,,,,,,,,,,,,,,,,,,,,,,,,,,,,,,,,,,,,,,,,,,,,,,,,,,,,,,,,,,,,,,,,,,,,,,,,,,,,,,,,,,,,,,,,,,,,,,,,,,,,,,,,,,,,,,,,,,,,,,,,
1725710439.307212,1725710439.307311,24.0,0.0,4250.641113,4231.282227,4265.897461,4266.025879,4216.922852,4221.153809,4011.923096,4258.077148,4269.358887,4185.256348,4522.94873,4520.897461,4377.05127,4455.128418,3448.0,1.0,15.0,,,,0.0,4.0,4.0,4.0,4.0,4.0,4.0,4.0,4.0,4.0,4.0,4.0,4.0,4.0,4.0,100.0,,,,,,,,,,,,,,,,,,,,,,,,,,,,,,,,,,,,,,,,,,,,,,,,,,,,,,,,0.0,0.0,1.0,0.0,128.0,0.063978,,,,,,,,,,,,,,,,,,,,,,,,,,,,,,,,,,,,,,,,,,,,,,,,,,,,,,,,,,,,,,,,,,,,,,
1725710439.311116,1725710439.311115,25.0,0.0,4250.512695,4231.538574,4267.563965,4266.025879,4217.94873,4218.205078,4013.718018,4262.179688,4274.102539,4186.922852,4527.05127,4526.666504,4376.922852,4458.077148,3962.0,1.0,15.0,,,,0.0,4.0,4.0,4.0,4.0,4.0,4.0,4.0,4.0,4.0,4.0,4.0,4.0,4.0,4.0,100.0,,,,,,,,,,,,,,,,,,,,,,,,,,,,,,,,,,,,,,,,,,,,,,,,,,,,,,,,,,,,,,,,,,,,,,,,,,,,,,,,,,,,,,,,,,,,,,,,,,,,,,,,,,,,,,,,,,,,,,,,,,,,,,,,,,,
1725710439.31502,1725710439.315019,26.0,0.0,4251.410156,4234.230957,4271.153809,4267.05127,4218.717773,4217.05127,4015.641113,4264.102539,4277.820313,4188.077148,4527.94873,4528.205078,4379.615234,4461.666504,2929.0,1.0,15.0,,,,0.0,4.0,4.0,4.0,4.0,4.0,4.0,4.0,4.0,4.0,4.0,4.0,4.0,4.0,4.0,100.0,,,,,,,,,,,,,,,,,,,,,,,,,,,,,,,,,,,,,,,,,,,,,,,,,,,,,,,,,,,,,,,,,,,,,,,,,,,,,,,,,,,,,,,,,,,,,,,,,,,,,,,,,,,,,,,,,,,,,,,,,,,,,,,,,,,
1725710439.318924,1725710439.318923,27.0,0.0,4253.589844,4238.717773,4276.025879,4267.692383,4219.487305,4217.05127,4017.307617,4264.743652,4279.487305,4187.179688,4524.615234,4526.282227,4382.94873,4463.461426,3161.0,1.0,15.0,,,,0.0,4.0,4.0,4.0,4.0,4.0,4.0,4.0,4.0,4.0,4.0,4.0,4.0,4.0,4.0,100.0,,,,,,,,,,,,,,,,,,,,,,,,,,,,,,,,,,,,,,,,,,,,,,,,,,,,,,,,,,,,,,,,,,,,,,,,,,,,,,,,,,,,,,,,,,,,,,,,,,,,,,,,,,,,,,,,,,,,,,,,,,,,,,,,,,,
1725710439.322828,1725710439.322827,28.0,0.0,4256.282227,4242.563965,4280.0,4266.410156,4221.410156,4217.820313,4018.718018,4265.512695,4279.743652,4185.384766,4520.512695,4523.461426,4385.128418,4462.436035,3448.0,1.0,15.0,,,,0.0,4.0,4.0,4.0,4.0,4.0,4.0,4.0,4.0,4.0,4.0,4.0,4.0,4.0,4.0,100.0,,,,,,,,,,,,,,,,,,,,,,,,,,,,,,,,,,,,,,,,,,,,,,,,,,,,,,,,,,,,,,,,,,,,,,,,,,,,,,,,,,,,,,,,,,,,,,,,,,,,,,,,,,,,,,,,,,,,,,,,,,,,,,,,,,,
1725710439.326732,1725710439.326632,29.0,0.0,4257.820313,4243.461426,4281.025879,4263.077148,4225.0,4219.358887,4019.487061,4266.794922,4279.487305,4184.230957,4520.256348,4522.05127,4385.256348,4459.358887,3962.0,1.0,15.0,,,,0.0,4.0,4.0,4.0,4.0,4.0,4.0,4.0,4.0,4.0,4.0,4.0,4.0,4.0,4.0,100.0,,,,,,,,,,,,,,,,,,,,,,,,,,,,,,,,,,,,,,,,,,,,,,,,,,,,,,,,,,,,,,,,,,,,,,,,,,,,,,,,,,,,,,,,,,,,,,,,,,,,,,,,,,,,,,,,,,,,,,,,,,,,,,,,,,,
1725710439.330636,1725710439.330536,30.0,0.0,4257.179688,4241.282227,4278.205078,4259.487305,4228.846191,4221.922852,4018.846191,4267.05127,4278.846191,4184.615234,4523.461426,4521.538574,4383.589844,4455.256348,2929.0,1.0,15.0,,,,0.0,4.0,4.0,4.0,4.0,4.0,4.0,4.0,4.0,4.0,4.0,4.0,4.0,4.0,4.0,100.0,,,,,,,,,,,,,,,,,,,,,,,,,,,,,,,,,,,,,,,,,,,,,,,,,,,,,,,,,,,,,,,,,,,,,,,,,,,,,,,,,,,,,,,,,,,,,,,,,,,,,,,,,,,,,,,,,,,,,,,,,,,,,,,,,,,
1725710439.33454,1725710439.33444,31.0,0.0,4254.358887,4238.077148,4272.820313,4257.307617,4230.897461,4224.871582,4016.538574,4263.974121,4277.307617,4185.512695,4526.282227,4519.487305,4380.512695,4450.769043,3161.0,1.0,15.0,,,,0.0,4.0,4.0,4.0,4.0,4.0,4.0,4.0,4.0,4.0,4.0,4.0,4.0,4.0,4.0,100.0,,,,,,,,,,,,,,,,,,,,,,,,,,,,,,,,,,,,,,,,,,,,,,,,,,,,,,,,,,,,,,,,,,,,,,,,,,,,,,,,,,,,,,,,,,,,,,,,,,,,,,,,,,,,,,,,,,,,,,,,,,,,,,,,,,,
1725710439.338444,1725710439.338344,32.0,0.0,4250.512695,4235.769043,4267.179688,4257.436035,4229.358887,4226.794922,4012.820557,4257.692383,4274.615234,4185.256348,4524.743652,4513.974121,4376.666504,4445.384766,0.0,1.0,15.0,,,,0.0,4.0,4.0,4.0,4.0,4.0,4.0,4.0,4.0,4.0,4.0,4.0,4.0,4.0,4.0,100.0,,,,,,,,,,,,,,,,,,,,,,,,,,,,,,,,,,,,,,,,,,,,,,,,,,,,,,,,0.0,0.0,1.0,0.0,128.0,0.063978,,,,,,,,,,,,,,,,,,,,,,,,,,,,,,,,,,,,,,,,,,,,,,,,,,,,,,,,,,,,,,,,,,,,,,
1725710439.342348,1725710439.342148,33.0,0.0,4246.922852,4234.871582,4263.589844,4258.205078,4225.0,4226.410156,4009.230713,4250.512695,4270.769043,4183.205078,4519.743652,4505.897461,4372.436035,4439.487305,0.0,1.0,15.0,,,,0.0,4.0,4.0,4.0,4.0,4.0,4.0,4.0,4.0,4.0,4.0,4.0,4.0,4.0,4.0,100.0,,,,,,,,,,,,,,,,,,,,,,,,,,,,,,,,,,,,,,,,,,,,,,,,,,,,,,,,,,,,,,,,,,,,,,,,,,,,,,,,,,,,,,,,,,,,,,,,,,,,,,,,,,,,,,,,,,,,,,,,,,,,,,,,,,,
1725710439.346253,1725710439.346052,34.0,0.0,4244.743652,4234.102539,4262.692383,4257.307617,4219.615234,4223.589844,4007.564209,4245.641113,4266.666504,4180.128418,4515.128418,4498.589844,4368.717773,4433.974121,0.0,1.0,15.0,,,,0.0,4.0,4.0,4.0,4.0,4.0,4.0,4.0,4.0,4.0,4.0,4.0,4.0,4.0,4.0,100.0,,,,,,,,,,,,,,,,,,,,,,,,,,,,,,,,,,,,,,,,,,,,,,,,,,,,,,,,,,,,,,,,,,,,,,,,,,,,,,,,,,,,,,,,,,,,,,,,,,,,,,,,,,,,,,,,,,,,,,,,,,,,,,,,,,,
1725710439.350157,1725710439.349956,35.0,0.0,4244.102539,4232.436035,4263.077148,4253.077148,4215.897461,4220.128418,4008.461426,4244.358887,4263.846191,4177.563965,4513.974121,4494.615234,4366.410156,4430.128418,0.0,1.0,15.0,,,,0.0,4.0,4.0,4.0,4.0,4.0,4.0,4.0,4.0,4.0,4.0,4.0,4.0,4.0,4.0,100.0,,,,,,,,,,,,,,,,,,,,,,,,,,,,,,,,,,,,,,,,,,,,,,,,,,,,,,,,,,,,,,,,,,,,,,,,,,,,,,,,,,,,,,,,,,,,,,,,,,,,,,,,,,,,,,,,,,,,,,,,,,,,,,,,,,,
1725710439.354061,1725710439.35396,36.0,0.0,4244.102539,4230.384766,4263.461426,4247.05127,4214.871582,4218.077148,4011.410156,4245.256348,4262.820313,4176.538574,4515.641113,4493.846191,4366.282227,4428.846191,0.0,1.0,15.0,,,,0.0,4.0,4.0,4.0,4.0,4.0,4.0,4.0,4.0,4.0,4.0,4.0,4.0,4.0,4.0,100.0,,,,,,,,,,,,,,,,,,,,,,,,,,,,,,,,,,,,,,,,,,,,,,,,,,,,,,,,,,,,,,,,,,,,,,,,,,,,,,,,,,,,,,,,,,,,,,,,,,,,,,,,,,,,,,,,,,,,,,,,,,,,,,,,,,,
1725710439.357965,1725710439.357864,37.0,0.0,4244.615234,4229.871582,4262.94873,4243.589844,4216.025879,4218.461426,4014.743652,4245.256348,4263.205078,4177.05127,4517.05127,4493.846191,4368.077148,4429.230957,0.0,1.0,15.0,,,,0.0,4.0,4.0,4.0,4.0,4.0,4.0,4.0,4.0,4.0,4.0,4.0,4.0,4.0,4.0,100.0,,,,,,,,,,,,,,,,,,,,,,,,,,,,,,,,,,,,,,,,,,,,,,,,,,,,,,,,,,,,,,,,,,,,,,,,,,,,,,,,,,,,,,,,,,,,,,,,,,,,,,,,,,,,,,,,,,,,,,,,,,,,,,,,,,,
1725710439.361869,1725710439.361769,38.0,0.0,4245.0,4233.077148,4262.179688,4246.282227,4217.563965,4220.256348,4017.692383,4242.692383,4263.717773,4177.820313,4516.794922,4492.692383,4371.025879,4430.769043,0.0,1.0,15.0,,,,0.0,4.0,4.0,4.0,4.0,4.0,4.0,4.0,4.0,4.0,4.0,4.0,4.0,4.0,4.0,100.0,,,,,,,,,,,,,,,,,,,,,,,,,,,,,,,,,,,,,,,,,,,,,,,,,,,,,,,,,,,,,,,,,,,,,,,,,,,,,,,,,,,,,,,,,,,,,,,,,,,,,,,,,,,,,,,,,,,,,,,,,,,,,,,,,,,
1725710439.365773,1725710439.365673,39.0,0.0,4245.512695,4239.358887,4261.794922,4254.358887,4218.333496,4221.410156,4019.615479,4237.94873,4263.205078,4177.692383,4516.794922,4490.769043,4373.205078,4433.205078,0.0,1.0,15.0,,,,0.0,4.0,4.0,4.0,4.0,4.0,4.0,4.0,4.0,4.0,4.0,4.0,4.0,4.0,4.0,100.0,,,,,,,,,,,,,,,,,,,,,,,,,,,,,,,,,,,,,,,,,,,,,,,,,,,,,,,,,,,,,,,,,,,,,,,,,,,,,,,,,,,,,,,,,,,,,,,,,,,,,,,,,,,,,,,,,,,,,,,,,,,,,,,,,,,
1725710439.369677,1725710439.369677,40.0,0.0,4246.282227,4246.538574,4262.436035,4262.94873,4218.461426,4220.897461,4020.256348,4233.589844,4261.922852,4175.769043,4520.384766,4490.512695,4373.974121,4436.025879,0.0,1.0,15.0,,,,0.0,4.0,4.0,4.0,4.0,4.0,4.0,4.0,4.0,4.0,4.0,4.0,4.0,4.0,4.0,100.0,,,,,,,,,,,,,,,,,,,,,,,,,,,,,,,,,,,,,,,,,,,,,,,,,,,,,,,,0.0,0.0,1.0,0.0,128.0,0.063978,,,,,,,,,,,,,,,,,,,,,,,,,,,,,,,,,,,,,,,,,,,,,,,,,,,,,,,,,,,,,,,,,,,,,,
1725710439.373581,1725710439.373581,41.0,0.0,4247.179688,4251.538574,4263.461426,4266.538574,4219.102539,4219.487305,4018.846191,4231.538574,4260.512695,4172.692383,4528.974121,4493.717773,4373.461426,4437.94873,0.0,1.0,15.0,,,,0.0,4.0,4.0,4.0,4.0,4.0,4.0,4.0,4.0,4.0,4.0,4.0,4.0,4.0,4.0,100.0,,,,,,,,,,,,,,,,,,,,,,,,,,,,,,,,,,,,,,,,,,,,,,,,,,,,,,,,,,,,,,,,,,,,,,,,,,,,,,,,,,,,,,,,,,,,,,,,,,,,,,,,,,,,,,,,,,,,,,,,,,,,,,,,,,,
1725710439.377485,1725710439.377485,42.0,0.0,4247.692383,4253.333496,4264.230957,4262.820313,4220.769043,4218.461426,4015.769287,4232.05127,4260.0,4169.871582,4539.102539,4499.487305,4372.820313,4437.94873,0.0,1.0,15.0,,,,0.0,4.0,4.0,4.0,4.0,4.0,4.0,4.0,4.0,4.0,4.0,4.0,4.0,4.0,4.0,100.0,,,,,,,,,,,,,,,,,,,,,,,,,,,,,,,,,,,,,,,,,,,,,,,,,,,,,,,,,,,,,,,,,,,,,,,,,,,,,,,,,,,,,,,,,,,,,,,,,,,,,,,,,,,,,,,,,,,,,,,,,,,,,,,,,,,
1725710439.381389,1725710439.381489,43.0,0.0,4247.820313,4252.94873,4264.230957,4255.0,4222.05127,4218.077148,4012.435791,4233.846191,4260.256348,4168.717773,4546.025879,4504.615234,4373.077148,4435.897461,0.0,1.0,15.0,,,,0.0,4.0,4.0,4.0,4.0,4.0,4.0,4.0,4.0,4.0,4.0,4.0,4.0,4.0,4.0,100.0,,,,,,,,,,,,,,,,,,,,,,,,,,,,,,,,,,,,,,,,,,,,,,,,,,,,,,,,,,,,,,,,,,,,,,,,,,,,,,,,,,,,,,,,,,,,,,,,,,,,,,,,,,,,,,,,,,,,,,,,,,,,,,,,,,,
1725710439.385293,1725710439.385393,44.0,0.0,4247.820313,4253.077148,4263.846191,4248.846191,4221.538574,4217.94873,4010.384521,4235.384766,4260.641113,4169.615234,4546.153809,4505.128418,4374.230957,4433.461426,0.0,1.0,15.0,,,,0.0,4.0,4.0,4.0,4.0,4.0,4.0,4.0,4.0,4.0,4.0,4.0,4.0,4.0,4.0,100.0,,,,,,,,,,,,,,,,,,,,,,,,,,,,,,,,,,,,,,,,,,,,,,,,,,,,,,,,,,,,,,,,,,,,,,,,,,,,,,,,,,,,,,,,,,,,,,,,,,,,,,,,,,,,,,,,,,,,,,,,,,,,,,,,,,,
1725710439.389197,1725710439.389297,45.0,0.0,4247.94873,4255.384766,4264.102539,4248.974121,4218.974121,4217.307617,4011.153809,4237.05127,4261.282227,4171.666504,4540.512695,4500.384766,4376.282227,4432.563965,0.0,1.0,15.0,,,,0.0,4.0,4.0,4.0,4.0,4.0,4.0,4.0,4.0,4.0,4.0,4.0,4.0,4.0,4.0,100.0,,,,,,,,,,,,,,,,,,,,,,,,,,,,,,,,,,,,,,,,,,,,,,,,,,,,,,,,,,,,,,,,,,,,,,,,,,,,,,,,,,,,,,,,,,,,,,,,,,,,,,,,,,,,,,,,,,,,,,,,,,,,,,,,,,,
1725710439.393102,1725710439.393201,46.0,0.0,4248.333496,4259.102539,4265.0,4255.641113,4216.794922,4216.282227,4014.743652,4239.358887,4261.922852,4173.846191,4534.102539,4493.333496,4378.717773,4434.743652,0.0,1.0,15.0,,,,0.0,4.0,4.0,4.0,4.0,4.0,4.0,4.0,4.0,4.0,4.0,4.0,4.0,4.0,4.0,100.0,,,,,,,,,,,,,,,,,,,,,,,,,,,,,,,,,,,,,,,,,,,,,,,,,,,,,,,,,,,,,,,,,,,,,,,,,,,,,,,,,,,,,,,,,,,,,,,,,,,,,,,,,,,,,,,,,,,,,,,,,,,,,,,,,,,
1725710439.397006,1725710439.397105,47.0,0.0,4248.717773,4262.692383,4265.897461,4264.358887,4217.436035,4215.897461,4020.0,4242.692383,4262.563965,4175.128418,4533.205078,4489.102539,4381.282227,4439.487305,0.0,1.0,15.0,,,,0.0,4.0,4.0,4.0,4.0,4.0,4.0,4.0,4.0,4.0,4.0,4.0,4.0,4.0,4.0,100.0,,,,,,,,,,,,,,,,,,,,,,,,,,,,,,,,,,,,,,,,,,,,,,,,,,,,,,,,,,,,,,,,,,,,,,,,,,,,,,,,,,,,,,,,,,,,,,,,,,,,,,,,,,,,,,,,,,,,,,,,,,,,,,,,,,,
1725710439.40091,1725710439.400909,48.0,0.0,4248.589844,4264.743652,4266.025879,4269.615234,4221.282227,4216.282227,4025.128174,4246.153809,4262.820313,4175.641113,4540.512695,4491.153809,4382.94873,4444.358887,0.0,1.0,15.0,,,,0.0,4.0,4.0,4.0,4.0,4.0,4.0,4.0,4.0,4.0,4.0,4.0,4.0,4.0,4.0,100.0,,,,,,,,,,,,,,,,,1.0,0.0,0.0,,,,,,,,,,,,,,,,,,,,,,,,,,,,,,,,,,,,,0.0,0.0,1.0,0.0,128.0,0.118999,1.171304,0.119235,0.398501,0.151323,0.043242,1.610278,0.429614,0.440867,0.310429,0.107628,0.705502,0.245634,0.300885,0.104174,0.071128,1.76765,0.492154,0.212274,0.129857,0.093841,6.564911,0.400234,0.320765,0.082411,0.045193,0.413277,0.409371,0.135604,0.088895,0.068454,11.864883,1.577556,0.558686,0.146021,0.085149,0.357414,1.662214,1.330605,0.13739,0.138972,0.491533,1.498425,1.159073,0.200657,0.131096,0.744377,1.294097,2.180791,0.269824,0.214162,2.831926,2.12814,2.202814,0.73344,0.41653,2.61639,1.494664,1.578609,0.50103,0.140079,2.028346,0.984283,1.468198,0.609565,0.242627,3.469209,0.92555,0.976124,0.512954,0.153462
1725710439.404814,1725710439.404814,49.0,0.0,4248.077148,4265.384766,4265.128418,4268.589844,4226.025879,4216.922852,4028.333252,4248.205078,4262.307617,4175.256348,4554.102539,4498.205078,4383.333496,4446.538574,0.0,1.0,15.0,,,,0.0,4.0,4.0,4.0,4.0,4.0,4.0,4.0,4.0,4.0,4.0,4.0,4.0,4.0,4.0,100.0,,,,,,,,,,,,,,,,,,,,,,,,,,,,,,,,,,,,,,,,,,,,,,,,,,,,,,,,,,,,,,,,,,,,,,,,,,,,,,,,,,,,,,,,,,,,,,,,,,,,,,,,,,,,,,,,,,,,,,,,,,,,,,,,,,,
1725710439.408718,1725710439.408718,50.0,0.0,4247.563965,4265.512695,4263.589844,4263.846191,4229.358887,4217.307617,4029.487061,4248.461426,4261.538574,4174.615234,4568.717773,4505.512695,4382.05127,4444.102539,0.0,1.0,15.0,,,,0.0,4.0,4.0,4.0,4.0,4.0,4.0,4.0,4.0,4.0,4.0,4.0,4.0,4.0,4.0,100.0,,,,,,,,,,,,,,,,,,,,,,,,,,,,,,,,,,,,,,,,,,,,,,,,,,,,,,,,,,,,,,,,,,,,,,,,,,,,,,,,,,,,,,,,,,,,,,,,,,,,,,,,,,,,,,,,,,,,,,,,,,,,,,,,,,,
1725710439.412622,1725710439.412622,51.0,0.0,4247.436035,4265.384766,4262.820313,4260.512695,4230.0,4217.436035,4029.871826,4247.820313,4261.666504,4174.487305,4579.871582,4508.205078,4379.358887,4438.333496,0.0,1.0,15.0,,,,0.0,4.0,4.0,4.0,4.0,4.0,4.0,4.0,4.0,4.0,4.0,4.0,4.0,4.0,4.0,100.0,,,,,,,,,,,,,,,,,,,,,,,,,,,,,,,,,,,,,,,,,,,,,,,,,,,,,,,,,,,,,,,,,,,,,,,,,,,,,,,,,,,,,,,,,,,,,,,,,,,,,,,,,,,,,,,,,,,,,,,,,,,,,,,,,,,
1725710439.416526,1725710439.416426,52.0,0.0,4247.820313,4264.871582,4263.333496,4262.307617,4228.846191,4217.94873,4030.384521,4248.077148,4263.461426,4174.487305,4586.153809,4505.512695,4375.512695,4432.179688,0.0,1.0,15.0,,,,0.0,4.0,4.0,4.0,4.0,4.0,4.0,4.0,4.0,4.0,4.0,4.0,4.0,4.0,4.0,100.0,,,,,,,,,,,,,,,,,,,,,,,,,,,,,,,,,,,,,,,,,,,,,,,,,,,,,,,,,,,,,,,,,,,,,,,,,,,,,,,,,,,,,,,,,,,,,,,,,,,,,,,,,,,,,,,,,,,,,,,,,,,,,,,,,,,
1725710439.42043,1725710439.42033,53.0,0.0,4248.077148,4263.717773,4264.487305,4268.717773,4227.307617,4218.846191,4031.281982,4249.743652,4265.897461,4173.461426,4588.589844,4499.487305,4371.025879,4428.077148,0.0,1.0,15.0,,,,0.0,4.0,4.0,4.0,4.0,4.0,4.0,4.0,4.0,4.0,4.0,4.0,4.0,4.0,4.0,100.0,,,,,,,,,,,,,,,,,,,,,,,,,,,,,,,,,,,,,,,,,,,,,,,,,,,,,,,,,,,,,,,,,,,,,,,,,,,,,,,,,,,,,,,,,,,,,,,,,,,,,,,,,,,,,,,,,,,,,,,,,,,,,,,,,,,
1725710439.424334,1725710439.424234,54.0,0.0,4247.436035,4262.563965,4264.487305,4275.897461,4226.794922,4219.615234,4032.307617,4251.282227,4267.307617,4170.0,4589.743652,4493.846191,4367.05127,4426.922852,0.0,1.0,15.0,,,,0.0,4.0,4.0,4.0,4.0,4.0,4.0,4.0,4.0,4.0,4.0,4.0,4.0,4.0,4.0,100.0,,,,,,,,,,,,,,,,,,,,,,,,,,,,,,,,,,,,,,,,,,,,,,,,,,,,,,,,,,,,,,,,,,,,,,,,,,,,,,,,,,,,,,,,,,,,,,,,,,,,,,,,,,,,,,,,,,,,,,,,,,,,,,,,,,,
1725710439.428239,1725710439.428238,55.0,0.0,4245.897461,4262.179688,4262.05127,4279.615234,4227.563965,4219.743652,4033.205078,4250.769043,4266.282227,4164.615234,4592.820313,4490.384766,4365.769043,4427.692383,0.0,1.0,15.0,,,,0.0,4.0,4.0,4.0,4.0,4.0,4.0,4.0,4.0,4.0,4.0,4.0,4.0,4.0,4.0,100.0,,,,,,,,,,,,,,,,,,,,,,,,,,,,,,,,,,,,,,,,,,,,,,,,,,,,,,,,,,,,,,,,,,,,,,,,,,,,,,,,,,,,,,,,,,,,,,,,,,,,,,,,,,,,,,,,,,,,,,,,,,,,,,,,,,,
1725710439.432143,1725710439.432142,56.0,0.0,4244.102539,4263.205078,4257.820313,4278.717773,4228.717773,4219.230957,4033.589844,4247.820313,4263.461426,4160.384766,4600.256348,4490.128418,4368.717773,4429.358887,0.0,1.0,15.0,,,,0.0,4.0,4.0,4.0,4.0,4.0,4.0,4.0,4.0,4.0,4.0,4.0,4.0,4.0,4.0,100.0,,,,,,,,,,,,,,,,,,,,,,,,,,,,,,,,,,,,,,,,,,,,,,,,,,,,,,,,0.0,0.0,1.0,0.0,128.0,0.118999,,,,,,,,,,,,,,,,,,,,,,,,,,,,,,,,,,,,,,,,,,,,,,,,,,,,,,,,,,,,,,,,,,,,,,
1725710439.436047,1725710439.436046,57.0,0.0,4242.820313,4264.871582,4253.846191,4275.0,4229.358887,4218.589844,4034.230713,4244.230957,4261.282227,4160.128418,4612.05127,4492.307617,4375.897461,4431.922852,0.0,1.0,15.0,,,,0.0,4.0,4.0,4.0,4.0,4.0,4.0,4.0,4.0,4.0,4.0,4.0,4.0,4.0,4.0,100.0,,,,,,,,,,,,,,,,,,,,,,,,,,,,,,,,,,,,,,,,,,,,,,,,,,,,,,,,,,,,,,,,,,,,,,,,,,,,,,,,,,,,,,,,,,,,,,,,,,,,,,,,,,,,,,,,,,,,,,,,,,,,,,,,,,,
1725710439.439951,1725710439.439951,58.0,0.0,4242.820313,4265.897461,4252.05127,4271.922852,4229.487305,4218.077148,4035.384521,4242.179688,4261.538574,4163.846191,4623.974121,4496.153809,4385.128418,4435.0,0.0,1.0,15.0,,,,0.0,4.0,4.0,4.0,4.0,4.0,4.0,4.0,4.0,4.0,4.0,4.0,4.0,4.0,4.0,100.0,,,,,,,,,,,,,,,,,,,,,,,,,,,,,,,,,,,,,,,,,,,,,,,,,,,,,,,,,,,,,,,,,,,,,,,,,,,,,,,,,,,,,,,,,,,,,,,,,,,,,,,,,,,,,,,,,,,,,,,,,,,,,,,,,,,
1725710439.443855,1725710439.443855,59.0,0.0,4243.846191,4265.512695,4253.461426,4271.922852,4229.615234,4217.692383,4036.794922,4242.563965,4265.128418,4168.846191,4631.922852,4500.384766,4393.461426,4438.205078,0.0,1.0,15.0,,,,0.0,4.0,4.0,4.0,4.0,4.0,4.0,4.0,4.0,4.0,4.0,4.0,4.0,4.0,4.0,100.0,,,,,,,,,,,,,,,,,,,,,,,,,,,,,,,,,,,,,,,,,,,,,,,,,,,,,,,,,,,,,,,,,,,,,,,,,,,,,,,,,,,,,,,,,,,,,,,,,,,,,,,,,,,,,,,,,,,,,,,,,,,,,,,,,,,
1725710439.447759,1725710439.447659,60.0,0.0,4245.256348,4264.615234,4256.922852,4275.256348,4230.512695,4217.436035,4037.692383,4244.871582,4270.897461,4171.922852,4634.230957,4503.717773,4398.333496,4440.897461,0.0,1.0,15.0,,,,0.0,4.0,4.0,4.0,4.0,4.0,4.0,4.0,4.0,4.0,4.0,4.0,4.0,4.0,4.0,100.0,,,,,,,,,,,,,,,,,,,,,,,,,,,,,,,,,,,,,,,,,,,,,,,,,,,,,,,,,,,,,,,,,,,,,,,,,,,,,,,,,,,,,,,,,,,,,,,,,,,,,,,,,,,,,,,,,,,,,,,,,,,,,,,,,,,
