Timestamp,OriginalTimestamp,EEG.Counter,EEG.Interpolated,EEG.AF3,EEG.F7,EEG.F3,EEG.FC5,EEG.T7,EEG.P7,EEG.O1,EEG.O2,EEG.P8,EEG.T8,EEG.FC6,EEG.F4,EEG.F8,EEG.AF4,EEG.RawCq,EEG.Battery,EEG.BatteryPercent,MarkerIndex,MarkerType,MarkerValueInt,EEG.MarkerHardware,CQ.AF3,CQ.F7,CQ.F3,CQ.FC5,CQ.T7,CQ.P7,CQ.O1,CQ.O2,CQ.P8,CQ.T8,CQ.FC6,CQ.F4,CQ.F8,CQ.AF4,CQ.Overall,EQ.SampleRateQuality,EQ.OVERALL,EQ.AF3,EQ.F7,EQ.F3,EQ.FC5,EQ.T7,EQ.P7,EQ.O1,EQ.O2,EQ.P8,EQ.T8,EQ.FC6,EQ.F4,EQ.F8,EQ.AF4,MC.Action,MC.ActionPower,MC.IsActive,PM.Attention.IsActive,PM.Attention.Scaled,PM.Attention.Raw,PM.Attention.Min,PM.Attention.Max,PM.Engagement.IsActive,PM.Engagement.Scaled,PM.Engagement.Raw,PM.Engagement.Min,PM.Engagement.Max,PM.Excitement.IsActive,PM.Excitement.Scaled,PM.Excitement.Raw,PM.Excitement.Min,PM.Excitement.Max,PM.LongTermExcitement,PM.Stress.IsActive,PM.Stress.Scaled,PM.Stress.Raw,PM.Stress.Min,PM.Stress.Max,PM.Relaxation.IsActive,PM.Relaxation.Scaled,PM.Relaxation.Raw,PM.Relaxation.Min,PM.Relaxation.Max,PM.Interest.IsActive,PM.Interest.Scaled,PM.Interest.Raw,PM.Interest.Min,PM.Interest.Max,PM.Focus.IsActive,PM.Focus.Scaled,PM.Focus.Raw,PM.Focus.Min,PM.Focus.Max,FE.BlinkWink,FE.HorizontalEyesDirection,FE.UpperFaceAction,FE.UpperFaceActionPower,FE.LowerFaceAction,FE.LowerFaceActionPower,POW.AF3.Theta,POW.AF3.Alpha,POW.AF3.BetaL,POW.AF3.BetaH,POW.AF3.Gamma,POW.F7.Theta,POW.F7.Alpha,POW.F7.BetaL,POW.F7.BetaH,POW.F7.Gamma,POW.F3.Theta,POW.F3.Alpha,POW.F3.BetaL,POW.F3.BetaH,POW.F3.Gamma,POW.FC5.Theta,POW.FC5.Alpha,POW.FC5.BetaL,POW.FC5.BetaH,POW.FC5.Gamma,POW.T7.Theta,POW.T7.Alpha,POW.T7.BetaL,POW.T7.BetaH,POW.T7.Gamma,POW.P7.Theta,POW.P7.Alpha,POW.P7.BetaL,POW.P7.BetaH,POW.P7.Gamma,POW.O1.Theta,POW.O1.Alpha,POW.O1.BetaL,POW.O1.BetaH,POW.O1.Gamma,POW.O2.Theta,POW.O2.Alpha,POW.O2.BetaL,POW.O2.BetaH,POW.O2.Gamma,POW.P8.Theta,POW.P8.Alpha,POW.P8.BetaL,POW.P8.BetaH,POW.P8.Gamma,POW.T8.Theta,POW.T8.Alpha,POW.T8.BetaL,POW.T8.BetaH,POW.T8.Gamma,POW.FC6.Theta,POW.FC6.Alpha,POW.FC6.BetaL,POW.FC6.BetaH,POW.FC6.Gamma,POW.F4.Theta,POW.F4.Alpha,POW.F4.BetaL,POW.F4.BetaH,POW.F4.Gamma,POW.F8.Theta,POW.F8.Alpha,POW.F8.BetaL,POW.F8.BetaH,POW.F8.Gamma,POW.AF4.Theta,POW.AF4.Alpha,POW.AF4.BetaL,POW.AF4.BetaH,POW.AF4.Gamma
1725715969.391068,1725715969.392004,196.0,0.0,4231.025879,4255.641113,4327.692383,4354.871582,4261.922852,4260.384766,4211.794922,4280.0,4278.974121,4248.717773,4475.128418,4524.230957,4399.102539,4413.077148,3406.0,1.0,15.0,3.0,1.0,1.0,0.0,4.0,4.0,4.0,4.0,4.0,4.0,4.0,4.0,4.0,4.0,4.0,4.0,4.0,4.0,100.0,,,,,,,,,,,,,,,,,,,,,,,,,,,,,,,,,,,,,,,,,,,,,,,,,,,,,,,,0.0,0.0,1.0,0.0,1.0,0.0,,,,,,,,,,,,,,,,,,,,,,,,,,,,,,,,,,,,,,,,,,,,,,,,,,,,,,,,,,,,,,,,,,,,,,
1725715969.394972,1725715969.395908,197.0,0.0,4230.256348,4250.897461,4327.179688,4352.179688,4261.794922,4262.179688,4211.538574,4279.102539,4281.794922,4250.128418,4477.94873,4526.410156,4397.179688,4414.487305,3812.0,1.0,15.0,,,,0.0,4.0,4.0,4.0,4.0,4.0,4.0,4.0,4.0,4.0,4.0,4.0,4.0,4.0,4.0,100.0,,,,,,,,,,,,,,,,,,,,,,,,,,,,,,,,,,,,,,,,,,,,,,,,,,,,,,,,,,,,,,,,,,,,,,,,,,,,,,,,,,,,,,,,,,,,,,,,,,,,,,,,,,,,,,,,,,,,,,,,,,,,,,,,,,,
1725715969.398877,1725715969.399813,198.0,0.0,4229.358887,4249.871582,4326.922852,4350.256348,4262.307617,4263.974121,4212.436035,4278.589844,4282.94873,4252.692383,4482.307617,4529.743652,4395.256348,4414.743652,2879.0,1.0,15.0,,,,0.0,4.0,4.0,4.0,4.0,4.0,4.0,4.0,4.0,4.0,4.0,4.0,4.0,4.0,4.0,100.0,,,,,,,,,,,,,,,,,,,,,,,,,,,,,,,,,,,,,,,,,,,,,,,,,,,,,,,,,,,,,,,,,,,,,,,,,,,,,,,,,,,,,,,,,,,,,,,,,,,,,,,,,,,,,,,,,,,,,,,,,,,,,,,,,,,
1725715969.402781,1725715969.403817,199.0,0.0,4229.358887,4253.846191,4327.05127,4349.871582,4263.461426,4264.871582,4213.974121,4279.358887,4282.307617,4255.512695,4486.025879,4533.589844,4395.512695,4413.717773,3112.0,1.0,15.0,,,,0.0,4.0,4.0,4.0,4.0,4.0,4.0,4.0,4.0,4.0,4.0,4.0,4.0,4.0,4.0,100.0,,,,,,,,,,,,,,,,,,,,,,,,,,,,,,,,,,,,,,,,,,,,,,,,,,,,,,,,,,,,,,,,,,,,,,,,,,,,,,,,,,,,,,,,,,,,,,,,,,,,,,,,,,,,,,,,,,,,,,,,,,,,,,,,,,,
1725715969.406685,1725715969.407721,200.0,0.0,4230.256348,4260.0,4327.307617,4351.282227,4264.743652,4264.871582,4214.871582,4281.410156,4281.025879,4257.820313,4488.205078,4537.436035,4399.102539,4413.846191,3406.0,1.0,15.0,,,,0.0,4.0,4.0,4.0,4.0,4.0,4.0,4.0,4.0,4.0,4.0,4.0,4.0,4.0,4.0,100.0,,,,,,,,,,,,,,,,,,,,,,,,,,,,,,,,,,,,,,,,,,,,,,,,,,,,,,,,,,,,,,,,,,,,,,,,,,,,,,,,,,,,,,,,,,,,,,,,,,,,,,,,,,,,,,,,,,,,,,,,,,,,,,,,,,,
1725715969.410589,1725715969.411625,201.0,0.0,4232.307617,4263.717773,4327.307617,4353.717773,4265.128418,4264.487305,4213.717773,4283.589844,4280.641113,4259.102539,4489.358887,4540.256348,4405.0,4416.538574,3812.0,1.0,15.0,,,,0.0,4.0,4.0,4.0,4.0,4.0,4.0,4.0,4.0,4.0,4.0,4.0,4.0,4.0,4.0,100.0,,,,,,,,,,,,,,,,,,,,,,,,,,,,,,,,,,,,,,,,,,,,,,,,,,,,,,,,,,,,,,,,,,,,,,,,,,,,,,,,,,,,,,,,,,,,,,,,,,,,,,,,,,,,,,,,,,,,,,,,,,,,,,,,,,,
1725715969.414493,1725715969.415629,202.0,0.0,4235.384766,4262.307617,4327.436035,4356.282227,4264.615234,4263.589844,4210.384766,4284.743652,4281.410156,4260.0,4490.384766,4540.897461,4410.897461,4421.794922,2879.0,1.0,15.0,,,,0.0,4.0,4.0,4.0,4.0,4.0,4.0,4.0,4.0,4.0,4.0,4.0,4.0,4.0,4.0,100.0,,,,,,,,,,,,,,,,,,,,,,,,,,,,,,,,,,,,,,,,,,,,,,,,,,,,,,,,,,,,,,,,,,,,,,,,,,,,,,,,,,,,,,,,,,,,,,,,,,,,,,,,,,,,,,,,,,,,,,,,,,,,,,,,,,,
1725715969.418397,1725715969.419533,203.0,0.0,4239.358887,4256.922852,4327.563965,4357.820313,4263.589844,4262.05127,4206.025879,4284.487305,4282.563965,4260.897461,4491.282227,4539.487305,4413.589844,4426.922852,3112.0,1.0,15.0,,,,0.0,4.0,4.0,4.0,4.0,4.0,4.0,4.0,4.0,4.0,4.0,4.0,4.0,4.0,4.0,100.0,,,,,,,,,,,,,,,,,,,,,,,,,,,,,,,,,,,,,,,,,,,,,,,,,,,,,,,,,,,,,,,,,,,,,,,,,,,,,,,,,,,,,,,,,,,,,,,,,,,,,,,,,,,,,,,,,,,,,,,,,,,,,,,,,,,
1725715969.422301,1725715969.423437,204.0,0.0,4243.333496,4252.05127,4327.94873,4357.820313,4262.692383,4260.769043,4202.563965,4283.205078,4283.077148,4261.794922,4491.153809,4536.794922,4411.282227,4428.974121,3406.0,1.0,15.0,,,,0.0,4.0,4.0,4.0,4.0,4.0,4.0,4.0,4.0,4.0,4.0,4.0,4.0,4.0,4.0,100.0,,,,,,,,,,,,,,,,,,,,,,,,,,,,,,,,,,,,,,,,,,,,,,,,,,,,,,,,0.0,0.0,1.0,0.0,1.0,0.0,,,,,,,,,,,,,,,,,,,,,,,,,,,,,,,,,,,,,,,,,,,,,,,,,,,,,,,,,,,,,,,,,,,,,,
1725715969.426205,1725715969.427341,205.0,0.0,4246.025879,4251.538574,4328.077148,4356.794922,4262.692383,4260.384766,4201.153809,4281.538574,4282.436035,4261.666504,4488.846191,4535.0,4405.128418,4426.794922,3812.0,1.0,15.0,,,,0.0,4.0,4.0,4.0,4.0,4.0,4.0,4.0,4.0,4.0,4.0,4.0,4.0,4.0,4.0,100.0,,,,,,,,,,,,,,,,,,,,,,,,,,,,,,,,,,,,,,,,,,,,,,,,,,,,,,,,,,,,,,,,,,,,,,,,,,,,,,,,,,,,,,,,,,,,,,,,,,,,,,,,,,,,,,,,,,,,,,,,,,,,,,,,,,,
1725715969.430109,1725715969.431245,206.0,0.0,4247.05127,4255.769043,4328.077148,4355.641113,4263.461426,4261.282227,4201.794922,4280.256348,4281.282227,4259.615234,4485.256348,4534.871582,4398.974121,4422.436035,2879.0,1.0,15.0,,,,0.0,4.0,4.0,4.0,4.0,4.0,4.0,4.0,4.0,4.0,4.0,4.0,4.0,4.0,4.0,100.0,,,,,,,,,,,,,,,,,,,,,,,,,,,,,,,,,,,,,,,,,,,,,,,,,,,,,,,,,,,,,,,,,,,,,,,,,,,,,,,,,,,,,,,,,,,,,,,,,,,,,,,,,,,,,,,,,,,,,,,,,,,,,,,,,,,
1725715969.434013,1725715969.435149,207.0,0.0,4247.179688,4261.794922,4327.94873,4355.0,4264.230957,4262.94873,4203.205078,4278.974121,4280.128418,4255.512695,4482.436035,4536.025879,4396.666504,4419.743652,3112.0,1.0,15.0,,,,0.0,4.0,4.0,4.0,4.0,4.0,4.0,4.0,4.0,4.0,4.0,4.0,4.0,4.0,4.0,100.0,,,,,,,,,,,,,,,,,,,,,,,,,,,,,,,,,,,,,,,,,,,,,,,,,,,,,,,,,,,,,,,,,,,,,,,,,,,,,,,,,,,,,,,,,,,,,,,,,,,,,,,,,,,,,,,,,,,,,,,,,,,,,,,,,,,
1725715969.437918,1725715969.438953,208.0,0.0,4248.589844,4265.769043,4328.077148,4355.769043,4264.615234,4264.230957,4203.846191,4277.692383,4278.974121,4250.512695,4481.922852,4536.922852,4400.0,4420.897461,3406.0,1.0,15.0,,,,0.0,4.0,4.0,4.0,4.0,4.0,4.0,4.0,4.0,4.0,4.0,4.0,4.0,4.0,4.0,100.0,,,,,,,,,,,,,,,,,,,,,,,,,,,,,,,,,,,,,,,,,,,,,,,,,,,,,,,,,,,,,,,,,,,,,,,,,,,,,,,,,,,,,,,,,,,,,,,,,,,,,,,,,,,,,,,,,,,,,,,,,,,,,,,,,,,
1725715969.441822,1725715969.442858,209.0,0.0,4252.05127,4266.025879,4328.461426,4357.563965,4264.487305,4264.871582,4203.589844,4276.538574,4278.333496,4246.666504,4484.487305,4536.666504,4406.794922,4424.743652,3812.0,1.0,15.0,,,,0.0,4.0,4.0,4.0,4.0,4.0,4.0,4.0,4.0,4.0,4.0,4.0,4.0,4.0,4.0,100.0,,,,,,,,,,,,,,,,,,,,,,,,,,,,,,,,,,,,,,,,,,,,,,,,,,,,,,,,,,,,,,,,,,,,,,,,,,,,,,,,,,,,,,,,,,,,,,,,,,,,,,,,,,,,,,,,,,,,,,,,,,,,,,,,,,,
1725715969.445726,1725715969.446762,210.0,0.0,4256.282227,4264.102539,4328.461426,4358.974121,4264.102539,4264.743652,4202.820313,4276.153809,4278.077148,4245.641113,4488.974121,4535.641113,4412.436035,4427.94873,2879.0,1.0,15.0,,,,0.0,4.0,4.0,4.0,4.0,4.0,4.0,4.0,4.0,4.0,4.0,4.0,4.0,4.0,4.0,100.0,,,,,,,,,,,,,,,,,,,,,,,,,,,,,,,,,,,,,,,,,,,,,,,,,,,,,,,,,,,,,,,,,,,,,,,,,,,,,,,,,,,,,,,,,,,,,,,,,,,,,,,,,,,,,,,,,,,,,,,,,,,,,,,,,,,
1725715969.44963,1725715969.450766,211.0,0.0,4258.589844,4262.307617,4327.94873,4358.974121,4263.846191,4264.615234,4202.692383,4276.538574,4278.205078,4248.077148,4492.94873,4535.0,4412.94873,4427.820313,3112.0,1.0,15.0,,,,0.0,4.0,4.0,4.0,4.0,4.0,4.0,4.0,4.0,4.0,4.0,4.0,4.0,4.0,4.0,100.0,,,,,,,,,,,,,,,,,,,,,,,,,,,,,,,,,,,,,,,,,,,,,,,,,,,,,,,,,,,,,,,,,,,,,,,,,,,,,,,,,,,,,,,,,,,,,,,,,,,,,,,,,,,,,,,,,,,,,,,,,,,,,,,,,,,
1725715969.453534,1725715969.45467,212.0,0.0,4257.436035,4261.666504,4326.794922,4357.179688,4263.846191,4264.615234,4203.077148,4277.436035,4278.205078,4252.179688,4494.358887,4535.384766,4408.589844,4425.0,3406.0,1.0,15.0,,,,0.0,4.0,4.0,4.0,4.0,4.0,4.0,4.0,4.0,4.0,4.0,4.0,4.0,4.0,4.0,100.0,,,,,,,,,,,,,,,,,1.0,0.0,0.0,,,,,,,,,,,,,,,,,,,,,,,,,,,,,,,,,,,,,0.0,0.0,1.0,0.0,1.0,0.0,1.188394,1.046208,0.396958,0.134601,0.095522,1.661425,0.970914,0.225452,0.116863,0.060291,1.924416,0.820098,0.432658,0.212024,0.06705,1.073645,0.941558,0.375219,0.156722,0.076322,0.797879,0.596947,0.071938,0.052794,0.036086,0.26355,0.228443,0.055845,0.063108,0.030777,1.165758,0.270139,0.217448,0.114513,0.036844,1.081029,0.815165,0.335661,0.209124,0.135223,0.776511,0.721628,0.313375,0.271412,0.064697,1.79823,0.84683,0.56923,0.287402,0.129931,2.682511,1.238007,1.050426,0.37647,0.10023,1.698898,1.25072,0.924761,0.329159,0.112292,2.64595,1.056886,0.831424,0.387666,0.10416,1.61678,1.050035,0.708911,0.277551,0.050028
1725715969.457438,1725715969.458574,213.0,0.0,4254.230957,4261.282227,4325.512695,4354.615234,4264.230957,4264.871582,4203.461426,4278.461426,4277.820313,4255.769043,4493.077148,4536.153809,4402.94873,4422.05127,3812.0,1.0,15.0,,,,0.0,4.0,4.0,4.0,4.0,4.0,4.0,4.0,4.0,4.0,4.0,4.0,4.0,4.0,4.0,100.0,,,,,,,,,,,,,,,,,,,,,,,,,,,,,,,,,,,,,,,,,,,,,,,,,,,,,,,,,,,,,,,,,,,,,,,,,,,,,,,,,,,,,,,,,,,,,,,,,,,,,,,,,,,,,,,,,,,,,,,,,,,,,,,,,,,
1725715969.461342,1725715969.462478,214.0,0.0,4252.05127,4260.256348,4324.743652,4352.94873,4264.743652,4265.128418,4203.589844,4279.102539,4276.922852,4257.307617,4490.641113,4536.922852,4400.256348,4421.666504,2879.0,1.0,15.0,,,,0.0,4.0,4.0,4.0,4.0,4.0,4.0,4.0,4.0,4.0,4.0,4.0,4.0,4.0,4.0,100.0,,,,,,,,,,,,,,,,,,,,,,,,,,,,,,,,,,,,,,,,,,,,,,,,,,,,,,,,,,,,,,,,,,,,,,,,,,,,,,,,,,,,,,,,,,,,,,,,,,,,,,,,,,,,,,,,,,,,,,,,,,,,,,,,,,,
1725715969.465246,1725715969.466282,215.0,0.0,4253.333496,4258.974121,4324.743652,4353.461426,4265.256348,4264.743652,4203.589844,4279.230957,4276.538574,4257.179688,4489.358887,4537.307617,4402.307617,4423.974121,3112.0,1.0,15.0,,,,0.0,4.0,4.0,4.0,4.0,4.0,4.0,4.0,4.0,4.0,4.0,4.0,4.0,4.0,4.0,100.0,,,,,,,,,,,,,,,,,,,,,,,,,,,,,,,,,,,,,,,,,,,,,,,,,,,,,,,,,,,,,,,,,,,,,,,,,,,,,,,,,,,,,,,,,,,,,,,,,,,,,,,,,,,,,,,,,,,,,,,,,,,,,,,,,,,
1725715969.46915,1725715969.470186,216.0,0.0,4257.692383,4258.717773,4324.871582,4356.153809,4265.897461,4263.846191,4204.102539,4279.358887,4276.922852,4256.922852,4490.0,4537.307617,4407.307617,4426.922852,3406.0,1.0,15.0,,,,0.0,4.0,4.0,4.0,4.0,4.0,4.0,4.0,4.0,4.0,4.0,4.0,4.0,4.0,4.0,100.0,,,,,,,,,,,,,,,,,,,,,,,,,,,,,,,,,,,,,,,,,,,,,,,,,,,,,,,,,,,,,,,,,,,,,,,,,,,,,,,,,,,,,,,,,,,,,,,,,,,,,,,,,,,,,,,,,,,,,,,,,,,,,,,,,,,
1725715969.473055,1725715969.47409,217.0,0.0,4262.179688,4260.128418,4324.871582,4359.487305,4266.282227,4262.820313,4205.128418,4279.615234,4278.077148,4257.820313,4491.794922,4537.307617,4412.05127,4428.461426,3812.0,1.0,15.0,,,,0.0,4.0,4.0,4.0,4.0,4.0,4.0,4.0,4.0,4.0,4.0,4.0,4.0,4.0,4.0,100.0,,,,,,,,,,,,,,,,,,,,,,,,,,,,,,,,,,,,,,,,,,,,,,,,,,,,,,,,,,,,,,,,,,,,,,,,,,,,,,,,,,,,,,,,,,,,,,,,,,,,,,,,,,,,,,,,,,,,,,,,,,,,,,,,,,,
1725715969.476959,1725715969.477994,218.0,0.0,4264.358887,4262.307617,4324.487305,4361.538574,4266.538574,4262.307617,4205.512695,4280.0,4279.358887,4259.871582,4493.205078,4537.563965,4414.230957,4428.205078,2879.0,1.0,15.0,,,,0.0,4.0,4.0,4.0,4.0,4.0,4.0,4.0,4.0,4.0,4.0,4.0,4.0,4.0,4.0,100.0,,,,,,,,,,,,,,,,,,,,,,,,,,,,,,,,,,,,,,,,,,,,,,,,,,,,,,,,,,,,,,,,,,,,,,,,,,,,,,,,,,,,,,,,,,,,,,,,,,,,,,,,,,,,,,,,,,,,,,,,,,,,,,,,,,,
1725715969.480863,1725715969.481799,219.0,0.0,4263.717773,4263.717773,4324.615234,4361.153809,4266.153809,4262.436035,4204.615234,4279.743652,4280.128418,4262.05127,4493.461426,4538.077148,4413.717773,4427.563965,3112.0,1.0,15.0,,,,0.0,4.0,4.0,4.0,4.0,4.0,4.0,4.0,4.0,4.0,4.0,4.0,4.0,4.0,4.0,100.0,,,,,,,,,,,,,,,,,,,,,,,,,,,,,,,,,,,,,,,,,,,,,,,,,,,,,,,,,,,,,,,,,,,,,,,,,,,,,,,,,,,,,,,,,,,,,,,,,,,,,,,,,,,,,,,,,,,,,,,,,,,,,,,,,,,
1725715969.484767,1725715969.485703,220.0,0.0,4262.94873,4263.589844,4325.769043,4358.717773,4265.384766,4262.820313,4202.692383,4278.205078,4279.871582,4263.205078,4493.077148,4538.589844,4412.05127,4427.94873,3406.0,1.0,15.0,,,,0.0,4.0,4.0,4.0,4.0,4.0,4.0,4.0,4.0,4.0,4.0,4.0,4.0,4.0,4.0,100.0,,,,,,,,,,,,,,,,,,,,,,,,,,,,,,,,,,,,,,,,,,,,,,,,,,,,,,,,0.0,0.0,1.0,0.0,1.0,0.0,,,,,,,,,,,,,,,,,,,,,,,,,,,,,,,,,,,,,,,,,,,,,,,,,,,,,,,,,,,,,,,,,,,,,,
1725715969.488671,1725715969.489607,221.0,0.0,4264.615234,4262.563965,4327.94873,4356.025879,4264.615234,4262.820313,4200.512695,4276.025879,4278.846191,4263.077148,4493.077148,4538.717773,4411.025879,4429.358887,3812.0,1.0,15.0,,,,0.0,4.0,4.0,4.0,4.0,4.0,4.0,4.0,4.0,4.0,4.0,4.0,4.0,4.0,4.0,100.0,,,,,,,,,,,,,,,,,,,,,,,,,,,,,,,,,,,,,,,,,,,,,,,,,,,,,,,,,,,,,,,,,,,,,,,,,,,,,,,,,,,,,,,,,,,,,,,,,,,,,,,,,,,,,,,,,,,,,,,,,,,,,,,,,,,
1725715969.492575,1725715969.493511,222.0,0.0,4269.743652,4262.179688,4330.641113,4355.512695,4264.102539,4262.307617,4199.230957,4274.102539,4277.436035,4262.179688,4493.717773,4538.974121,4410.769043,4430.897461,2879.0,1.0,15.0,,,,0.0,4.0,4.0,4.0,4.0,4.0,4.0,4.0,4.0,4.0,4.0,4.0,4.0,4.0,4.0,100.0,,,,,,,,,,,,,,,,,,,,,,,,,,,,,,,,,,,,,,,,,,,,,,,,,,,,,,,,,,,,,,,,,,,,,,,,,,,,,,,,,,,,,,,,,,,,,,,,,,,,,,,,,,,,,,,,,,,,,,,,,,,,,,,,,,,
1725715969.496479,1725715969.497315,223.0,0.0,4276.025879,4263.077148,4333.589844,4357.820313,4264.358887,4261.794922,4199.358887,4273.846191,4276.538574,4261.538574,4494.871582,4539.615234,4410.897461,4431.410156,3112.0,1.0,15.0,,,,0.0,4.0,4.0,4.0,4.0,4.0,4.0,4.0,4.0,4.0,4.0,4.0,4.0,4.0,4.0,100.0,,,,,,,,,,,,,,,,,,,,,,,,,,,,,,,,,,,,,,,,,,,,,,,,,,,,,,,,,,,,,,,,,,,,,,,,,,,,,,,,,,,,,,,,,,,,,,,,,,,,,,,,,,,,,,,,,,,,,,,,,,,,,,,,,,,
1725715969.500383,1725715969.501219,224.0,0.0,4280.128418,4264.743652,4336.666504,4361.922852,4264.871582,4262.05127,4200.256348,4275.769043,4276.666504,4261.666504,4495.512695,4541.025879,4410.512695,4431.666504,3406.0,1.0,15.0,,,,0.0,4.0,4.0,4.0,4.0,4.0,4.0,4.0,4.0,4.0,4.0,4.0,4.0,4.0,4.0,100.0,,,,,,,,,,,,,,,,,,,,,,,,,,,,,,,,,,,,,,,,,,,,,,,,,,,,,,,,,,,,,,,,,,,,,,,,,,,,,,,,,,,,,,,,,,,,,,,,,,,,,,,,,,,,,,,,,,,,,,,,,,,,,,,,,,,
1725715969.504287,1725715969.505123,225.0,0.0,4280.512695,4266.025879,4339.487305,4366.025879,4265.512695,4263.077148,4201.282227,4279.102539,4277.820313,4262.563965,4495.512695,4542.436035,4410.0,4432.307617,3812.0,1.0,15.0,,,,0.0,4.0,4.0,4.0,4.0,4.0,4.0,4.0,4.0,4.0,4.0,4.0,4.0,4.0,4.0,100.0,,,,,,,,,,,,,,,,,,,,,,,,,,,,,,,,,,,,,,,,,,,,,,,,,,,,,,,,,,,,,,,,,,,,,,,,,,,,,,,,,,,,,,,,,,,,,,,,,,,,,,,,,,,,,,,,,,,,,,,,,,,,,,,,,,,
1725715969.508191,1725715969.509127,226.0,0.0,4278.717773,4266.282227,4341.410156,4368.205078,4265.897461,4264.102539,4201.282227,4282.307617,4278.974121,4263.333496,4494.871582,4543.205078,4410.256348,4433.974121,2879.0,1.0,15.0,,,,0.0,4.0,4.0,4.0,4.0,4.0,4.0,4.0,4.0,4.0,4.0,4.0,4.0,4.0,4.0,100.0,,,,,,,,,,,,,,,,,,,,,,,,,,,,,,,,,,,,,,,,,,,,,,,,,,,,,,,,,,,,,,,,,,,,,,,,,,,,,,,,,,,,,,,,,,,,,,,,,,,,,,,,,,,,,,,,,,,,,,,,,,,,,,,,,,,
1725715969.512096,1725715969.513032,227.0,0.0,4277.820313,4265.641113,4342.436035,4367.563965,4265.641113,4264.871582,4199.487305,4283.717773,4279.487305,4263.461426,4493.974121,4542.820313,4411.282227,4435.769043,3112.0,1.0,15.0,,,,0.0,4.0,4.0,4.0,4.0,4.0,4.0,4.0,4.0,4.0,4.0,4.0,4.0,4.0,4.0,100.0,,,,,,,,,,,,,,,,,,,,,,,,,,,,,,,,,,,,,,,,,,,,,,,,,,,,,,,,,,,,,,,,,,,,,,,,,,,,,,,,,,,,,,,,,,,,,,,,,,,,,,,,,,,,,,,,,,,,,,,,,,,,,,,,,,,
1725715969.516,1725715969.516936,228.0,0.0,4279.102539,4265.0,4343.077148,4364.487305,4265.256348,4265.128418,4196.025879,4283.077148,4279.743652,4263.077148,4493.461426,4541.922852,4412.307617,4436.922852,3406.0,1.0,15.0,,,,0.0,4.0,4.0,4.0,4.0,4.0,4.0,4.0,4.0,4.0,4.0,4.0,4.0,4.0,4.0,100.0,,,,,,,,,,,,,,,,,,,,,,,,,,,,,,,,,,,,,,,,,,,,,,,,,,,,,,,,0.0,0.0,1.0,0.0,1.0,0.0,,,,,,,,,,,,,,,,,,,,,,,,,,,,,,,,,,,,,,,,,,,,,,,,,,,,,,,,,,,,,,,,,,,,,,
1725715969.519904,1725715969.52094,229.0,0.0,4281.282227,4264.615234,4343.461426,4360.769043,4264.871582,4265.512695,4191.794922,4281.538574,4280.256348,4263.077148,4493.333496,4541.538574,4412.307617,4436.666504,3812.0,1.0,15.0,,,,0.0,4.0,4.0,4.0,4.0,4.0,4.0,4.0,4.0,4.0,4.0,4.0,4.0,4.0,4.0,100.0,,,,,,,,,,,,,,,,,,,,,,,,,,,,,,,,,,,,,,,,,,,,,,,,,,,,,,,,,,,,,,,,,,,,,,,,,,,,,,,,,,,,,,,,,,,,,,,,,,,,,,,,,,,,,,,,,,,,,,,,,,,,,,,,,,,
1725715969.523808,1725715969.524844,230.0,0.0,4281.410156,4264.743652,4343.077148,4357.94873,4265.0,4266.153809,4188.205078,4280.0,4280.641113,4263.333496,4493.589844,4541.922852,4410.512695,4435.128418,2879.0,1.0,15.0,,,,0.0,4.0,4.0,4.0,4.0,4.0,4.0,4.0,4.0,4.0,4.0,4.0,4.0,4.0,4.0,100.0,,,,,,,,,,,,,,,,,,,,,,,,,,,,,,,,,,,,,,,,,,,,,,,,,,,,,,,,,,,,,,,,,,,,,,,,,,,,,,,,,,,,,,,,,,,,,,,,,,,,,,,,,,,,,,,,,,,,,,,,,,,,,,,,,,,
1725715969.527712,1725715969.528748,231.0,0.0,4278.205078,4264.871582,4341.282227,4357.307617,4265.384766,4266.666504,4186.025879,4278.974121,4279.487305,4262.820313,4493.333496,4541.410156,4407.692383,4432.692383,3112.0,1.0,15.0,,,,0.0,4.0,4.0,4.0,4.0,4.0,4.0,4.0,4.0,4.0,4.0,4.0,4.0,4.0,4.0,100.0,,,,,,,,,,,,,,,,,,,,,,,,,,,,,,,,,,,,,,,,,,,,,,,,,,,,,,,,,,,,,,,,,,,,,,,,,,,,,,,,,,,,,,,,,,,,,,,,,,,,,,,,,,,,,,,,,,,,,,,,,,,,,,,,,,,
1725715969.531616,1725715969.532652,232.0,0.0,4272.436035,4265.128418,4337.94873,4358.205078,4265.897461,4266.922852,4185.384766,4277.94873,4276.282227,4260.384766,4492.179688,4538.846191,4405.256348,4430.256348,3406.0,1.0,15.0,,,,0.0,4.0,4.0,4.0,4.0,4.0,4.0,4.0,4.0,4.0,4.0,4.0,4.0,4.0,4.0,100.0,,,,,,,,,,,,,,,,,,,,,,,,,,,,,,,,,,,,,,,,,,,,,,,,,,,,,,,,,,,,,,,,,,,,,,,,,,,,,,,,,,,,,,,,,,,,,,,,,,,,,,,,,,,,,,,,,,,,,,,,,,,,,,,,,,,
1725715969.53552,1725715969.536556,233.0,0.0,4266.538574,4265.256348,4333.589844,4359.230957,4266.153809,4267.05127,4185.641113,4276.538574,4271.538574,4255.897461,4490.641113,4533.846191,4404.230957,4428.333496,3812.0,1.0,15.0,,,,0.0,4.0,4.0,4.0,4.0,4.0,4.0,4.0,4.0,4.0,4.0,4.0,4.0,4.0,4.0,100.0,,,,,,,,,,,,,,,,,,,,,,,,,,,,,,,,,,,,,,,,,,,,,,,,,,,,,,,,,,,,,,,,,,,,,,,,,,,,,,,,,,,,,,,,,,,,,,,,,,,,,,,,,,,,,,,,,,,,,,,,,,,,,,,,,,,
1725715969.539424,1725715969.54046,234.0,0.0,4262.436035,4265.256348,4329.743652,4358.846191,4266.282227,4267.05127,4185.897461,4275.0,4266.922852,4251.025879,4489.358887,4527.94873,4404.615234,4427.05127,2879.0,1.0,15.0,,,,0.0,4.0,4.0,4.0,4.0,4.0,4.0,4.0,4.0,4.0,4.0,4.0,4.0,4.0,4.0,100.0,,,,,,,,,,,,,,,,,,,,,,,,,,,,,,,,,,,,,,,,,,,,,,,,,,,,,,,,,,,,,,,,,,,,,,,,,,,,,,,,,,,,,,,,,,,,,,,,,,,,,,,,,,,,,,,,,,,,,,,,,,,,,,,,,,,
1725715969.543328,1725715969.544264,235.0,0.0,4261.410156,4264.871582,4327.307617,4356.794922,4266.025879,4267.179688,4185.641113,4274.358887,4264.871582,4248.333496,4488.974121,4523.077148,4405.641113,4426.538574,3112.0,1.0,15.0,,,,0.0,4.0,4.0,4.0,4.0,4.0,4.0,4.0,4.0,4.0,4.0,4.0,4.0,4.0,4.0,100.0,,,,,,,,,,,,,,,,,,,,,,,,,,,,,,,,,,,,,,,,,,,,,,,,,,,,,,,,,,,,,,,,,,,,,,,,,,,,,,,,,,,,,,,,,,,,,,,,,,,,,,,,,,,,,,,,,,,,,,,,,,,,,,,,,,,
1725715969.547232,1725715969.548168,236.0,0.0,4262.307617,4264.358887,4326.538574,4353.974121,4265.256348,4267.179688,4184.871582,4275.128418,4266.410156,4248.461426,4489.230957,4520.769043,4406.153809,4426.410156,3406.0,1.0,15.0,,,,0.0,4.0,4.0,4.0,4.0,4.0,4.0,4.0,4.0,4.0,4.0,4.0,4.0,4.0,4.0,100.0,,,,,,,,,,,,,,,,,,,,,,,,,,,,,,,,,,,,,,,,,,,,,,,,,,,,,,,,0.0,0.0,1.0,0.0,1.0,0.0,,,,,,,,,,,,,,,,,,,,,,,,,,,,,,,,,,,,,,,,,,,,,,,,,,,,,,,,,,,,,,,,,,,,,,
1725715969.551136,1725715969.552073,237.0,0.0,4263.461426,4263.974121,4326.666504,4351.282227,4263.974121,4266.922852,4184.102539,4277.179688,4270.641113,4250.256348,4489.358887,4521.153809,4405.512695,4426.153809,3812.0,1.0,15.0,,,,0.0,4.0,4.0,4.0,4.0,4.0,4.0,4.0,4.0,4.0,4.0,4.0,4.0,4.0,4.0,100.0,,,,,,,,,,,,,,,,,,,,,,,,,,,,,,,,,,,,,,,,,,,,,,,,,,,,,,,,,,,,,,,,,,,,,,,,,,,,,,,,,,,,,,,,,,,,,,,,,,,,,,,,,,,,,,,,,,,,,,,,,,,,,,,,,,,
1725715969.55504,1725715969.555877,238.0,0.0,4263.846191,4263.846191,4326.666504,4350.0,4262.820313,4266.666504,4183.717773,4278.846191,4274.871582,4251.922852,4489.102539,4523.717773,4404.230957,4425.384766,2879.0,1.0,15.0,,,,0.0,4.0,4.0,4.0,4.0,4.0,4.0,4.0,4.0,4.0,4.0,4.0,4.0,4.0,4.0,100.0,,,,,,,,,,,,,,,,,,,,,,,,,,,,,,,,,,,,,,,,,,,,,,,,,,,,,,,,,,,,,,,,,,,,,,,,,,,,,,,,,,,,,,,,,,,,,,,,,,,,,,,,,,,,,,,,,,,,,,,,,,,,,,,,,,,
1725715969.558945,1725715969.559781,239.0,0.0,4263.717773,4263.974121,4325.897461,4350.0,4262.307617,4266.153809,4184.102539,4279.487305,4276.538574,4252.436035,4488.717773,4527.307617,4403.205078,4423.717773,3112.0,1.0,15.0,,,,0.0,4.0,4.0,4.0,4.0,4.0,4.0,4.0,4.0,4.0,4.0,4.0,4.0,4.0,4.0,100.0,,,,,,,,,,,,,,,,,,,,,,,,,,,,,,,,,,,,,,,,,,,,,,,,,,,,,,,,,,,,,,,,,,,,,,,,,,,,,,,,,,,,,,,,,,,,,,,,,,,,,,,,,,,,,,,,,,,,,,,,,,,,,,,,,,,
1725715969.562849,1725715969.563685,240.0,0.0,4263.974121,4264.230957,4324.102539,4350.897461,4262.692383,4265.897461,4184.743652,4279.487305,4274.615234,4251.794922,4488.589844,4530.769043,4402.94873,4421.666504,3406.0,1.0,15.0,,,,0.0,4.0,4.0,4.0,4.0,4.0,4.0,4.0,4.0,4.0,4.0,4.0,4.0,4.0,4.0,100.0,,,,,,,,,,,,,,,,,,,,,,,,,,,,,,,,,,,,,,,,,,,,,,,,,,,,,,,,,,,,,,,,,,,,,,,,,,,,,,,,,,,,,,,,,,,,,,,,,,,,,,,,,,,,,,,,,,,,,,,,,,,,,,,,,,,
1725715969.566753,1725715969.567589,241.0,0.0,4264.487305,4264.102539,4322.563965,4351.410156,4263.846191,4266.153809,4185.0,4279.871582,4270.0,4250.512695,4488.846191,4533.077148,4403.205078,4419.615234,3812.0,1.0,15.0,,,,0.0,4.0,4.0,4.0,4.0,4.0,4.0,4.0,4.0,4.0,4.0,4.0,4.0,4.0,4.0,100.0,,,,,,,,,,,,,,,,,,,,,,,,,,,,,,,,,,,,,,,,,,,,,,,,,,,,,,,,,,,,,,,,,,,,,,,,,,,,,,,,,,,,,,,,,,,,,,,,,,,,,,,,,,,,,,,,,,,,,,,,,,,,,,,,,,,
1725715969.570657,1725715969.571393,242.0,0.0,4264.358887,4263.589844,4322.179688,4350.897461,4264.615234,4266.794922,4184.871582,4280.769043,4265.512695,4249.615234,4488.974121,4534.358887,4403.589844,4417.820313,2879.0,1.0,15.0,,,,0.0,4.0,4.0,4.0,4.0,4.0,4.0,4.0,4.0,4.0,4.0,4.0,4.0,4.0,4.0,100.0,,,,,,,,,,,,,,,,,,,,,,,,,,,,,,,,,,,,,,,,,,,,,,,,,,,,,,,,,,,,,,,,,,,,,,,,,,,,,,,,,,,,,,,,,,,,,,,,,,,,,,,,,,,,,,,,,,,,,,,,,,,,,,,,,,,
1725715969.574561,1725715969.575297,243.0,0.0,4263.846191,4262.820313,4322.820313,4349.615234,4264.358887,4267.563965,4184.615234,4281.666504,4263.589844,4249.230957,4489.230957,4534.871582,4404.615234,4416.538574,3112.0,1.0,15.0,,,,0.0,4.0,4.0,4.0,4.0,4.0,4.0,4.0,4.0,4.0,4.0,4.0,4.0,4.0,4.0,100.0,,,,,,,,,,,,,,,,,,,,,,,,,,,,,,,,,,,,,,,,,,,,,,,,,,,,,,,,,,,,,,,,,,,,,,,,,,,,,,,,,,,,,,,,,,,,,,,,,,,,,,,,,,,,,,,,,,,,,,,,,,,,,,,,,,,
1725715969.578465,1725715969.579202,244.0,0.0,4263.589844,4262.307617,4323.717773,4348.717773,4262.94873,4267.94873,4184.871582,4281.922852,4265.128418,4249.358887,4489.615234,4535.512695,4405.512695,4416.153809,3406.0,1.0,15.0,,,,0.0,4.0,4.0,4.0,4.0,4.0,4.0,4.0,4.0,4.0,4.0,4.0,4.0,4.0,4.0,100.0,,,,,,,,,,,,,,,,,1.0,0.0,0.0,,,,,,,,,,,,,,,,,,,,,,,,,,,,,,,,,,,,,0.0,0.0,1.0,0.0,1.0,0.0,1.314219,1.007828,0.297912,0.143653,0.083961,1.744465,0.930076,0.192175,0.113168,0.0517,1.737629,0.804804,0.358232,0.198981,0.066703,1.168502,0.857073,0.338796,0.167837,0.07194,0.758057,0.552939,0.093382,0.067119,0.040004,0.273924,0.216717,0.052705,0.064551,0.0325,1.130727,0.26939,0.200632,0.114376,0.039493,1.228743,0.772366,0.282563,0.192109,0.135039,0.815933,0.767531,0.282238,0.272728,0.062927,1.784779,0.933264,0.46821,0.253182,0.121883,2.7106,1.352562,0.844355,0.349929,0.095778,1.766297,1.306291,0.709777,0.304717,0.115739,2.499036,1.134752,0.691381,0.365535,0.107342,1.549936,0.974954,0.597449,0.281002,0.049848
1725715969.582369,1725715969.583106,245.0,0.0,4265.0,4262.307617,4324.102539,4348.461426,4261.410156,4267.692383,4185.512695,4282.179688,4269.358887,4249.871582,4490.0,4536.538574,4405.641113,4417.436035,3812.0,1.0,15.0,,,,0.0,4.0,4.0,4.0,4.0,4.0,4.0,4.0,4.0,4.0,4.0,4.0,4.0,4.0,4.0,100.0,,,,,,,,,,,,,,,,,,,,,,,,,,,,,,,,,,,,,,,,,,,,,,,,,,,,,,,,,,,,,,,,,,,,,,,,,,,,,,,,,,,,,,,,,,,,,,,,,,,,,,,,,,,,,,,,,,,,,,,,,,,,,,,,,,,
1725715969.586273,1725715969.58691,246.0,0.0,4268.461426,4262.820313,4323.974121,4348.974121,4260.641113,4267.307617,4186.410156,4283.205078,4274.102539,4250.897461,4490.256348,4537.820313,4404.230957,4419.871582,2879.0,1.0,15.0,,,,0.0,4.0,4.0,4.0,4.0,4.0,4.0,4.0,4.0,4.0,4.0,4.0,4.0,4.0,4.0,100.0,,,,,,,,,,,,,,,,,,,,,,,,,,,,,,,,,,,,,,,,,,,,,,,,,,,,,,,,,,,,,,,,,,,,,,,,,,,,,,,,,,,,,,,,,,,,,,,,,,,,,,,,,,,,,,,,,,,,,,,,,,,,,,,,,,,
1725715969.590177,1725715969.590814,247.0,0.0,4273.205078,4263.205078,4323.974121,4349.487305,4260.769043,4267.05127,4187.179688,4285.128418,4277.692383,4253.205078,4490.128418,4538.589844,4401.794922,4422.436035,3112.0,1.0,15.0,,,,0.0,4.0,4.0,4.0,4.0,4.0,4.0,4.0,4.0,4.0,4.0,4.0,4.0,4.0,4.0,100.0,,,,,,,,,,,,,,,,,,,,,,,,,,,,,,,,,,,,,,,,,,,,,,,,,,,,,,,,,,,,,,,,,,,,,,,,,,,,,,,,,,,,,,,,,,,,,,,,,,,,,,,,,,,,,,,,,,,,,,,,,,,,,,,,,,,
1725715969.594082,1725715969.594718,248.0,0.0,4277.307617,4262.820313,4325.0,4349.615234,4261.538574,4267.05127,4187.563965,4287.05127,4279.358887,4256.666504,4490.384766,4538.974121,4400.0,4424.230957,3406.0,1.0,15.0,,,,0.0,4.0,4.0,4.0,4.0,4.0,4.0,4.0,4.0,4.0,4.0,4.0,4.0,4.0,4.0,100.0,,,,,,,,,,,,,,,,,,,,,,,,,,,,,,,,,,,,,,,,,,,,,,,,,,,,,,,,,,,,,,,,,,,,,,,,,,,,,,,,,,,,,,,,,,,,,,,,,,,,,,,,,,,,,,,,,,,,,,,,,,,,,,,,,,,
1725715969.597986,1725715969.598622,249.0,0.0,4279.871582,4261.922852,4327.05127,4349.871582,4262.179688,4267.05127,4188.717773,4287.692383,4279.230957,4260.128418,4491.794922,4540.0,4400.384766,4425.641113,3812.0,1.0,15.0,,,,0.0,4.0,4.0,4.0,4.0,4.0,4.0,4.0,4.0,4.0,4.0,4.0,4.0,4.0,4.0,100.0,,,,,,,,,,,,,,,,,,,,,,,,,,,,,,,,,,,,,,,,,,,,,,,,,,,,,,,,,,,,,,,,,,,,,,,,,,,,,,,,,,,,,,,,,,,,,,,,,,,,,,,,,,,,,,,,,,,,,,,,,,,,,,,,,,,
1725715969.60189,1725715969.602426,250.0,0.0,4281.282227,4261.922852,4329.358887,4350.641113,4262.05127,4266.794922,4191.282227,4286.538574,4278.205078,4262.307617,4494.615234,4542.563965,4403.717773,4427.692383,2879.0,1.0,15.0,,,,0.0,4.0,4.0,4.0,4.0,4.0,4.0,4.0,4.0,4.0,4.0,4.0,4.0,4.0,4.0,100.0,,,,,,,,,,,,,,,,,,,,,,,,,,,,,,,,,,,,,,,,,,,,,,,,,,,,,,,,,,,,,,,,,,,,,,,,,,,,,,,,,,,,,,,,,,,,,,,,,,,,,,,,,,,,,,,,,,,,,,,,,,,,,,,,,,,
1725715969.605794,1725715969.60633,251.0,0.0,4283.333496,4264.230957,4332.05127,4352.692383,4261.410156,4266.282227,4195.128418,4284.487305,4277.436035,4262.94873,4498.589844,4546.922852,4409.743652,4431.025879,3112.0,1.0,15.0,,,,0.0,4.0,4.0,4.0,4.0,4.0,4.0,4.0,4.0,4.0,4.0,4.0,4.0,4.0,4.0,100.0,,,,,,,,,,,,,,,,,,,,,,,,,,,,,,,,,,,,,,,,,,,,,,,,,,,,,,,,,,,,,,,,,,,,,,,,,,,,,,,,,,,,,,,,,,,,,,,,,,,,,,,,,,,,,,,,,,,,,,,,,,,,,,,,,,,
1725715969.609698,1725715969.610235,252.0,0.0,4287.436035,4268.717773,4335.128418,4355.769043,4261.153809,4266.025879,4198.717773,4282.563965,4277.94873,4262.820313,4502.692383,4551.794922,4416.794922,4436.025879,3406.0,1.0,15.0,,,,0.0,4.0,4.0,4.0,4.0,4.0,4.0,4.0,4.0,4.0,4.0,4.0,4.0,4.0,4.0,100.0,,,,,,,,,,,,,,,,,,,,,,,,,,,,,,,,,,,,,,,,,,,,,,,,,,,,,,,,0.0,0.0,1.0,0.0,1.0,0.0,,,,,,,,,,,,,,,,,,,,,,,,,,,,,,,,,,,,,,,,,,,,,,,,,,,,,,,,,,,,,,,,,,,,,,
1725715969.613602,1725715969.614239,253.0,0.0,4293.461426,4274.358887,4338.461426,4359.358887,4261.794922,4266.025879,4201.025879,4281.666504,4279.230957,4262.692383,4505.512695,4555.0,4422.563965,4441.410156,3812.0,1.0,15.0,,,,0.0,4.0,4.0,4.0,4.0,4.0,4.0,4.0,4.0,4.0,4.0,4.0,4.0,4.0,4.0,100.0,,,,,,,,,,,,,,,,,,,,,,,,,,,,,,,,,,,,,,,,,,,,,,,,,,,,,,,,,,,,,,,,,,,,,,,,,,,,,,,,,,,,,,,,,,,,,,,,,,,,,,,,,,,,,,,,,,,,,,,,,,,,,,,,,,,
1725715969.617506,1725715969.618143,254.0,0.0,4300.384766,4278.974121,4341.538574,4362.307617,4262.94873,4266.153809,4201.153809,4281.282227,4279.743652,4262.563965,4506.666504,4555.641113,4425.512695,4445.384766,2879.0,1.0,15.0,,,,0.0,4.0,4.0,4.0,4.0,4.0,4.0,4.0,4.0,4.0,4.0,4.0,4.0,4.0,4.0,100.0,,,,,,,,,,,,,,,,,,,,,,,,,,,,,,,,,,,,,,,,,,,,,,,,,,,,,,,,,,,,,,,,,,,,,,,,,,,,,,,,,,,,,,,,,,,,,,,,,,,,,,,,,,,,,,,,,,,,,,,,,,,,,,,,,,,
1725715969.62141,1725715969.622047,255.0,0.0,4306.410156,4281.153809,4343.846191,4364.615234,4264.358887,4266.282227,4199.871582,4281.025879,4278.974121,4262.563965,4506.153809,4555.0,4425.641113,4446.794922,15.0,1.0,15.0,,,,0.0,4.0,4.0,4.0,4.0,4.0,4.0,4.0,4.0,4.0,4.0,4.0,4.0,4.0,4.0,100.0,,,,,,,,,,,,,,,,,,,,,,,,,,,,,,,,,,,,,,,,,,,,,,,,,,,,,,,,,,,,,,,,,,,,,,,,,,,,,,,,,,,,,,,,,,,,,,,,,,,,,,,,,,,,,,,,,,,,,,,,,,,,,,,,,,,
1725715969.625314,1725715969.626051,0.0,0.0,4310.128418,4280.897461,4344.871582,4366.153809,4265.512695,4266.153809,4198.205078,4281.410156,4277.692383,4262.563965,4505.0,4556.153809,4424.615234,4446.153809,2685.0,1.0,15.0,,,,0.0,4.0,4.0,4.0,4.0,4.0,4.0,4.0,4.0,4.0,4.0,4.0,4.0,4.0,4.0,100.0,,,,,,,,,,,,,,,,,,,,,,,,,,,,,,,,,,,,,,,,,,,,,,,,,,,,,,,,,,,,,,,,,,,,,,,,,,,,,,,,,,,,,,,,,,,,,,,,,,,,,,,,,,,,,,,,,,,,,,,,,,,,,,,,,,,
1725715969.629218,1725715969.629955,1.0,0.0,4311.538574,4279.871582,4344.871582,4367.179688,4266.153809,4265.769043,4196.922852,4283.205078,4277.692383,4263.589844,4504.615234,4560.384766,4424.487305,4445.0,2561.0,1.0,15.0,,,,0.0,4.0,4.0,4.0,4.0,4.0,4.0,4.0,4.0,4.0,4.0,4.0,4.0,4.0,4.0,100.0,,,,,,,,,,,,,,,,,,,,,,,,,,,,,,,,,,,,,,,,,,,,,,,,,,,,,,,,,,,,,,,,,,,,,,,,,,,,,,,,,,,,,,,,,,,,,,,,,,,,,,,,,,,,,,,,,,,,,,,,,,,,,,,,,,,
1725715969.633123,1725715969.633859,2.0,0.0,4311.538574,4279.487305,4344.487305,4367.436035,4266.282227,4265.256348,4195.897461,4286.922852,4279.871582,4266.025879,4505.769043,4566.153809,4426.410156,4445.0,2483.0,1.0,15.0,,,,0.0,4.0,4.0,4.0,4.0,4.0,4.0,4.0,4.0,4.0,4.0,4.0,4.0,4.0,4.0,100.0,,,,,,,,,,,,,,,,,,,,,,,,,,,,,,,,,,,,,,,,,,,,,,,,,,,,,,,,,,,,,,,,,,,,,,,,,,,,,,,,,,,,,,,,,,,,,,,,,,,,,,,,,,,,,,,,,,,,,,,,,,,,,,,,,,,
1725715969.637027,1725715969.637763,3.0,0.0,4311.282227,4280.256348,4344.230957,4366.922852,4265.769043,4264.743652,4194.487305,4291.538574,4283.589844,4269.487305,4507.94873,4569.487305,4429.102539,4446.282227,2463.0,1.0,15.0,,,,0.0,4.0,4.0,4.0,4.0,4.0,4.0,4.0,4.0,4.0,4.0,4.0,4.0,4.0,4.0,100.0,,,,,,,,,,,,,,,,,,,,,,,,,,,,,,,,,,,,,,,,,,,,,,,,,,,,,,,,,,,,,,,,,,,,,,,,,,,,,,,,,,,,,,,,,,,,,,,,,,,,,,,,,,,,,,,,,,,,,,,,,,,,,,,,,,,
1725715969.640931,1725715969.641667,4.0,0.0,4311.025879,4280.897461,4344.102539,4365.256348,4264.743652,4264.102539,4191.922852,4294.615234,4286.922852,4272.307617,4509.487305,4567.94873,4430.512695,4447.179688,2436.0,1.0,15.0,,,,0.0,4.0,4.0,4.0,4.0,4.0,4.0,4.0,4.0,4.0,4.0,4.0,4.0,4.0,4.0,100.0,,,,,,,,,,,,,,,,,,,,,,,,,,,,,,,,,,,,,,,,,,,,,,,,,,,,,,,,0.0,0.0,1.0,0.0,1.0,0.0,,,,,,,,,,,,,,,,,,,,,,,,,,,,,,,,,,,,,,,,,,,,,,,,,,,,,,,,,,,,,,,,,,,,,,
1725715969.644835,1725715969.645571,5.0,0.0,4310.641113,4279.487305,4343.205078,4362.692383,4264.102539,4263.717773,4188.205078,4294.615234,4288.077148,4272.94873,4509.358887,4562.05127,4428.974121,4446.153809,2396.0,1.0,15.0,,,,0.0,4.0,4.0,4.0,4.0,4.0,4.0,4.0,4.0,4.0,4.0,4.0,4.0,4.0,4.0,100.0,,,,,,,,,,,,,,,,,,,,,,,,,,,,,,,,,,,,,,,,,,,,,,,,,,,,,,,,,,,,,,,,,,,,,,,,,,,,,,,,,,,,,,,,,,,,,,,,,,,,,,,,,,,,,,,,,,,,,,,,,,,,,,,,,,,
1725715969.648739,1725715969.649375,6.0,0.0,4310.128418,4275.384766,4341.025879,4359.743652,4264.102539,4263.333496,4184.615234,4292.05127,4286.666504,4271.153809,4507.307617,4555.769043,4424.615234,4443.077148,2439.0,1.0,15.0,,,,0.0,4.0,4.0,4.0,4.0,4.0,4.0,4.0,4.0,4.0,4.0,4.0,4.0,4.0,4.0,100.0,,,,,,,,,,,,,,,,,,,,,,,,,,,,,,,,,,,,,,,,,,,,,,,,,,,,,,,,,,,,,,,,,,,,,,,,,,,,,,,,,,,,,,,,,,,,,,,,,,,,,,,,,,,,,,,,,,,,,,,,,,,,,,,,,,,
1725715969.652643,1725715969.65328,7.0,0.0,4309.743652,4269.871582,4337.436035,4357.05127,4264.487305,4263.333496,4182.563965,4289.358887,4283.974121,4268.205078,4503.461426,4552.563965,4419.230957,4439.487305,2488.0,1.0,15.0,,,,0.0,4.0,4.0,4.0,4.0,4.0,4.0,4.0,4.0,4.0,4.0,4.0,4.0,4.0,4.0,100.0,,,,,,,,,,,,,,,,,,,,,,,,,,,,,,,,,,,,,,,,,,,,,,,,,,,,,,,,,,,,,,,,,,,,,,,,,,,,,,,,,,,,,,,,,,,,,,,,,,,,,,,,,,,,,,,,,,,,,,,,,,,,,,,,,,,
1725715969.656547,1725715969.657184,8.0,0.0,4309.102539,4265.128418,4332.94873,4354.487305,4263.846191,4263.333496,4182.692383,4288.717773,4281.922852,4265.641113,4498.974121,4553.077148,4415.128418,4436.922852,2469.0,1.0,15.0,,,,0.0,4.0,4.0,4.0,4.0,4.0,4.0,4.0,4.0,4.0,4.0,4.0,4.0,4.0,4.0,100.0,,,,,,,,,,,,,,,,,,,,,,,,,,,,,,,,,,,,,,,,,,,,,,,,,,,,,,,,,,,,,,,,,,,,,,,,,,,,,,,,,,,,,,,,,,,,,,,,,,,,,,,,,,,,,,,,,,,,,,,,,,,,,,,,,,,
1725715969.660451,1725715969.660988,9.0,0.0,4307.436035,4262.94873,4328.974121,4352.05127,4261.025879,4263.717773,4183.974121,4289.615234,4281.666504,4264.487305,4494.615234,4554.358887,4413.333496,4435.769043,2556.0,1.0,15.0,,,,0.0,4.0,4.0,4.0,4.0,4.0,4.0,4.0,4.0,4.0,4.0,4.0,4.0,4.0,4.0,100.0,,,,,,,,,,,,,,,,,,,,,,,,,,,,,,,,,,,,,,,,,,,,,,,,,,,,,,,,,,,,,,,,,,,,,,,,,,,,,,,,,,,,,,,,,,,,,,,,,,,,,,,,,,,,,,,,,,,,,,,,,,,,,,,,,,,
1725715969.664355,1725715969.664892,10.0,0.0,4305.128418,4263.205078,4326.538574,4349.743652,4256.538574,4264.102539,4183.974121,4289.871582,4282.820313,4264.615234,4491.538574,4554.102539,4413.717773,4435.256348,2879.0,1.0,15.0,,,,0.0,4.0,4.0,4.0,4.0,4.0,4.0,4.0,4.0,4.0,4.0,4.0,4.0,4.0,4.0,100.0,,,,,,,,,,,,,,,,,,,,,,,,,,,,,,,,,,,,,,,,,,,,,,,,,,,,,,,,,,,,,,,,,,,,,,,,,,,,,,,,,,,,,,,,,,,,,,,,,,,,,,,,,,,,,,,,,,,,,,,,,,,,,,,,,,,
1725715969.66826,1725715969.668796,11.0,0.0,4303.333496,4264.358887,4326.282227,4348.589844,4251.922852,4264.230957,4181.666504,4288.205078,4284.102539,4265.0,4491.025879,4551.794922,4414.615234,4434.230957,3112.0,1.0,15.0,,,,0.0,4.0,4.0,4.0,4.0,4.0,4.0,4.0,4.0,4.0,4.0,4.0,4.0,4.0,4.0,100.0,,,,,,,,,,,,,,,,,,,,,,,,,,,,,,,,,,,,,,,,,,,,,,,,,,,,,,,,,,,,,,,,,,,,,,,,,,,,,,,,,,,,,,,,,,,,,,,,,,,,,,,,,,,,,,,,,,,,,,,,,,,,,,,,,,,
1725715969.672164,1725715969.6728,12.0,0.0,4303.333496,4264.743652,4327.179688,4348.333496,4249.230957,4264.230957,4177.563965,4285.641113,4283.974121,4264.487305,4492.820313,4549.743652,4414.358887,4432.820313,3403.0,1.0,15.0,,,,0.0,4.0,4.0,4.0,4.0,4.0,4.0,4.0,4.0,4.0,4.0,4.0,4.0,4.0,4.0,100.0,,,,,,,,,,,,,,,,,,,,,,,,,,,,,,,,,,,,,,,,,,,,,,,,,,,,,,,,0.0,0.0,1.0,0.0,1.0,0.0,,,,,,,,,,,,,,,,,,,,,,,,,,,,,,,,,,,,,,,,,,,,,,,,,,,,,,,,,,,,,,,,,,,,,,
1725715969.676068,1725715969.676704,13.0,0.0,4305.0,4264.230957,4327.563965,4348.846191,4249.358887,4264.230957,4173.461426,4284.358887,4282.563965,4262.94873,4495.384766,4549.743652,4412.820313,4431.666504,3820.0,1.0,15.0,,,,0.0,4.0,4.0,4.0,4.0,4.0,4.0,4.0,4.0,4.0,4.0,4.0,4.0,4.0,4.0,100.0,,,,,,,,,,,,,,,,,,,,,,,,,,,,,,,,,,,,,,,,,,,,,,,,,,,,,,,,,,,,,,,,,,,,,,,,,,,,,,,,,,,,,,,,,,,,,,,,,,,,,,,,,,,,,,,,,,,,,,,,,,,,,,,,,,,
1725715969.679972,1725715969.680608,14.0,0.0,4307.563965,4263.717773,4326.282227,4349.102539,4251.153809,4264.743652,4170.769043,4285.384766,4281.025879,4261.410156,4497.05127,4551.025879,4411.538574,4431.025879,2879.0,1.0,15.0,,,,0.0,4.0,4.0,4.0,4.0,4.0,4.0,4.0,4.0,4.0,4.0,4.0,4.0,4.0,4.0,100.0,,,,,,,,,,,,,,,,,,,,,,,,,,,,,,,,,,,,,,,,,,,,,,,,,,,,,,,,,,,,,,,,,,,,,,,,,,,,,,,,,,,,,,,,,,,,,,,,,,,,,,,,,,,,,,,,,,,,,,,,,,,,,,,,,,,
1725715969.683876,1725715969.684512,15.0,0.0,4309.230957,4264.102539,4323.974121,4348.589844,4252.436035,4265.384766,4169.615234,4287.94873,4280.384766,4260.897461,4497.179688,4551.153809,4411.410156,4430.769043,3112.0,1.0,15.0,,,,0.0,4.0,4.0,4.0,4.0,4.0,4.0,4.0,4.0,4.0,4.0,4.0,4.0,4.0,4.0,100.0,,,,,,,,,,,,,,,,,,,,,,,,,,,,,,,,,,,,,,,,,,,,,,,,,,,,,,,,,,,,,,,,,,,,,,,,,,,,,,,,,,,,,,,,,,,,,,,,,,,,,,,,,,,,,,,,,,,,,,,,,,,,,,,,,,,
1725715969.68778,1725715969.688417,16.0,0.0,4309.487305,4265.0,4322.05127,4347.563965,4252.179688,4265.897461,4169.102539,4290.641113,4281.025879,4261.922852,4495.897461,4548.333496,4412.436035,4430.384766,3403.0,1.0,15.0,,,,0.0,4.0,4.0,4.0,4.0,4.0,4.0,4.0,4.0,4.0,4.0,4.0,4.0,4.0,4.0,100.0,,,,,,,,,,,,,,,,,,,,,,,,,,,,,,,,,,,,,,,,,,,,,,,,,,,,,,,,,,,,,,,,,,,,,,,,,,,,,,,,,,,,,,,,,,,,,,,,,,,,,,,,,,,,,,,,,,,,,,,,,,,,,,,,,,,
1725715969.691684,1725715969.692221,17.0,0.0,4308.846191,4265.256348,4321.666504,4347.05127,4250.512695,4266.153809,4168.461426,4292.307617,4282.179688,4263.846191,4494.230957,4543.846191,4413.461426,4430.0,3820.0,1.0,15.0,,,,0.0,4.0,4.0,4.0,4.0,4.0,4.0,4.0,4.0,4.0,4.0,4.0,4.0,4.0,4.0,100.0,,,,,,,,,,,,,,,,,,,,,,,,,,,,,,,,,,,,,,,,,,,,,,,,,,,,,,,,,,,,,,,,,,,,,,,,,,,,,,,,,,,,,,,,,,,,,,,,,,,,,,,,,,,,,,,,,,,,,,,,,,,,,,,,,,,
1725715969.695588,1725715969.696125,18.0,0.0,4308.717773,4264.230957,4323.077148,4347.820313,4249.487305,4266.025879,4167.179688,4292.436035,4282.94873,4265.512695,4493.205078,4540.256348,4413.461426,4429.743652,2879.0,1.0,15.0,,,,0.0,4.0,4.0,4.0,4.0,4.0,4.0,4.0,4.0,4.0,4.0,4.0,4.0,4.0,4.0,100.0,,,,,,,,,,,,,,,,,,,,,,,,,,,,,,,,,,,,,,,,,,,,,,,,,,,,,,,,,,,,,,,,,,,,,,,,,,,,,,,,,,,,,,,,,,,,,,,,,,,,,,,,,,,,,,,,,,,,,,,,,,,,,,,,,,,
1725715969.699492,1725715969.700029,19.0,0.0,4310.0,4263.333496,4325.128418,4350.256348,4251.666504,4265.897461,4166.282227,4291.666504,4282.820313,4266.282227,4493.333496,4539.743652,4412.820313,4430.0,3112.0,1.0,15.0,,,,0.0,4.0,4.0,4.0,4.0,4.0,4.0,4.0,4.0,4.0,4.0,4.0,4.0,4.0,4.0,100.0,,,,,,,,,,,,,,,,,,,,,,,,,,,,,,,,,,,,,,,,,,,,,,,,,,,,,,,,,,,,,,,,,,,,,,,,,,,,,,,,,,,,,,,,,,,,,,,,,,,,,,,,,,,,,,,,,,,,,,,,,,,,,,,,,,,
1725715969.703396,1725715969.703933,20.0,0.0,4312.94873,4264.230957,4326.282227,4353.461426,4257.179688,4265.769043,4166.922852,4290.641113,4282.563965,4266.282227,4494.358887,4542.436035,4412.307617,4431.153809,3403.0,1.0,15.0,,,,0.0,4.0,4.0,4.0,4.0,4.0,4.0,4.0,4.0,4.0,4.0,4.0,4.0,4.0,4.0,100.0,,,,,,,,,,,,,,,,,1.0,0.0,0.0,,,,,,,,,,,,,,,,,,,,,,,,,,,,,,,,,,,,,0.0,0.0,64.0,0.229881,1.0,0.0,1.588602,1.059534,0.236369,0.167495,0.073145,2.010979,0.977773,0.177091,0.134526,0.046876,1.666615,0.816721,0.321664,0.21614,0.06958,1.432931,0.77878,0.323663,0.192308,0.066754,0.789669,0.546198,0.124684,0.086205,0.045927,0.280975,0.204423,0.054921,0.071802,0.036077,1.219043,0.288852,0.191759,0.116082,0.044916,1.313753,0.742527,0.263156,0.18958,0.128161,0.899581,0.855965,0.301671,0.297341,0.061499,1.786247,1.063382,0.47481,0.252631,0.114447,2.869864,1.598069,0.733845,0.353618,0.106038,1.882585,1.360186,0.576705,0.308308,0.122044,2.568679,1.303793,0.70173,0.38133,0.121906,1.652254,1.000013,0.534985,0.306095,0.056734
1725715969.707301,1725715969.707737,21.0,0.0,4317.05127,4267.820313,4326.025879,4355.897461,4263.333496,4265.512695,4168.974121,4289.871582,4282.307617,4265.769043,4495.512695,4545.769043,4412.05127,4432.436035,3820.0,1.0,15.0,,,,0.0,4.0,4.0,4.0,4.0,4.0,4.0,4.0,4.0,4.0,4.0,4.0,4.0,4.0,4.0,100.0,,,,,,,,,,,,,,,,,,,,,,,,,,,,,,,,,,,,,,,,,,,,,,,,,,,,,,,,,,,,,,,,,,,,,,,,,,,,,,,,,,,,,,,,,,,,,,,,,,,,,,,,,,,,,,,,,,,,,,,,,,,,,,,,,,,
1725715969.711205,1725715969.711641,22.0,0.0,4320.769043,4272.307617,4325.256348,4357.05127,4266.410156,4265.512695,4170.256348,4289.615234,4282.307617,4265.0,4495.897461,4547.692383,4412.179688,4433.205078,2879.0,1.0,15.0,,,,0.0,4.0,4.0,4.0,4.0,4.0,4.0,4.0,4.0,4.0,4.0,4.0,4.0,4.0,4.0,100.0,,,,,,,,,,,,,,,,,,,,,,,,,,,,,,,,,,,,,,,,,,,,,,,,,,,,,,,,,,,,,,,,,,,,,,,,,,,,,,,,,,,,,,,,,,,,,,,,,,,,,,,,,,,,,,,,,,,,,,,,,,,,,,,,,,,
1725715969.715109,1725715969.715545,23.0,0.0,4322.820313,4275.128418,4325.897461,4357.05127,4264.487305,4265.769043,4168.333496,4289.743652,4282.436035,4264.102539,4495.256348,4547.692383,4412.05127,4432.692383,3112.0,1.0,15.0,,,,0.0,4.0,4.0,4.0,4.0,4.0,4.0,4.0,4.0,4.0,4.0,4.0,4.0,4.0,4.0,100.0,,,,,,,,,,,,,,,,,,,,,,,,,,,,,,,,,,,,,,,,,,,,,,,,,,,,,,,,,,,,,,,,,,,,,,,,,,,,,,,,,,,,,,,,,,,,,,,,,,,,,,,,,,,,,,,,,,,,,,,,,,,,,,,,,,,
1725715969.719013,1725715969.719549,24.0,0.0,4322.179688,4274.102539,4328.717773,4356.538574,4259.102539,4266.025879,4163.333496,4290.384766,4282.563965,4263.589844,4493.974121,4547.179688,4411.282227,4431.282227,3403.0,1.0,15.0,,,,0.0,4.0,4.0,4.0,4.0,4.0,4.0,4.0,4.0,4.0,4.0,4.0,4.0,4.0,4.0,100.0,,,,,,,,,,,,,,,,,,,,,,,,,,,,,,,,,,,,,,,,,,,,,,,,,,,,,,,,,,,,,,,,,,,,,,,,,,,,,,,,,,,,,,,,,,,,,,,,,,,,,,,,,,,,,,,,,,,,,,,,,,,,,,,,,,,
1725715969.722917,1725715969.723454,25.0,0.0,4319.358887,4270.128418,4332.436035,4356.153809,4253.461426,4266.025879,4158.205078,4291.666504,4282.563965,4263.333496,4492.820313,4547.179688,4409.358887,4429.615234,3820.0,1.0,15.0,,,,0.0,4.0,4.0,4.0,4.0,4.0,4.0,4.0,4.0,4.0,4.0,4.0,4.0,4.0,4.0,100.0,,,,,,,,,,,,,,,,,,,,,,,,,,,,,,,,,,,,,,,,,,,,,,,,,,,,,,,,,,,,,,,,,,,,,,,,,,,,,,,,,,,,,,,,,,,,,,,,,,,,,,,,,,,,,,,,,,,,,,,,,,,,,,,,,,,
1725715969.726821,1725715969.727358,26.0,0.0,4316.025879,4265.769043,4334.743652,4356.025879,4250.897461,4265.512695,4156.282227,4293.077148,4282.692383,4263.077148,4492.563965,4547.94873,4406.025879,4428.333496,2879.0,1.0,15.0,,,,0.0,4.0,4.0,4.0,4.0,4.0,4.0,4.0,4.0,4.0,4.0,4.0,4.0,4.0,4.0,100.0,,,,,,,,,,,,,,,,,,,,,,,,,,,,,,,,,,,,,,,,,,,,,,,,,,,,,,,,,,,,,,,,,,,,,,,,,,,,,,,,,,,,,,,,,,,,,,,,,,,,,,,,,,,,,,,,,,,,,,,,,,,,,,,,,,,
1725715969.730725,1725715969.731362,27.0,0.0,4313.333496,4263.333496,4333.846191,4356.153809,4252.820313,4264.358887,4158.846191,4293.589844,4282.563965,4262.307617,4492.692383,4548.333496,4401.922852,4427.563965,3112.0,1.0,15.0,,,,0.0,4.0,4.0,4.0,4.0,4.0,4.0,4.0,4.0,4.0,4.0,4.0,4.0,4.0,4.0,100.0,,,,,,,,,,,,,,,,,,,,,,,,,,,,,,,,,,,,,,,,,,,,,,,,,,,,,,,,,,,,,,,,,,,,,,,,,,,,,,,,,,,,,,,,,,,,,,,,,,,,,,,,,,,,,,,,,,,,,,,,,,,,,,,,,,,
1725715969.734629,1725715969.735266,28.0,0.0,4312.307617,4263.846191,4330.512695,4356.410156,4258.077148,4263.077148,4163.717773,4292.563965,4282.307617,4261.410156,4492.563965,4547.05127,4398.846191,4427.307617,3403.0,1.0,15.0,,,,0.0,4.0,4.0,4.0,4.0,4.0,4.0,4.0,4.0,4.0,4.0,4.0,4.0,4.0,4.0,100.0,,,,,,,,,,,,,,,,,,,,,,,,,,,,,,,,,,,,,,,,,,,,,,,,,,,,,,,,10.0,0.0,64.0,0.229881,1.0,0.0,,,,,,,,,,,,,,,,,,,,,,,,,,,,,,,,,,,,,,,,,,,,,,,,,,,,,,,,,,,,,,,,,,,,,,
1725715969.738533,1725715969.73917,29.0,0.0,4312.563965,4265.897461,4327.563965,4356.410156,4263.589844,4262.179688,4167.05127,4290.641113,4282.179688,4260.512695,4491.794922,4544.487305,4398.717773,4427.05127,3820.0,1.0,15.0,,,,0.0,4.0,4.0,4.0,4.0,4.0,4.0,4.0,4.0,4.0,4.0,4.0,4.0,4.0,4.0,100.0,,,,,,,,,,,,,,,,,,,,,,,,,,,,,,,,,,,,,,,,,,,,,,,,,,,,,,,,,,,,,,,,,,,,,,,,,,,,,,,,,,,,,,,,,,,,,,,,,,,,,,,,,,,,,,,,,,,,,,,,,,,,,,,,,,,
1725715969.742437,1725715969.743074,30.0,0.0,4313.461426,4267.563965,4327.563965,4356.282227,4265.897461,4262.179688,4166.538574,4289.487305,4282.307617,4260.384766,4491.025879,4542.94873,4402.820313,4427.179688,2879.0,1.0,15.0,,,,0.0,4.0,4.0,4.0,4.0,4.0,4.0,4.0,4.0,4.0,4.0,4.0,4.0,4.0,4.0,100.0,,,,,,,,,,,,,,,,,,,,,,,,,,,,,,,,,,,,,,,,,,,,,,,,,,,,,,,,,,,,,,,,,,,,,,,,,,,,,,,,,,,,,,,,,,,,,,,,,,,,,,,,,,,,,,,,,,,,,,,,,,,,,,,,,,,
1725715969.746342,1725715969.746978,31.0,0.0,4314.615234,4267.05127,4330.641113,4355.897461,4263.589844,4263.077148,4162.307617,4290.384766,4282.692383,4261.025879,4490.897461,4544.743652,4409.487305,4428.077148,3112.0,1.0,15.0,,,,0.0,4.0,4.0,4.0,4.0,4.0,4.0,4.0,4.0,4.0,4.0,4.0,4.0,4.0,4.0,100.0,,,,,,,,,,,,,,,,,,,,,,,,,,,,,,,,,,,,,,,,,,,,,,,,,,,,,,,,,,,,,,,,,,,,,,,,,,,,,,,,,,,,,,,,,,,,,,,,,,,,,,,,,,,,,,,,,,,,,,,,,,,,,,,,,,,
1725715969.750246,1725715969.750882,32.0,0.0,4315.128418,4264.358887,4334.230957,4355.512695,4258.205078,4264.615234,4157.05127,4293.205078,4283.333496,4262.05127,4491.794922,4549.102539,4415.128418,4429.615234,0.0,1.0,15.0,,,,0.0,4.0,4.0,4.0,4.0,4.0,4.0,4.0,4.0,4.0,4.0,4.0,4.0,4.0,4.0,100.0,,,,,,,,,,,,,,,,,,,,,,,,,,,,,,,,,,,,,,,,,,,,,,,,,,,,,,,,,,,,,,,,,,,,,,,,,,,,,,,,,,,,,,,,,,,,,,,,,,,,,,,,,,,,,,,,,,,,,,,,,,,,,,,,,,,
1725715969.75415,1725715969.754786,33.0,0.0,4314.743652,4261.922852,4335.512695,4354.871582,4252.94873,4266.153809,4153.205078,4296.282227,4283.717773,4262.94873,4492.820313,4553.077148,4415.641113,4430.512695,0.0,1.0,15.0,,,,0.0,4.0,4.0,4.0,4.0,4.0,4.0,4.0,4.0,4.0,4.0,4.0,4.0,4.0,4.0,100.0,,,,,,,,,,,,,,,,,,,,,,,,,,,,,,,,,,,,,,,,,,,,,,,,,,,,,,,,,,,,,,,,,,,,,,,,,,,,,,,,,,,,,,,,,,,,,,,,,,,,,,,,,,,,,,,,,,,,,,,,,,,,,,,,,,,
1725715969.758054,1725715969.75869,34.0,0.0,4313.589844,4261.794922,4333.461426,4353.846191,4250.384766,4266.922852,4152.307617,4297.179688,4283.846191,4263.333496,4493.077148,4553.333496,4410.256348,4429.615234,0.0,1.0,15.0,,,,0.0,4.0,4.0,4.0,4.0,4.0,4.0,4.0,4.0,4.0,4.0,4.0,4.0,4.0,4.0,100.0,,,,,,,,,,,,,,,,,,,,,,,,,,,,,,,,,,,,,,,,,,,,,,,,,,,,,,,,,,,,,,,,,,,,,,,,,,,,,,,,,,,,,,,,,,,,,,,,,,,,,,,,,,,,,,,,,,,,,,,,,,,,,,,,,,,
1725715969.761958,1725715969.762595,35.0,0.0,4312.05127,4263.717773,4329.358887,4352.692383,4250.897461,4266.410156,4153.333496,4295.256348,4283.846191,4263.077148,4491.922852,4549.358887,4401.794922,4426.794922,0.0,1.0,15.0,,,,0.0,4.0,4.0,4.0,4.0,4.0,4.0,4.0,4.0,4.0,4.0,4.0,4.0,4.0,4.0,100.0,,,,,,,,,,,,,,,,,,,,,,,,,,,,,,,,,,,,,,,,,,,,,,,,,,,,,,,,,,,,,,,,,,,,,,,,,,,,,,,,,,,,,,,,,,,,,,,,,,,,,,,,,,,,,,,,,,,,,,,,,,,,,,,,,,,
1725715969.765862,1725715969.766399,36.0,0.0,4311.282227,4265.128418,4325.641113,4351.922852,4253.333496,4264.871582,4154.743652,4292.05127,4283.974121,4262.692383,4490.641113,4543.461426,4394.871582,4422.94873,0.0,1.0,15.0,,,,0.0,4.0,4.0,4.0,4.0,4.0,4.0,4.0,4.0,4.0,4.0,4.0,4.0,4.0,4.0,100.0,,,,,,,,,,,,,,,,,,,,,,,,,,,,,,,,,,,,,,,,,,,,,,,,,,,,,,,,10.0,0.0,64.0,0.229881,1.0,0.0,,,,,,,,,,,,,,,,,,,,,,,,,,,,,,,,,,,,,,,,,,,,,,,,,,,,,,,,,,,,,,,,,,,,,,
1725715969.769766,1725715969.770303,37.0,0.0,4311.538574,4263.077148,4324.102539,4351.538574,4256.153809,4263.333496,4154.487305,4289.743652,4284.230957,4262.94873,4490.256348,4538.974121,4392.820313,4419.230957,0.0,1.0,15.0,,,,0.0,4.0,4.0,4.0,4.0,4.0,4.0,4.0,4.0,4.0,4.0,4.0,4.0,4.0,4.0,100.0,,,,,,,,,,,,,,,,,,,,,,,,,,,,,,,,,,,,,,,,,,,,,,,,,,,,,,,,,,,,,,,,,,,,,,,,,,,,,,,,,,,,,,,,,,,,,,,,,,,,,,,,,,,,,,,,,,,,,,,,,,,,,,,,,,,
1725715969.77367,1725715969.774207,38.0,0.0,4312.436035,4257.692383,4324.743652,4351.538574,4258.077148,4262.563965,4153.077148,4289.615234,4284.230957,4263.589844,4490.512695,4537.436035,4395.0,4416.282227,0.0,1.0,15.0,,,,0.0,4.0,4.0,4.0,4.0,4.0,4.0,4.0,4.0,4.0,4.0,4.0,4.0,4.0,4.0,100.0,,,,,,,,,,,,,,,,,,,,,,,,,,,,,,,,,,,,,,,,,,,,,,,,,,,,,,,,,,,,,,,,,,,,,,,,,,,,,,,,,,,,,,,,,,,,,,,,,,,,,,,,,,,,,,,,,,,,,,,,,,,,,,,,,,,
1725715969.777574,1725715969.778211,39.0,0.0,4313.333496,4251.794922,4326.025879,4351.282227,4258.974121,4263.205078,4151.538574,4290.897461,4283.846191,4263.589844,4490.256348,4538.205078,4398.205078,4414.102539,0.0,1.0,15.0,,,,0.0,4.0,4.0,4.0,4.0,4.0,4.0,4.0,4.0,4.0,4.0,4.0,4.0,4.0,4.0,100.0,,,,,,,,,,,,,,,,,,,,,,,,,,,,,,,,,,,,,,,,,,,,,,,,,,,,,,,,,,,,,,,,,,,,,,,,,,,,,,,,,,,,,,,,,,,,,,,,,,,,,,,,,,,,,,,,,,,,,,,,,,,,,,,,,,,
1725715969.781478,1725715969.782115,40.0,0.0,4313.974121,4248.717773,4326.410156,4350.256348,4258.717773,4264.615234,4150.897461,4291.538574,4282.692383,4262.05127,4488.589844,4539.615234,4399.230957,4412.94873,0.0,1.0,15.0,,,,0.0,4.0,4.0,4.0,4.0,4.0,4.0,4.0,4.0,4.0,4.0,4.0,4.0,4.0,4.0,100.0,,,,,,,,,,,,,,,,,,,,,,,,,,,,,,,,,,,,,,,,,,,,,,,,,,,,,,,,,,,,,,,,,,,,,,,,,,,,,,,,,,,,,,,,,,,,,,,,,,,,,,,,,,,,,,,,,,,,,,,,,,,,,,,,,,,
1725715969.785382,1725715969.786019,41.0,0.0,4314.358887,4250.128418,4325.256348,4348.589844,4257.179688,4266.282227,4151.153809,4290.256348,4280.641113,4258.717773,4485.897461,4540.256348,4397.563965,4412.94873,0.0,1.0,15.0,,,,0.0,4.0,4.0,4.0,4.0,4.0,4.0,4.0,4.0,4.0,4.0,4.0,4.0,4.0,4.0,100.0,,,,,,,,,,,,,,,,,,,,,,,,,,,,,,,,,,,,,,,,,,,,,,,,,,,,,,,,,,,,,,,,,,,,,,,,,,,,,,,,,,,,,,,,,,,,,,,,,,,,,,,,,,,,,,,,,,,,,,,,,,,,,,,,,,,
1725715969.789287,1725715969.789923,42.0,0.0,4314.871582,4255.256348,4322.94873,4347.179688,4254.871582,4267.05127,4151.282227,4286.538574,4277.94873,4254.487305,4483.974121,4539.487305,4395.384766,4413.974121,0.0,1.0,15.0,,,,0.0,4.0,4.0,4.0,4.0,4.0,4.0,4.0,4.0,4.0,4.0,4.0,4.0,4.0,4.0,100.0,,,,,,,,,,,,,,,,,,,,,,,,,,,,,,,,,,,,,,,,,,,,,,,,,,,,,,,,,,,,,,,,,,,,,,,,,,,,,,,,,,,,,,,,,,,,,,,,,,,,,,,,,,,,,,,,,,,,,,,,,,,,,,,,,,,
1725715969.793191,1725715969.793827,43.0,0.0,4316.282227,4261.666504,4320.128418,4346.922852,4252.820313,4266.794922,4150.128418,4282.179688,4275.384766,4250.641113,4483.846191,4537.692383,4395.0,4415.512695,0.0,1.0,15.0,,,,0.0,4.0,4.0,4.0,4.0,4.0,4.0,4.0,4.0,4.0,4.0,4.0,4.0,4.0,4.0,100.0,,,,,,,,,,,,,,,,,,,,,,,,,,,,,,,,,,,,,,,,,,,,,,,,,,,,,,,,,,,,,,,,,,,,,,,,,,,,,,,,,,,,,,,,,,,,,,,,,,,,,,,,,,,,,,,,,,,,,,,,,,,,,,,,,,,
1725715969.797095,1725715969.797632,44.0,0.0,4318.589844,4266.538574,4317.563965,4348.461426,4251.538574,4265.512695,4147.94873,4279.358887,4273.461426,4248.461426,4485.128418,4535.641113,4396.666504,4416.794922,0.0,1.0,15.0,,,,0.0,4.0,4.0,4.0,4.0,4.0,4.0,4.0,4.0,4.0,4.0,4.0,4.0,4.0,4.0,100.0,,,,,,,,,,,,,,,,,,,,,,,,,,,,,,,,,,,,,,,,,,,,,,,,,,,,,,,,10.0,0.0,64.0,0.229881,1.0,0.0,,,,,,,,,,,,,,,,,,,,,,,,,,,,,,,,,,,,,,,,,,,,,,,,,,,,,,,,,,,,,,,,,,,,,,
1725715969.800999,1725715969.801536,45.0,0.0,4321.282227,4268.077148,4315.384766,4350.512695,4251.282227,4263.846191,4144.871582,4278.974121,4272.436035,4248.461426,4486.410156,4533.974121,4399.230957,4417.179688,0.0,1.0,15.0,,,,0.0,4.0,4.0,4.0,4.0,4.0,4.0,4.0,4.0,4.0,4.0,4.0,4.0,4.0,4.0,100.0,,,,,,,,,,,,,,,,,,,,,,,,,,,,,,,,,,,,,,,,,,,,,,,,,,,,,,,,,,,,,,,,,,,,,,,,,,,,,,,,,,,,,,,,,,,,,,,,,,,,,,,,,,,,,,,,,,,,,,,,,,,,,,,,,,,
1725715969.804903,1725715969.80544,46.0,0.0,4322.692383,4265.769043,4313.461426,4351.282227,4251.666504,4262.436035,4141.538574,4280.256348,4271.666504,4250.0,4485.769043,4532.436035,4400.512695,4416.282227,0.0,1.0,15.0,,,,0.0,4.0,4.0,4.0,4.0,4.0,4.0,4.0,4.0,4.0,4.0,4.0,4.0,4.0,4.0,100.0,,,,,,,,,,,,,,,,,,,,,,,,,,,,,,,,,,,,,,,,,,,,,,,,,,,,,,,,,,,,,,,,,,,,,,,,,,,,,,,,,,,,,,,,,,,,,,,,,,,,,,,,,,,,,,,,,,,,,,,,,,,,,,,,,,,
1725715969.808807,1725715969.809444,47.0,0.0,4321.153809,4261.282227,4311.922852,4349.487305,4252.05127,4261.666504,4138.333496,4281.410156,4270.512695,4251.282227,4482.692383,4530.384766,4399.487305,4414.487305,0.0,1.0,15.0,,,,0.0,4.0,4.0,4.0,4.0,4.0,4.0,4.0,4.0,4.0,4.0,4.0,4.0,4.0,4.0,100.0,,,,,,,,,,,,,,,,,,,,,,,,,,,,,,,,,,,,,,,,,,,,,,,,,,,,,,,,,,,,,,,,,,,,,,,,,,,,,,,,,,,,,,,,,,,,,,,,,,,,,,,,,,,,,,,,,,,,,,,,,,,,,,,,,,,
1725715969.812711,1725715969.813348,48.0,0.0,4316.794922,4256.922852,4310.769043,4345.641113,4251.794922,4261.410156,4135.897461,4281.153809,4269.102539,4250.897461,4478.205078,4527.307617,4396.922852,4412.436035,0.0,1.0,15.0,,,,0.0,4.0,4.0,4.0,4.0,4.0,4.0,4.0,4.0,4.0,4.0,4.0,4.0,4.0,4.0,100.0,,,,,,,,,,,,,,,,,,,,,,,,,,,,,,,,,,,,,,,,,,,,,,,,,,,,,,,,,,,,,,,,,,,,,,,,,,,,,,,,,,,,,,,,,,,,,,,,,,,,,,,,,,,,,,,,,,,,,,,,,,,,,,,,,,,
1725715969.816615,1725715969.817252,49.0,0.0,4311.794922,4254.615234,4310.0,4341.538574,4250.641113,4261.410156,4134.743652,4279.743652,4268.205078,4248.974121,4474.871582,4523.974121,4394.871582,4411.025879,0.0,1.0,15.0,,,,0.0,4.0,4.0,4.0,4.0,4.0,4.0,4.0,4.0,4.0,4.0,4.0,4.0,4.0,4.0,100.0,,,,,,,,,,,,,,,,,,,,,,,,,,,,,,,,,,,,,,,,,,,,,,,,,,,,,,,,,,,,,,,,,,,,,,,,,,,,,,,,,,,,,,,,,,,,,,,,,,,,,,,,,,,,,,,,,,,,,,,,,,,,,,,,,,,
1725715969.820519,1725715969.821156,50.0,0.0,4308.974121,4255.256348,4309.358887,4339.358887,4248.846191,4261.666504,4134.615234,4278.717773,4268.717773,4247.179688,4474.615234,4522.05127,4394.487305,4411.282227,0.0,1.0,15.0,,,,0.0,4.0,4.0,4.0,4.0,4.0,4.0,4.0,4.0,4.0,4.0,4.0,4.0,4.0,4.0,100.0,,,,,,,,,,,,,,,,,,,,,,,,,,,,,,,,,,,,,,,,,,,,,,,,,,,,,,,,,,,,,,,,,,,,,,,,,,,,,,,,,,,,,,,,,,,,,,,,,,,,,,,,,,,,,,,,,,,,,,,,,,,,,,,,,,,
1725715969.824423,1725715969.82516,51.0,0.0,4309.487305,4257.820313,4308.717773,4339.743652,4247.820313,4261.922852,4134.743652,4280.128418,4270.897461,4247.436035,4477.05127,4523.077148,4395.769043,4412.94873,0.0,1.0,15.0,,,,0.0,4.0,4.0,4.0,4.0,4.0,4.0,4.0,4.0,4.0,4.0,4.0,4.0,4.0,4.0,100.0,,,,,,,,,,,,,,,,,,,,,,,,,,,,,,,,,,,,,,,,,,,,,,,,,,,,,,,,,,,,,,,,,,,,,,,,,,,,,,,,,,,,,,,,,,,,,,,,,,,,,,,,,,,,,,,,,,,,,,,,,,,,,,,,,,,
1725715969.828328,1725715969.829064,52.0,0.0,4311.410156,4261.153809,4308.846191,4342.05127,4248.077148,4262.307617,4134.871582,4284.102539,4274.487305,4250.256348,4479.358887,4526.666504,4397.307617,4414.871582,0.0,1.0,15.0,,,,0.0,4.0,4.0,4.0,4.0,4.0,4.0,4.0,4.0,4.0,4.0,4.0,4.0,4.0,4.0,100.0,1.0,91.666664,4.0,4.0,4.0,4.0,4.0,4.0,3.0,4.0,4.0,4.0,4.0,4.0,4.0,4.0,1.0,0.0,0.0,,,,,,,,,,,,,,,,,,,,,,,,,,,,,,,,,,,,,10.0,0.0,64.0,0.138572,1.0,0.0,1.905916,1.173758,0.216666,0.200153,0.065035,2.344277,1.066539,0.180086,0.173351,0.046855,1.641823,0.852902,0.315105,0.24843,0.074062,1.719275,0.712355,0.311545,0.220378,0.062023,0.886218,0.567861,0.155719,0.103793,0.051885,0.271302,0.192282,0.062337,0.082723,0.04043,1.267474,0.312868,0.184977,0.11947,0.051822,1.291429,0.717974,0.272439,0.195446,0.116136,0.983757,0.963661,0.346149,0.330505,0.061511,1.773244,1.198573,0.557422,0.272764,0.107547,3.04141,1.86195,0.705366,0.373388,0.127725,1.99709,1.407311,0.516325,0.328633,0.127699,2.75779,1.492184,0.806368,0.41565,0.144761,1.83267,1.081417,0.511754,0.340629,0.067356
1725715969.832232,1725715969.832968,53.0,0.0,4311.538574,4263.717773,4310.0,4344.358887,4249.230957,4262.307617,4134.871582,4288.717773,4278.205078,4254.615234,4479.358887,4531.538574,4398.205078,4415.256348,0.0,1.0,15.0,,,,0.0,4.0,4.0,4.0,4.0,4.0,4.0,4.0,4.0,4.0,4.0,4.0,4.0,4.0,4.0,100.0,,,,,,,,,,,,,,,,,,,,,,,,,,,,,,,,,,,,,,,,,,,,,,,,,,,,,,,,,,,,,,,,,,,,,,,,,,,,,,,,,,,,,,,,,,,,,,,,,,,,,,,,,,,,,,,,,,,,,,,,,,,,,,,,,,,
1725715969.836136,1725715969.836972,54.0,0.0,4307.563965,4264.743652,4311.410156,4345.256348,4250.128418,4262.179688,4134.615234,4291.153809,4281.025879,4258.461426,4477.436035,4535.641113,4398.205078,4414.487305,0.0,1.0,15.0,,,,0.0,4.0,4.0,4.0,4.0,4.0,4.0,4.0,4.0,4.0,4.0,4.0,4.0,4.0,4.0,100.0,,,,,,,,,,,,,,,,,,,,,,,,,,,,,,,,,,,,,,,,,,,,,,,,,,,,,,,,,,,,,,,,,,,,,,,,,,,,,,,,,,,,,,,,,,,,,,,,,,,,,,,,,,,,,,,,,,,,,,,,,,,,,,,,,,,
1725715969.84004,1725715969.840876,55.0,0.0,4300.769043,4263.846191,4312.05127,4344.358887,4250.128418,4262.307617,4134.230957,4289.743652,4282.05127,4260.384766,4476.282227,4537.94873,4398.333496,4413.846191,0.0,1.0,15.0,,,,0.0,4.0,4.0,4.0,4.0,4.0,4.0,4.0,4.0,4.0,4.0,4.0,4.0,4.0,4.0,100.0,,,,,,,,,,,,,,,,,,,,,,,,,,,,,,,,,,,,,,,,,,,,,,,,,,,,,,,,,,,,,,,,,,,,,,,,,,,,,,,,,,,,,,,,,,,,,,,,,,,,,,,,,,,,,,,,,,,,,,,,,,,,,,,,,,,
1725715969.843944,1725715969.84478,56.0,0.0,4294.871582,4262.05127,4311.538574,4342.436035,4249.230957,4262.436035,4133.846191,4285.769043,4281.538574,4260.897461,4478.205078,4538.205078,4399.871582,4415.256348,0.0,1.0,15.0,,,,0.0,4.0,4.0,4.0,4.0,4.0,4.0,4.0,4.0,4.0,4.0,4.0,4.0,4.0,4.0,100.0,,,,,,,,,,,,,,,,,,,,,,,,,,,,,,,,,,,,,,,,,,,,,,,,,,,,,,,,,,,,,,,,,,,,,,,,,,,,,,,,,,,,,,,,,,,,,,,,,,,,,,,,,,,,,,,,,,,,,,,,,,,,,,,,,,,
1725715969.847848,1725715969.848685,57.0,0.0,4292.94873,4261.153809,4310.512695,4341.282227,4248.205078,4262.563965,4134.102539,4282.179688,4280.256348,4261.153809,4483.205078,4537.436035,4403.333496,4418.974121,0.0,1.0,15.0,,,,0.0,4.0,4.0,4.0,4.0,4.0,4.0,4.0,4.0,4.0,4.0,4.0,4.0,4.0,4.0,100.0,,,,,,,,,,,,,,,,,,,,,,,,,,,,,,,,,,,,,,,,,,,,,,,,,,,,,,,,,,,,,,,,,,,,,,,,,,,,,,,,,,,,,,,,,,,,,,,,,,,,,,,,,,,,,,,,,,,,,,,,,,,,,,,,,,,
1725715969.851752,1725715969.852589,58.0,0.0,4295.256348,4262.307617,4310.256348,4342.179688,4247.563965,4262.436035,4136.025879,4280.897461,4279.615234,4262.05127,4488.846191,4537.179688,4407.563965,4423.846191,0.0,1.0,15.0,,,,0.0,4.0,4.0,4.0,4.0,4.0,4.0,4.0,4.0,4.0,4.0,4.0,4.0,4.0,4.0,100.0,,,,,,,,,,,,,,,,,,,,,,,,,,,,,,,,,,,,,,,,,,,,,,,,,,,,,,,,,,,,,,,,,,,,,,,,,,,,,,,,,,,,,,,,,,,,,,,,,,,,,,,,,,,,,,,,,,,,,,,,,,,,,,,,,,,
1725715969.855656,1725715969.856393,59.0,0.0,4299.230957,4264.743652,4311.794922,4345.256348,4247.820313,4262.179688,4138.974121,4282.307617,4280.384766,4263.717773,4492.563965,4538.333496,4411.025879,4428.077148,0.0,1.0,15.0,,,,0.0,4.0,4.0,4.0,4.0,4.0,4.0,4.0,4.0,4.0,4.0,4.0,4.0,4.0,4.0,100.0,,,,,,,,,,,,,,,,,,,,,,,,,,,,,,,,,,,,,,,,,,,,,,,,,,,,,,,,,,,,,,,,,,,,,,,,,,,,,,,,,,,,,,,,,,,,,,,,,,,,,,,,,,,,,,,,,,,,,,,,,,,,,,,,,,,
1725715969.85956,1725715969.860297,60.0,0.0,4301.922852,4266.922852,4315.0,4348.846191,4249.230957,4262.179688,4141.282227,4285.256348,4281.922852,4265.128418,4493.717773,4540.384766,4412.692383,4430.512695,0.0,1.0,15.0,,,,0.0,4.0,4.0,4.0,4.0,4.0,4.0,4.0,4.0,4.0,4.0,4.0,4.0,4.0,4.0,100.0,,,,,,,,,,,,,,,,,,,,,,,,,,,,,,,,,,,,,,,,,,,,,,,,,,,,,,,,10.0,0.0,64.0,0.138572,1.0,0.0,,,,,,,,,,,,,,,,,,,,,,,,,,,,,,,,,,,,,,,,,,,,,,,,,,,,,,,,,,,,,,,,,,,,,,
1725715969.863464,1725715969.864201,61.0,0.0,4301.410156,4267.820313,4318.974121,4350.897461,4251.282227,4262.692383,4141.794922,4287.94873,4283.205078,4265.769043,4492.692383,4542.05127,4412.307617,4430.769043,0.0,1.0,15.0,,,,0.0,4.0,4.0,4.0,4.0,4.0,4.0,4.0,4.0,4.0,4.0,4.0,4.0,4.0,4.0,100.0,,,,,,,,,,,,,,,,,,,,,,,,,,,,,,,,,,,,,,,,,,,,,,,,,,,,,,,,,,,,,,,,,,,,,,,,,,,,,,,,,,,,,,,,,,,,,,,,,,,,,,,,,,,,,,,,,,,,,,,,,,,,,,,,,,,
1725715969.867369,1725715969.868105,62.0,0.0,4298.333496,4267.179688,4322.179688,4350.384766,4252.563965,4263.846191,4141.282227,4289.487305,4283.205078,4264.871582,4491.410156,4542.179688,4411.410156,4429.871582,0.0,1.0,15.0,,,,0.0,4.0,4.0,4.0,4.0,4.0,4.0,4.0,4.0,4.0,4.0,4.0,4.0,4.0,4.0,100.0,,,,,,,,,,,,,,,,,,,,,,,,,,,,,,,,,,,,,,,,,,,,,,,,,,,,,,,,,,,,,,,,,,,,,,,,,,,,,,,,,,,,,,,,,,,,,,,,,,,,,,,,,,,,,,,,,,,,,,,,,,,,,,,,,,,
1725715969.871273,1725715969.871909,63.0,0.0,4294.871582,4265.384766,4323.205078,4347.820313,4252.307617,4265.256348,4140.897461,4290.512695,4282.436035,4263.589844,4491.025879,4541.025879,4411.282227,4429.102539,0.0,1.0,15.0,,,,0.0,4.0,4.0,4.0,4.0,4.0,4.0,4.0,4.0,4.0,4.0,4.0,4.0,4.0,4.0,100.0,,,,,,,,,,,,,,,,,,,,,,,,,,,,,,,,,,,,,,,,,,,,,,,,,,,,,,,,,,,,,,,,,,,,,,,,,,,,,,,,,,,,,,,,,,,,,,,,,,,,,,,,,,,,,,,,,,,,,,,,,,,,,,,,,,,
1725715969.875177,1725715969.875814,64.0,0.0,4293.461426,4262.94873,4321.666504,4344.871582,4250.897461,4266.282227,4142.179688,4291.666504,4281.794922,4262.94873,4492.05127,4539.871582,4412.692383,4428.846191,0.0,1.0,15.0,,,,0.0,4.0,4.0,4.0,4.0,4.0,4.0,4.0,4.0,4.0,4.0,4.0,4.0,4.0,4.0,100.0,,,,,,,,,,,,,,,,,,,,,,,,,,,,,,,,,,,,,,,,,,,,,,,,,,,,,,,,,,,,,,,,,,,,,,,,,,,,,,,,,,,,,,,,,,,,,,,,,,,,,,,,,,,,,,,,,,,,,,,,,,,,,,,,,,,
1725715969.879081,1725715969.879718,65.0,0.0,4294.743652,4260.512695,4318.333496,4342.820313,4249.487305,4266.410156,4145.128418,4293.461426,4281.922852,4263.333496,4493.461426,4539.615234,4414.743652,4428.589844,0.0,1.0,15.0,,,,0.0,4.0,4.0,4.0,4.0,4.0,4.0,4.0,4.0,4.0,4.0,4.0,4.0,4.0,4.0,100.0,,,,,,,,,,,,,,,,,,,,,,,,,,,,,,,,,,,,,,,,,,,,,,,,,,,,,,,,,,,,,,,,,,,,,,,,,,,,,,,,,,,,,,,,,,,,,,,,,,,,,,,,,,,,,,,,,,,,,,,,,,,,,,,,,,,
1725715969.882985,1725715969.883722,66.0,0.0,4297.05127,4258.846191,4314.871582,4342.05127,4248.846191,4265.512695,4148.717773,4295.512695,4282.436035,4264.358887,4494.102539,4540.384766,4415.512695,4426.922852,0.0,1.0,15.0,,,,0.0,4.0,4.0,4.0,4.0,4.0,4.0,4.0,4.0,4.0,4.0,4.0,4.0,4.0,4.0,100.0,,,,,,,,,,,,,,,,,,,,,,,,,,,,,,,,,,,,,,,,,,,,,,,,,,,,,,,,,,,,,,,,,,,,,,,,,,,,,,,,,,,,,,,,,,,,,,,,,,,,,,,,,,,,,,,,,,,,,,,,,,,,,,,,,,,
1725715969.886889,1725715969.887626,67.0,0.0,4297.307617,4258.717773,4312.820313,4342.05127,4248.846191,4263.846191,4151.282227,4297.05127,4282.820313,4265.512695,4493.846191,4541.025879,4414.230957,4423.589844,0.0,1.0,15.0,,,,0.0,4.0,4.0,4.0,4.0,4.0,4.0,4.0,4.0,4.0,4.0,4.0,4.0,4.0,4.0,100.0,,,,,,,,,,,,,,,,,,,,,,,,,,,,,,,,,,,,,,,,,,,,,,,,,,,,,,,,,,,,,,,,,,,,,,,,,,,,,,,,,,,,,,,,,,,,,,,,,,,,,,,,,,,,,,,,,,,,,,,,,,,,,,,,,,,
1725715969.890793,1725715969.89153,68.0,0.0,4293.974121,4259.487305,4312.436035,4342.307617,4248.717773,4261.794922,4152.307617,4297.692383,4282.820313,4266.410156,4493.589844,4541.153809,4411.922852,4419.871582,0.0,1.0,15.0,,,,0.0,4.0,4.0,4.0,4.0,4.0,4.0,4.0,4.0,4.0,4.0,4.0,4.0,4.0,4.0,100.0,,,,,,,,,,,,,,,,,,,,,,,,,,,,,,,,,,,,,,,,,,,,,,,,,,,,,,,,0.0,0.0,64.0,0.138572,1.0,0.0,,,,,,,,,,,,,,,,,,,,,,,,,,,,,,,,,,,,,,,,,,,,,,,,,,,,,,,,,,,,,,,,,,,,,,
1725715969.894697,1725715969.895434,69.0,0.0,4288.461426,4259.615234,4312.179688,4342.692383,4247.94873,4260.641113,4152.307617,4297.436035,4282.820313,4267.179688,4493.846191,4540.897461,4410.0,4417.436035,0.0,1.0,15.0,,,,0.0,4.0,4.0,4.0,4.0,4.0,4.0,4.0,4.0,4.0,4.0,4.0,4.0,4.0,4.0,100.0,,,,,,,,,,,,,,,,,,,,,,,,,,,,,,,,,,,,,,,,,,,,,,,,,,,,,,,,,,,,,,,,,,,,,,,,,,,,,,,,,,,,,,,,,,,,,,,,,,,,,,,,,,,,,,,,,,,,,,,,,,,,,,,,,,,
1725715969.898601,1725715969.899338,70.0,0.0,4283.717773,4257.692383,4310.384766,4342.820313,4247.179688,4260.897461,4151.794922,4296.025879,4283.077148,4266.922852,4493.717773,4539.615234,4408.589844,4416.410156,0.0,1.0,15.0,,,,0.0,4.0,4.0,4.0,4.0,4.0,4.0,4.0,4.0,4.0,4.0,4.0,4.0,4.0,4.0,100.0,,,,,,,,,,,,,,,,,,,,,,,,,,,,,,,,,,,,,,,,,,,,,,,,,,,,,,,,,,,,,,,,,,,,,,,,,,,,,,,,,,,,,,,,,,,,,,,,,,,,,,,,,,,,,,,,,,,,,,,,,,,,,,,,,,,
1725715969.902506,1725715969.903142,71.0,0.0,4281.282227,4254.230957,4307.05127,4341.922852,4246.922852,4262.05127,4151.282227,4293.589844,4283.077148,4264.743652,4491.922852,4536.025879,4407.179688,4415.384766,0.0,1.0,15.0,,,,0.0,4.0,4.0,4.0,4.0,4.0,4.0,4.0,4.0,4.0,4.0,4.0,4.0,4.0,4.0,100.0,,,,,,,,,,,,,,,,,,,,,,,,,,,,,,,,,,,,,,,,,,,,,,,,,,,,,,,,,,,,,,,,,,,,,,,,,,,,,,,,,,,,,,,,,,,,,,,,,,,,,,,,,,,,,,,,,,,,,,,,,,,,,,,,,,,
1725715969.90641,1725715969.907046,72.0,0.0,4280.641113,4251.025879,4303.205078,4339.487305,4246.666504,4262.820313,4150.641113,4290.256348,4282.05127,4260.512695,4487.820313,4530.128418,4404.230957,4412.436035,0.0,1.0,15.0,,,,0.0,4.0,4.0,4.0,4.0,4.0,4.0,4.0,4.0,4.0,4.0,4.0,4.0,4.0,4.0,100.0,,,,,,,,,,,,,,,,,,,,,,,,,,,,,,,,,,,,,,,,,,,,,,,,,,,,,,,,,,,,,,,,,,,,,,,,,,,,,,,,,,,,,,,,,,,,,,,,,,,,,,,,,,,,,,,,,,,,,,,,,,,,,,,,,,,
1725715969.910314,1725715969.91095,73.0,0.0,4279.487305,4249.743652,4299.743652,4335.897461,4245.512695,4262.179688,4149.358887,4286.025879,4279.102539,4255.384766,4482.05127,4522.436035,4399.487305,4407.307617,0.0,1.0,15.0,,,,0.0,4.0,4.0,4.0,4.0,4.0,4.0,4.0,4.0,4.0,4.0,4.0,4.0,4.0,4.0,100.0,,,,,,,,,,,,,,,,,,,,,,,,,,,,,,,,,,,,,,,,,,,,,,,,,,,,,,,,,,,,,,,,,,,,,,,,,,,,,,,,,,,,,,,,,,,,,,,,,,,,,,,,,,,,,,,,,,,,,,,,,,,,,,,,,,,
1725715969.914218,1725715969.914954,74.0,0.0,4276.666504,4249.871582,4296.794922,4332.05127,4242.692383,4259.743652,4147.94873,4282.179688,4274.102539,4250.897461,4475.769043,4515.0,4393.461426,4401.410156,0.0,1.0,15.0,,,,0.0,4.0,4.0,4.0,4.0,4.0,4.0,4.0,4.0,4.0,4.0,4.0,4.0,4.0,4.0,100.0,,,,,,,,,,,,,,,,,,,,,,,,,,,,,,,,,,,,,,,,,,,,,,,,,,,,,,,,,,,,,,,,,,,,,,,,,,,,,,,,,,,,,,,,,,,,,,,,,,,,,,,,,,,,,,,,,,,,,,,,,,,,,,,,,,,
1725715969.918122,1725715969.918859,75.0,0.0,4272.436035,4249.487305,4293.461426,4328.589844,4238.205078,4256.282227,4146.153809,4280.0,4268.589844,4247.563965,4469.358887,4508.846191,4386.794922,4395.897461,0.0,1.0,15.0,,,,0.0,4.0,4.0,4.0,4.0,4.0,4.0,4.0,4.0,4.0,4.0,4.0,4.0,4.0,4.0,100.0,,,,,,,,,,,,,,,,,,,,,,,,,,,,,,,,,,,,,,,,,,,,,,,,,,,,,,,,,,,,,,,,,,,,,,,,,,,,,,,,,,,,,,,,,,,,,,,,,,,,,,,,,,,,,,,,,,,,,,,,,,,,,,,,,,,
1725715969.922026,1725715969.922763,76.0,0.0,4268.077148,4246.666504,4289.358887,4325.512695,4233.461426,4252.692383,4143.846191,4279.615234,4264.102539,4243.717773,4462.307617,4504.102539,4379.102539,4391.025879,0.0,1.0,15.0,,,,0.0,4.0,4.0,4.0,4.0,4.0,4.0,4.0,4.0,4.0,4.0,4.0,4.0,4.0,4.0,100.0,,,,,,,,,,,,,,,,,,,,,,,,,,,,,,,,,,,,,,,,,,,,,,,,,,,,,,,,0.0,0.0,64.0,0.138572,1.0,0.0,,,,,,,,,,,,,,,,,,,,,,,,,,,,,,,,,,,,,,,,,,,,,,,,,,,,,,,,,,,,,,,,,,,,,,
1725715969.92593,1725715969.926667,77.0,0.0,4264.230957,4241.153809,4284.230957,4322.436035,4230.512695,4249.871582,4141.538574,4280.0,4261.922852,4237.692383,4454.358887,4499.615234,4369.487305,4385.769043,0.0,1.0,15.0,,,,0.0,4.0,4.0,4.0,4.0,4.0,4.0,4.0,4.0,4.0,4.0,4.0,4.0,4.0,4.0,100.0,,,,,,,,,,,,,,,,,,,,,,,,,,,,,,,,,,,,,,,,,,,,,,,,,,,,,,,,,,,,,,,,,,,,,,,,,,,,,,,,,,,,,,,,,,,,,,,,,,,,,,,,,,,,,,,,,,,,,,,,,,,,,,,,,,,
1725715969.929834,1725715969.930671,78.0,0.0,4260.769043,4234.487305,4278.974121,4319.230957,4230.256348,4248.974121,4140.0,4279.230957,4261.025879,4229.230957,4446.410156,4494.743652,4358.205078,4379.230957,0.0,1.0,15.0,,,,0.0,4.0,4.0,4.0,4.0,4.0,4.0,4.0,4.0,4.0,4.0,4.0,4.0,4.0,4.0,100.0,,,,,,,,,,,,,,,,,,,,,,,,,,,,,,,,,,,,,,,,,,,,,,,,,,,,,,,,,,,,,,,,,,,,,,,,,,,,,,,,,,,,,,,,,,,,,,,,,,,,,,,,,,,,,,,,,,,,,,,,,,,,,,,,,,,
1725715969.933738,1725715969.934575,79.0,0.0,4257.179688,4228.461426,4274.871582,4316.153809,4231.282227,4249.743652,4140.256348,4277.307617,4260.641113,4220.512695,4440.0,4489.743652,4347.94873,4372.179688,0.0,1.0,15.0,,,,0.0,4.0,4.0,4.0,4.0,4.0,4.0,4.0,4.0,4.0,4.0,4.0,4.0,4.0,4.0,100.0,,,,,,,,,,,,,,,,,,,,,,,,,,,,,,,,,,,,,,,,,,,,,,,,,,,,,,,,,,,,,,,,,,,,,,,,,,,,,,,,,,,,,,,,,,,,,,,,,,,,,,,,,,,,,,,,,,,,,,,,,,,,,,,,,,,
1725715969.937642,1725715969.938479,80.0,0.0,4253.461426,4224.871582,4273.589844,4314.230957,4231.666504,4251.922852,4142.179688,4275.384766,4260.256348,4215.384766,4436.538574,4485.897461,4342.307617,4367.307617,0.0,1.0,15.0,,,,0.0,4.0,4.0,4.0,4.0,4.0,4.0,4.0,4.0,4.0,4.0,4.0,4.0,4.0,4.0,100.0,,,,,,,,,,,,,,,,,,,,,,,,,,,,,,,,,,,,,,,,,,,,,,,,,,,,,,,,,,,,,,,,,,,,,,,,,,,,,,,,,,,,,,,,,,,,,,,,,,,,,,,,,,,,,,,,,,,,,,,,,,,,,,,,,,,
1725715969.941547,1725715969.942483,81.0,0.0,4251.025879,4224.230957,4275.641113,4314.743652,4230.384766,4254.743652,4144.871582,4275.512695,4260.897461,4216.922852,4437.05127,4485.769043,4344.615234,4367.94873,0.0,1.0,15.0,,,,0.0,4.0,4.0,4.0,4.0,4.0,4.0,4.0,4.0,4.0,4.0,4.0,4.0,4.0,4.0,100.0,,,,,,,,,,,,,,,,,,,,,,,,,,,,,,,,,,,,,,,,,,,,,,,,,,,,,,,,,,,,,,,,,,,,,,,,,,,,,,,,,,,,,,,,,,,,,,,,,,,,,,,,,,,,,,,,,,,,,,,,,,,,,,,,,,,
1725715969.945451,1725715969.946387,82.0,0.0,4251.538574,4226.410156,4280.256348,4318.974121,4229.230957,4257.563965,4147.179688,4278.589844,4264.230957,4225.897461,4441.666504,4491.153809,4354.743652,4375.384766,0.0,1.0,15.0,,,,0.0,4.0,4.0,4.0,4.0,4.0,4.0,4.0,4.0,4.0,4.0,4.0,4.0,4.0,4.0,100.0,,,,,,,,,,,,,,,,,,,,,,,,,,,,,,,,,,,,,,,,,,,,,,,,,,,,,,,,,,,,,,,,,,,,,,,,,,,,,,,,,,,,,,,,,,,,,,,,,,,,,,,,,,,,,,,,,,,,,,,,,,,,,,,,,,,
1725715969.949355,1725715969.950291,83.0,0.0,4256.794922,4230.897461,4286.538574,4325.897461,4230.384766,4260.256348,4148.589844,4283.974121,4271.153809,4239.615234,4449.871582,4501.666504,4369.487305,4387.563965,0.0,1.0,15.0,,,,0.0,4.0,4.0,4.0,4.0,4.0,4.0,4.0,4.0,4.0,4.0,4.0,4.0,4.0,4.0,100.0,,,,,,,,,,,,,,,,,,,,,,,,,,,,,,,,,,,,,,,,,,,,,,,,,,,,,,,,,,,,,,,,,,,,,,,,,,,,,,,,,,,,,,,,,,,,,,,,,,,,,,,,,,,,,,,,,,,,,,,,,,,,,,,,,,,
1725715969.953259,1725715969.954195,84.0,0.0,4265.769043,4237.563965,4293.333496,4333.717773,4235.0,4262.436035,4150.256348,4289.871582,4281.025879,4253.589844,4460.769043,4515.256348,4383.589844,4400.641113,0.0,1.0,15.0,,,,0.0,4.0,4.0,4.0,4.0,4.0,4.0,4.0,4.0,4.0,4.0,4.0,4.0,4.0,4.0,100.0,,,,,,,,,,,,,,,,,1.0,0.0,0.0,,,,,,,,,,,,,,,,,,,,,,,,,,,,,,,,,,,,,0.0,0.0,64.0,0.075557,1.0,0.0,2.287231,1.294353,0.223279,0.229299,0.060064,2.560197,1.127729,0.193465,0.212624,0.051776,1.575934,0.914071,0.314349,0.272111,0.077051,1.904636,0.66674,0.291957,0.238804,0.05862,0.987346,0.587578,0.176492,0.113569,0.055965,0.24846,0.178695,0.071186,0.092528,0.043845,1.329617,0.328987,0.17322,0.121488,0.058132,1.138966,0.684841,0.292283,0.199645,0.10121,0.995859,1.046848,0.376691,0.349176,0.063408,1.690759,1.290684,0.649368,0.289117,0.100359,3.054608,2.015113,0.703495,0.382635,0.152155,2.034781,1.438027,0.486734,0.345585,0.12975,2.877752,1.602998,0.905509,0.434305,0.169655,1.952764,1.162663,0.495501,0.362576,0.077438
1725715969.957163,1725715969.958099,85.0,0.0,4275.384766,4245.256348,4299.743652,4340.0,4241.922852,4264.230957,4153.717773,4294.102539,4290.384766,4263.461426,4472.94873,4528.205078,4393.077148,4411.153809,0.0,1.0,15.0,,,,0.0,4.0,4.0,4.0,4.0,4.0,4.0,4.0,4.0,4.0,4.0,4.0,4.0,4.0,4.0,100.0,,,,,,,,,,,,,,,,,,,,,,,,,,,,,,,,,,,,,,,,,,,,,,,,,,,,,,,,,,,,,,,,,,,,,,,,,,,,,,,,,,,,,,,,,,,,,,,,,,,,,,,,,,,,,,,,,,,,,,,,,,,,,,,,,,,
1725715969.961067,1725715969.961904,86.0,0.0,4281.794922,4252.436035,4305.384766,4344.230957,4248.077148,4265.256348,4159.230957,4295.897461,4295.769043,4267.563965,4484.487305,4537.820313,4397.820313,4417.94873,0.0,1.0,15.0,,,,0.0,4.0,4.0,4.0,4.0,4.0,4.0,4.0,4.0,4.0,4.0,4.0,4.0,4.0,4.0,100.0,,,,,,,,,,,,,,,,,,,,,,,,,,,,,,,,,,,,,,,,,,,,,,,,,,,,,,,,,,,,,,,,,,,,,,,,,,,,,,,,,,,,,,,,,,,,,,,,,,,,,,,,,,,,,,,,,,,,,,,,,,,,,,,,,,,
1725715969.964971,1725715969.965808,87.0,0.0,4283.589844,4257.179688,4309.615234,4347.179688,4251.025879,4265.641113,4165.384766,4296.282227,4295.769043,4267.692383,4493.205078,4542.820313,4399.871582,4422.307617,0.0,1.0,15.0,,,,0.0,4.0,4.0,4.0,4.0,4.0,4.0,4.0,4.0,4.0,4.0,4.0,4.0,4.0,4.0,100.0,,,,,,,,,,,,,,,,,,,,,,,,,,,,,,,,,,,,,,,,,,,,,,,,,,,,,,,,,,,,,,,,,,,,,,,,,,,,,,,,,,,,,,,,,,,,,,,,,,,,,,,,,,,,,,,,,,,,,,,,,,,,,,,,,,,
1725715969.968875,1725715969.969712,88.0,0.0,4281.922852,4259.102539,4312.563965,4349.358887,4250.769043,4265.769043,4169.871582,4296.282227,4291.538574,4266.410156,4496.794922,4544.358887,4401.282227,4425.897461,0.0,1.0,15.0,,,,0.0,4.0,4.0,4.0,4.0,4.0,4.0,4.0,4.0,4.0,4.0,4.0,4.0,4.0,4.0,100.0,,,,,,,,,,,,,,,,,,,,,,,,,,,,,,,,,,,,,,,,,,,,,,,,,,,,,,,,,,,,,,,,,,,,,,,,,,,,,,,,,,,,,,,,,,,,,,,,,,,,,,,,,,,,,,,,,,,,,,,,,,,,,,,,,,,
1725715969.972779,1725715969.973616,89.0,0.0,4279.871582,4259.615234,4314.102539,4349.743652,4249.230957,4266.025879,4170.769043,4296.282227,4286.410156,4265.256348,4494.871582,4544.230957,4402.436035,4428.717773,0.0,1.0,15.0,,,,0.0,4.0,4.0,4.0,4.0,4.0,4.0,4.0,4.0,4.0,4.0,4.0,4.0,4.0,4.0,100.0,,,,,,,,,,,,,,,,,,,,,,,,,,,,,,,,,,,,,,,,,,,,,,,,,,,,,,,,,,,,,,,,,,,,,,,,,,,,,,,,,,,,,,,,,,,,,,,,,,,,,,,,,,,,,,,,,,,,,,,,,,,,,,,,,,,
1725715969.976683,1725715969.97742,90.0,0.0,4279.743652,4260.256348,4313.846191,4346.153809,4247.94873,4265.897461,4169.230957,4295.384766,4282.307617,4263.846191,4489.230957,4543.717773,4402.307617,4429.615234,0.0,1.0,15.0,,,,0.0,4.0,4.0,4.0,4.0,4.0,4.0,4.0,4.0,4.0,4.0,4.0,4.0,4.0,4.0,100.0,,,,,,,,,,,,,,,,,,,,,,,,,,,,,,,,,,,,,,,,,,,,,,,,,,,,,,,,,,,,,,,,,,,,,,,,,,,,,,,,,,,,,,,,,,,,,,,,,,,,,,,,,,,,,,,,,,,,,,,,,,,,,,,,,,,
1725715969.980587,1725715969.981324,91.0,0.0,4281.922852,4262.179688,4310.769043,4337.436035,4247.436035,4265.384766,4167.94873,4292.692383,4279.487305,4261.794922,4482.94873,4542.692383,4400.0,4427.307617,0.0,1.0,15.0,,,,0.0,4.0,4.0,4.0,4.0,4.0,4.0,4.0,4.0,4.0,4.0,4.0,4.0,4.0,4.0,100.0,,,,,,,,,,,,,,,,,,,,,,,,,,,,,,,,,,,,,,,,,,,,,,,,,,,,,,,,,,,,,,,,,,,,,,,,,,,,,,,,,,,,,,,,,,,,,,,,,,,,,,,,,,,,,,,,,,,,,,,,,,,,,,,,,,,
1725715969.984491,1725715969.985228,92.0,0.0,4285.769043,4264.615234,4303.974121,4325.0,4247.05127,4264.743652,4170.384766,4288.461426,4276.794922,4258.461426,4478.717773,4540.769043,4396.282227,4422.436035,0.0,1.0,15.0,,,,0.0,4.0,4.0,4.0,4.0,4.0,4.0,4.0,4.0,4.0,4.0,4.0,4.0,4.0,4.0,100.0,,,,,,,,,,,,,,,,,,,,,,,,,,,,,,,,,,,,,,,,,,,,,,,,,,,,,,,,0.0,0.0,64.0,0.075557,1.0,0.0,,,,,,,,,,,,,,,,,,,,,,,,,,,,,,,,,,,,,,,,,,,,,,,,,,,,,,,,,,,,,,,,,,,,,,
1725715969.988396,1725715969.989232,93.0,0.0,4290.0,4266.282227,4293.333496,4312.307617,4246.282227,4265.384766,4177.563965,4283.461426,4273.589844,4253.974121,4476.794922,4537.179688,4392.05127,4416.922852,0.0,1.0,15.0,,,,0.0,4.0,4.0,4.0,4.0,4.0,4.0,4.0,4.0,4.0,4.0,4.0,4.0,4.0,4.0,100.0,,,,,,,,,,,,,,,,,,,,,,,,,,,,,,,,,,,,,,,,,,,,,,,,,,,,,,,,,,,,,,,,,,,,,,,,,,,,,,,,,,,,,,,,,,,,,,,,,,,,,,,,,,,,,,,,,,,,,,,,,,,,,,,,,,,
1725715969.9923,1725715969.993136,94.0,0.0,4293.333496,4266.153809,4281.025879,4302.436035,4245.512695,4267.307617,4186.922852,4279.487305,4270.0,4249.230957,4476.153809,4532.307617,4388.589844,4413.077148,0.0,1.0,15.0,,,,0.0,4.0,4.0,4.0,4.0,4.0,4.0,4.0,4.0,4.0,4.0,4.0,4.0,4.0,4.0,100.0,,,,,,,,,,,,,,,,,,,,,,,,,,,,,,,,,,,,,,,,,,,,,,,,,,,,,,,,,,,,,,,,,,,,,,,,,,,,,,,,,,,,,,,,,,,,,,,,,,,,,,,,,,,,,,,,,,,,,,,,,,,,,,,,,,,
1725715969.996204,1725715969.997041,95.0,0.0,4294.487305,4264.615234,4270.256348,4296.794922,4245.384766,4269.871582,4194.615234,4277.692383,4266.922852,4245.512695,4475.128418,4527.436035,4386.666504,4412.436035,0.0,1.0,15.0,,,,0.0,4.0,4.0,4.0,4.0,4.0,4.0,4.0,4.0,4.0,4.0,4.0,4.0,4.0,4.0,100.0,,,,,,,,,,,,,,,,,,,,,,,,,,,,,,,,,,,,,,,,,,,,,,,,,,,,,,,,,,,,,,,,,,,,,,,,,,,,,,,,,,,,,,,,,,,,,,,,,,,,,,,,,,,,,,,,,,,,,,,,,,,,,,,,,,,
1725715970.000108,1725715970.000945,96.0,0.0,4293.461426,4263.077148,4263.717773,4295.0,4246.153809,4271.538574,4198.846191,4278.077148,4264.743652,4243.974121,4473.461426,4524.230957,4386.025879,4414.102539,0.0,1.0,15.0,,,,0.0,4.0,4.0,4.0,4.0,4.0,4.0,4.0,4.0,4.0,4.0,4.0,4.0,4.0,4.0,100.0,,,,,,,,,,,,,,,,,,,,,,,,,,,,,,,,,,,,,,,,,,,,,,,,,,,,,,,,,,,,,,,,,,,,,,,,,,,,,,,,,,,,,,,,,,,,,,,,,,,,,,,,,,,,,,,,,,,,,,,,,,,,,,,,,,,
1725715970.004012,1725715970.004849,97.0,0.0,4292.05127,4262.563965,4262.307617,4295.512695,4247.563965,4271.538574,4200.897461,4278.974121,4263.717773,4244.743652,4471.922852,4523.461426,4386.282227,4416.153809,0.0,1.0,15.0,,,,0.0,4.0,4.0,4.0,4.0,4.0,4.0,4.0,4.0,4.0,4.0,4.0,4.0,4.0,4.0,100.0,,,,,,,,,,,,,,,,,,,,,,,,,,,,,,,,,,,,,,,,,,,,,,,,,,,,,,,,,,,,,,,,,,,,,,,,,,,,,,,,,,,,,,,,,,,,,,,,,,,,,,,,,,,,,,,,,,,,,,,,,,,,,,,,,,,
1725715970.007916,1725715970.008653,98.0,0.0,4292.179688,4263.461426,4264.230957,4296.794922,4248.846191,4270.128418,4203.461426,4278.974121,4263.974121,4246.538574,4471.410156,4524.102539,4387.05127,4415.897461,0.0,1.0,15.0,,,,0.0,4.0,4.0,4.0,4.0,4.0,4.0,4.0,4.0,4.0,4.0,4.0,4.0,4.0,4.0,100.0,,,,,,,,,,,,,,,,,,,,,,,,,,,,,,,,,,,,,,,,,,,,,,,,,,,,,,,,,,,,,,,,,,,,,,,,,,,,,,,,,,,,,,,,,,,,,,,,,,,,,,,,,,,,,,,,,,,,,,,,,,,,,,,,,,,
1725715970.01182,1725715970.012557,99.0,0.0,4294.102539,4264.871582,4266.538574,4297.692383,4249.230957,4268.205078,4207.94873,4277.563965,4264.615234,4247.820313,4472.179688,4524.615234,4387.436035,4412.94873,0.0,1.0,15.0,,,,0.0,4.0,4.0,4.0,4.0,4.0,4.0,4.0,4.0,4.0,4.0,4.0,4.0,4.0,4.0,100.0,,,,,,,,,,,,,,,,,,,,,,,,,,,,,,,,,,,,,,,,,,,,,,,,,,,,,,,,,,,,,,,,,,,,,,,,,,,,,,,,,,,,,,,,,,,,,,,,,,,,,,,,,,,,,,,,,,,,,,,,,,,,,,,,,,,
1725715970.015724,1725715970.016461,100.0,0.0,4295.897461,4265.769043,4266.666504,4298.461426,4248.589844,4266.794922,4213.205078,4275.769043,4265.0,4247.692383,4473.589844,4524.358887,4386.794922,4408.461426,0.0,1.0,15.0,,,,0.0,4.0,4.0,4.0,4.0,4.0,4.0,4.0,4.0,4.0,4.0,4.0,4.0,4.0,4.0,100.0,,,,,,,,,,,,,,,,,,,,,,,,,,,,,,,,,,,,,,,,,,,,,,,,,,,,,,,,0.0,0.0,64.0,0.075557,1.0,0.0,,,,,,,,,,,,,,,,,,,,,,,,,,,,,,,,,,,,,,,,,,,,,,,,,,,,,,,,,,,,,,,,,,,,,,
1725715970.019628,1725715970.020465,101.0,0.0,4295.0,4265.0,4264.358887,4299.871582,4247.692383,4266.666504,4216.922852,4275.512695,4264.615234,4246.666504,4474.487305,4523.589844,4385.384766,4404.743652,0.0,1.0,15.0,,,,0.0,4.0,4.0,4.0,4.0,4.0,4.0,4.0,4.0,4.0,4.0,4.0,4.0,4.0,4.0,100.0,,,,,,,,,,,,,,,,,,,,,,,,,,,,,,,,,,,,,,,,,,,,,,,,,,,,,,,,,,,,,,,,,,,,,,,,,,,,,,,,,,,,,,,,,,,,,,,,,,,,,,,,,,,,,,,,,,,,,,,,,,,,,,,,,,,
1725715970.023533,1725715970.024369,102.0,0.0,4291.025879,4262.692383,4261.153809,4302.179688,4247.563965,4267.436035,4218.205078,4277.05127,4264.102539,4245.897461,4474.102539,4522.563965,4383.974121,4402.436035,0.0,1.0,15.0,,,,0.0,4.0,4.0,4.0,4.0,4.0,4.0,4.0,4.0,4.0,4.0,4.0,4.0,4.0,4.0,100.0,,,,,,,,,,,,,,,,,,,,,,,,,,,,,,,,,,,,,,,,,,,,,,,,,,,,,,,,,,,,,,,,,,,,,,,,,,,,,,,,,,,,,,,,,,,,,,,,,,,,,,,,,,,,,,,,,,,,,,,,,,,,,,,,,,,
1725715970.027437,1725715970.028273,103.0,0.0,4285.512695,4260.256348,4259.230957,4304.615234,4248.205078,4267.94873,4217.692383,4279.743652,4264.743652,4246.153809,4472.307617,4521.538574,4383.717773,4402.05127,0.0,1.0,15.0,,,,0.0,4.0,4.0,4.0,4.0,4.0,4.0,4.0,4.0,4.0,4.0,4.0,4.0,4.0,4.0,100.0,,,,,,,,,,,,,,,,,,,,,,,,,,,,,,,,,,,,,,,,,,,,,,,,,,,,,,,,,,,,,,,,,,,,,,,,,,,,,,,,,,,,,,,,,,,,,,,,,,,,,,,,,,,,,,,,,,,,,,,,,,,,,,,,,,,
1725715970.031341,1725715970.032177,104.0,0.0,4281.153809,4259.743652,4259.102539,4306.153809,4248.846191,4267.307617,4217.05127,4281.666504,4267.05127,4247.436035,4470.769043,4521.153809,4384.487305,4403.205078,0.0,1.0,15.0,,,,0.0,4.0,4.0,4.0,4.0,4.0,4.0,4.0,4.0,4.0,4.0,4.0,4.0,4.0,4.0,100.0,,,,,,,,,,,,,,,,,,,,,,,,,,,,,,,,,,,,,,,,,,,,,,,,,,,,,,,,,,,,,,,,,,,,,,,,,,,,,,,,,,,,,,,,,,,,,,,,,,,,,,,,,,,,,,,,,,,,,,,,,,,,,,,,,,,
1725715970.035245,1725715970.035982,105.0,0.0,4279.871582,4261.538574,4259.743652,4306.153809,4249.230957,4265.769043,4217.179688,4282.05127,4270.0,4249.102539,4471.025879,4522.05127,4385.256348,4405.256348,0.0,1.0,15.0,,,,0.0,4.0,4.0,4.0,4.0,4.0,4.0,4.0,4.0,4.0,4.0,4.0,4.0,4.0,4.0,100.0,,,,,,,,,,,,,,,,,,,,,,,,,,,,,,,,,,,,,,,,,,,,,,,,,,,,,,,,,,,,,,,,,,,,,,,,,,,,,,,,,,,,,,,,,,,,,,,,,,,,,,,,,,,,,,,,,,,,,,,,,,,,,,,,,,,
1725715970.039149,1725715970.039886,106.0,0.0,4281.153809,4263.589844,4259.102539,4305.384766,4248.974121,4264.102539,4218.461426,4281.410156,4272.179688,4250.384766,4473.205078,4523.974121,4385.512695,4406.922852,0.0,1.0,15.0,,,,0.0,4.0,4.0,4.0,4.0,4.0,4.0,4.0,4.0,4.0,4.0,4.0,4.0,4.0,4.0,100.0,,,,,,,,,,,,,,,,,,,,,,,,,,,,,,,,,,,,,,,,,,,,,,,,,,,,,,,,,,,,,,,,,,,,,,,,,,,,,,,,,,,,,,,,,,,,,,,,,,,,,,,,,,,,,,,,,,,,,,,,,,,,,,,,,,,
1725715970.043053,1725715970.04379,107.0,0.0,4282.94873,4263.461426,4256.666504,4304.102539,4248.589844,4263.333496,4220.0,4280.897461,4272.436035,4250.641113,4475.128418,4525.512695,4385.0,4406.666504,0.0,1.0,15.0,,,,0.0,4.0,4.0,4.0,4.0,4.0,4.0,4.0,4.0,4.0,4.0,4.0,4.0,4.0,4.0,100.0,,,,,,,,,,,,,,,,,,,,,,,,,,,,,,,,,,,,,,,,,,,,,,,,,,,,,,,,,,,,,,,,,,,,,,,,,,,,,,,,,,,,,,,,,,,,,,,,,,,,,,,,,,,,,,,,,,,,,,,,,,,,,,,,,,,
1725715970.046957,1725715970.047794,108.0,0.0,4283.205078,4260.128418,4252.94873,4301.922852,4247.820313,4263.461426,4220.897461,4280.769043,4270.769043,4249.743652,4474.615234,4524.743652,4383.846191,4403.717773,0.0,1.0,15.0,,,,0.0,4.0,4.0,4.0,4.0,4.0,4.0,4.0,4.0,4.0,4.0,4.0,4.0,4.0,4.0,100.0,,,,,,,,,,,,,,,,,,,,,,,,,,,,,,,,,,,,,,,,,,,,,,,,,,,,,,,,0.0,0.0,64.0,0.075557,1.0,0.0,,,,,,,,,,,,,,,,,,,,,,,,,,,,,,,,,,,,,,,,,,,,,,,,,,,,,,,,,,,,,,,,,,,,,,
1725715970.050861,1725715970.051698,109.0,0.0,4281.282227,4255.128418,4249.358887,4298.974121,4246.794922,4263.846191,4220.128418,4280.641113,4268.077148,4247.692383,4471.153809,4521.153809,4382.307617,4399.487305,0.0,1.0,15.0,,,,0.0,4.0,4.0,4.0,4.0,4.0,4.0,4.0,4.0,4.0,4.0,4.0,4.0,4.0,4.0,100.0,,,,,,,,,,,,,,,,,,,,,,,,,,,,,,,,,,,,,,,,,,,,,,,,,,,,,,,,,,,,,,,,,,,,,,,,,,,,,,,,,,,,,,,,,,,,,,,,,,,,,,,,,,,,,,,,,,,,,,,,,,,,,,,,,,,
1725715970.054765,1725715970.055602,110.0,0.0,4278.077148,4251.410156,4247.307617,4296.282227,4245.897461,4264.102539,4217.820313,4280.128418,4265.512695,4245.384766,4466.794922,4515.897461,4380.897461,4396.538574,0.0,1.0,15.0,,,,0.0,4.0,4.0,4.0,4.0,4.0,4.0,4.0,4.0,4.0,4.0,4.0,4.0,4.0,4.0,100.0,,,,,,,,,,,,,,,,,,,,,,,,,,,,,,,,,,,,,,,,,,,,,,,,,,,,,,,,,,,,,,,,,,,,,,,,,,,,,,,,,,,,,,,,,,,,,,,,,,,,,,,,,,,,,,,,,,,,,,,,,,,,,,,,,,,
1725715970.058669,1725715970.059506,111.0,0.0,4275.512695,4251.666504,4247.436035,4295.128418,4245.512695,4264.358887,4215.641113,4279.358887,4264.743652,4243.974121,4464.487305,4512.05127,4380.256348,4396.794922,0.0,1.0,15.0,,,,0.0,4.0,4.0,4.0,4.0,4.0,4.0,4.0,4.0,4.0,4.0,4.0,4.0,4.0,4.0,100.0,,,,,,,,,,,,,,,,,,,,,,,,,,,,,,,,,,,,,,,,,,,,,,,,,,,,,,,,,,,,,,,,,,,,,,,,,,,,,,,,,,,,,,,,,,,,,,,,,,,,,,,,,,,,,,,,,,,,,,,,,,,,,,,,,,,
1725715970.062574,1725715970.06341,112.0,0.0,4274.743652,4255.897461,4249.615234,4296.410156,4246.025879,4264.743652,4215.384766,4278.333496,4266.282227,4243.846191,4465.769043,4512.307617,4381.410156,4401.025879,0.0,1.0,15.0,,,,0.0,4.0,4.0,4.0,4.0,4.0,4.0,4.0,4.0,4.0,4.0,4.0,4.0,4.0,4.0,100.0,,,,,,,,,,,,,,,,,,,,,,,,,,,,,,,,,,,,,,,,,,,,,,,,,,,,,,,,,,,,,,,,,,,,,,,,,,,,,,,,,,,,,,,,,,,,,,,,,,,,,,,,,,,,,,,,,,,,,,,,,,,,,,,,,,,
1725715970.066478,1725715970.067215,113.0,0.0,4275.641113,4261.794922,4252.692383,4299.615234,4246.922852,4264.871582,4217.820313,4277.563965,4268.717773,4244.615234,4470.0,4516.666504,4384.230957,4407.563965,0.0,1.0,15.0,,,,0.0,4.0,4.0,4.0,4.0,4.0,4.0,4.0,4.0,4.0,4.0,4.0,4.0,4.0,4.0,100.0,,,,,,,,,,,,,,,,,,,,,,,,,,,,,,,,,,,,,,,,,,,,,,,,,,,,,,,,,,,,,,,,,,,,,,,,,,,,,,,,,,,,,,,,,,,,,,,,,,,,,,,,,,,,,,,,,,,,,,,,,,,,,,,,,,,
1725715970.070382,1725715970.071119,114.0,0.0,4276.794922,4265.641113,4255.769043,4303.589844,4247.820313,4264.230957,4222.307617,4277.307617,4269.615234,4246.153809,4474.615234,4522.563965,4388.333496,4413.461426,0.0,1.0,15.0,,,,0.0,4.0,4.0,4.0,4.0,4.0,4.0,4.0,4.0,4.0,4.0,4.0,4.0,4.0,4.0,100.0,,,,,,,,,,,,,,,,,,,,,,,,,,,,,,,,,,,,,,,,,,,,,,,,,,,,,,,,,,,,,,,,,,,,,,,,,,,,,,,,,,,,,,,,,,,,,,,,,,,,,,,,,,,,,,,,,,,,,,,,,,,,,,,,,,,
1725715970.074286,1725715970.075023,115.0,0.0,4277.436035,4265.641113,4258.589844,4307.05127,4248.077148,4263.205078,4227.179688,4277.307617,4268.205078,4247.692383,4477.05127,4526.282227,4391.794922,4416.025879,0.0,1.0,15.0,,,,0.0,4.0,4.0,4.0,4.0,4.0,4.0,4.0,4.0,4.0,4.0,4.0,4.0,4.0,4.0,100.0,,,,,,,,,,,,,,,,,,,,,,,,,,,,,,,,,,,,,,,,,,,,,,,,,,,,,,,,,,,,,,,,,,,,,,,,,,,,,,,,,,,,,,,,,,,,,,,,,,,,,,,,,,,,,,,,,,,,,,,,,,,,,,,,,,,
1725715970.07819,1725715970.078927,116.0,0.0,4277.820313,4263.077148,4261.025879,4309.358887,4248.077148,4262.820313,4231.153809,4277.563965,4265.897461,4248.205078,4476.282227,4526.153809,4393.077148,4414.615234,0.0,1.0,15.0,,,,0.0,4.0,4.0,4.0,4.0,4.0,4.0,4.0,4.0,4.0,4.0,4.0,4.0,4.0,4.0,100.0,,,,,,,,,,,,,,,,,1.0,0.0,0.0,,,,,,,,,,,,,,,,,,,,,,,,,,,,,,,,,,,,,0.0,0.0,64.0,0.015377,1.0,0.0,2.626292,1.38256,0.235747,0.242823,0.057867,2.518039,1.110591,0.203443,0.235453,0.061332,1.409821,1.01338,0.294168,0.268963,0.07616,1.899087,0.643528,0.263401,0.235786,0.056535,1.018975,0.574441,0.183297,0.112515,0.057902,0.213698,0.161295,0.076768,0.09633,0.044789,1.304458,0.329161,0.154419,0.119509,0.062275,0.916483,0.631272,0.304041,0.195013,0.085738,0.926855,1.066915,0.364233,0.336062,0.066585,1.532322,1.309284,0.685979,0.283458,0.091721,2.833438,1.974916,0.665797,0.360738,0.169448,2.004275,1.448547,0.444174,0.342688,0.127319,2.82507,1.578043,0.91658,0.413575,0.189586,1.947068,1.215137,0.448421,0.353772,0.08326
1725715970.082094,1725715970.082731,117.0,0.0,4278.589844,4260.897461,4263.077148,4310.512695,4248.077148,4264.487305,4233.589844,4278.333496,4265.128418,4247.563965,4473.589844,4523.717773,4391.282227,4411.538574,0.0,1.0,15.0,,,,0.0,4.0,4.0,4.0,4.0,4.0,4.0,4.0,4.0,4.0,4.0,4.0,4.0,4.0,4.0,100.0,,,,,,,,,,,,,,,,,,,,,,,,,,,,,,,,,,,,,,,,,,,,,,,,,,,,,,,,,,,,,,,,,,,,,,,,,,,,,,,,,,,,,,,,,,,,,,,,,,,,,,,,,,,,,,,,,,,,,,,,,,,,,,,,,,,
1725715970.085998,1725715970.086635,118.0,0.0,4279.487305,4261.153809,4263.589844,4311.025879,4248.077148,4268.461426,4234.358887,4280.384766,4266.794922,4246.666504,4471.282227,4521.794922,4387.563965,4410.0,0.0,1.0,15.0,,,,0.0,4.0,4.0,4.0,4.0,4.0,4.0,4.0,4.0,4.0,4.0,4.0,4.0,4.0,4.0,100.0,,,,,,,,,,,,,,,,,,,,,,,,,,,,,,,,,,,,,,,,,,,,,,,,,,,,,,,,,,,,,,,,,,,,,,,,,,,,,,,,,,,,,,,,,,,,,,,,,,,,,,,,,,,,,,,,,,,,,,,,,,,,,,,,,,,
1725715970.089902,1725715970.090539,119.0,0.0,4279.230957,4262.692383,4262.179688,4311.410156,4247.94873,4273.461426,4233.717773,4283.589844,4269.743652,4246.666504,4471.666504,4522.307617,4384.102539,4411.282227,0.0,1.0,15.0,,,,0.0,4.0,4.0,4.0,4.0,4.0,4.0,4.0,4.0,4.0,4.0,4.0,4.0,4.0,4.0,100.0,,,,,,,,,,,,,,,,,,,,,,,,,,,,,,,,,,,,,,,,,,,,,,,,,,,,,,,,,,,,,,,,,,,,,,,,,,,,,,,,,,,,,,,,,,,,,,,,,,,,,,,,,,,,,,,,,,,,,,,,,,,,,,,,,,,
1725715970.093806,1725715970.094543,120.0,0.0,4276.666504,4263.077148,4258.974121,4311.922852,4248.077148,4277.179688,4232.94873,4287.179688,4271.410156,4247.820313,4474.487305,4523.974121,4382.563965,4413.589844,0.0,1.0,15.0,,,,0.0,4.0,4.0,4.0,4.0,4.0,4.0,4.0,4.0,4.0,4.0,4.0,4.0,4.0,4.0,100.0,,,,,,,,,,,,,,,,,,,,,,,,,,,,,,,,,,,,,,,,,,,,,,,,,,,,,,,,,,,,,,,,,,,,,,,,,,,,,,,,,,,,,,,,,,,,,,,,,,,,,,,,,,,,,,,,,,,,,,,,,,,,,,,,,,,
1725715970.09771,1725715970.098447,121.0,0.0,4272.179688,4260.512695,4255.384766,4312.05127,4249.230957,4277.563965,4232.94873,4289.102539,4270.384766,4248.846191,4476.794922,4524.487305,4382.94873,4413.589844,0.0,1.0,15.0,,,,0.0,4.0,4.0,4.0,4.0,4.0,4.0,4.0,4.0,4.0,4.0,4.0,4.0,4.0,4.0,100.0,,,,,,,,,,,,,,,,,,,,,,,,,,,,,,,,,,,,,,,,,,,,,,,,,,,,,,,,,,,,,,,,,,,,,,,,,,,,,,,,,,,,,,,,,,,,,,,,,,,,,,,,,,,,,,,,,,,,,,,,,,,,,,,,,,,
1725715970.101615,1725715970.102351,122.0,0.0,4267.563965,4255.641113,4252.307617,4311.282227,4251.666504,4274.615234,4233.974121,4288.461426,4267.692383,4248.077148,4475.512695,4521.538574,4383.589844,4409.743652,0.0,1.0,15.0,,,,0.0,4.0,4.0,4.0,4.0,4.0,4.0,4.0,4.0,4.0,4.0,4.0,4.0,4.0,4.0,100.0,,,,,,,,,,,,,,,,,,,,,,,,,,,,,,,,,,,,,,,,,,,,,,,,,,,,,,,,,,,,,,,,,,,,,,,,,,,,,,,,,,,,,,,,,,,,,,,,,,,,,,,,,,,,,,,,,,,,,,,,,,,,,,,,,,,
1725715970.105519,1725715970.106256,123.0,0.0,4264.615234,4251.025879,4250.256348,4309.743652,4255.256348,4270.512695,4235.0,4285.769043,4264.871582,4245.128418,4470.512695,4516.025879,4383.077148,4403.589844,0.0,1.0,15.0,,,,0.0,4.0,4.0,4.0,4.0,4.0,4.0,4.0,4.0,4.0,4.0,4.0,4.0,4.0,4.0,100.0,,,,,,,,,,,,,,,,,,,,,,,,,,,,,,,,,,,,,,,,,,,,,,,,,,,,,,,,,,,,,,,,,,,,,,,,,,,,,,,,,,,,,,,,,,,,,,,,,,,,,,,,,,,,,,,,,,,,,,,,,,,,,,,,,,,
1725715970.109423,1725715970.11016,124.0,0.0,4264.230957,4248.589844,4249.102539,4308.333496,4258.717773,4268.077148,4235.0,4282.94873,4263.717773,4240.512695,4464.615234,4510.769043,4381.282227,4398.205078,0.0,1.0,15.0,,,,0.0,4.0,4.0,4.0,4.0,4.0,4.0,4.0,4.0,4.0,4.0,4.0,4.0,4.0,4.0,100.0,,,,,,,,,,,,,,,,,,,,,,,,,,,,,,,,,,,,,,,,,,,,,,,,,,,,,,,,0.0,0.0,64.0,0.015377,1.0,0.0,,,,,,,,,,,,,,,,,,,,,,,,,,,,,,,,,,,,,,,,,,,,,,,,,,,,,,,,,,,,,,,,,,,,,,
1725715970.113327,1725715970.113964,125.0,0.0,4264.743652,4248.589844,4248.846191,4307.692383,4261.410156,4268.846191,4234.102539,4281.922852,4264.102539,4235.897461,4461.666504,4508.205078,4379.743652,4396.153809,0.0,1.0,15.0,,,,0.0,4.0,4.0,4.0,4.0,4.0,4.0,4.0,4.0,4.0,4.0,4.0,4.0,4.0,4.0,100.0,,,,,,,,,,,,,,,,,,,,,,,,,,,,,,,,,,,,,,,,,,,,,,,,,,,,,,,,,,,,,,,,,,,,,,,,,,,,,,,,,,,,,,,,,,,,,,,,,,,,,,,,,,,,,,,,,,,,,,,,,,,,,,,,,,,
1725715970.117231,1725715970.117868,126.0,0.0,4262.94873,4249.871582,4249.358887,4308.077148,4262.820313,4271.922852,4233.589844,4282.563965,4265.256348,4232.820313,4462.820313,4508.589844,4379.871582,4397.05127,0.0,1.0,15.0,,,,0.0,4.0,4.0,4.0,4.0,4.0,4.0,4.0,4.0,4.0,4.0,4.0,4.0,4.0,4.0,100.0,,,,,,,,,,,,,,,,,,,,,,,,,,,,,,,,,,,,,,,,,,,,,,,,,,,,,,,,,,,,,,,,,,,,,,,,,,,,,,,,,,,,,,,,,,,,,,,,,,,,,,,,,,,,,,,,,,,,,,,,,,,,,,,,,,,
1725715970.121135,1725715970.121772,127.0,0.0,4256.922852,4251.538574,4250.128418,4308.846191,4263.461426,4275.0,4234.743652,4282.820313,4265.384766,4232.179688,4466.666504,4509.871582,4381.282227,4398.846191,0.0,1.0,15.0,,,,0.0,4.0,4.0,4.0,4.0,4.0,4.0,4.0,4.0,4.0,4.0,4.0,4.0,4.0,4.0,100.0,,,,,,,,,,,,,,,,,,,,,,,,,,,,,,,,,,,,,,,,,,,,,,,,,,,,,,,,,,,,,,,,,,,,,,,,,,,,,,,,,,,,,,,,,,,,,,,,,,,,,,,,,,,,,,,,,,,,,,,,,,,,,,,,,,,
1725715970.125039,1725715970.125676,128.0,0.0,4247.05127,4253.205078,4250.384766,4309.615234,4263.974121,4275.512695,4238.205078,4281.410156,4264.102539,4234.358887,4471.025879,4509.871582,4382.820313,4399.615234,2687.0,1.0,15.0,,,,0.0,4.0,4.0,4.0,4.0,4.0,4.0,4.0,4.0,4.0,4.0,4.0,4.0,4.0,4.0,100.0,,,,,,,,,,,,,,,,,,,,,,,,,,,,,,,,,,,,,,,,,,,,,,,,,,,,,,,,,,,,,,,,,,,,,,,,,,,,,,,,,,,,,,,,,,,,,,,,,,,,,,,,,,,,,,,,,,,,,,,,,,,,,,,,,,,
1725715970.128943,1725715970.12958,129.0,0.0,4236.794922,4254.615234,4250.0,4310.256348,4264.743652,4272.94873,4242.692383,4278.333496,4262.179688,4238.077148,4474.230957,4507.563965,4383.077148,4399.230957,2568.0,1.0,15.0,,,,0.0,4.0,4.0,4.0,4.0,4.0,4.0,4.0,4.0,4.0,4.0,4.0,4.0,4.0,4.0,100.0,,,,,,,,,,,,,,,,,,,,,,,,,,,,,,,,,,,,,,,,,,,,,,,,,,,,,,,,,,,,,,,,,,,,,,,,,,,,,,,,,,,,,,,,,,,,,,,,,,,,,,,,,,,,,,,,,,,,,,,,,,,,,,,,,,,
1725715970.132847,1725715970.133484,130.0,0.0,4230.256348,4256.025879,4249.487305,4311.282227,4265.512695,4268.717773,4246.666504,4275.256348,4261.282227,4241.410156,4475.384766,4504.230957,4381.794922,4398.205078,2496.0,1.0,15.0,,,,0.0,4.0,4.0,4.0,4.0,4.0,4.0,4.0,4.0,4.0,4.0,4.0,4.0,4.0,4.0,100.0,,,,,,,,,,,,,,,,,,,,,,,,,,,,,,,,,,,,,,,,,,,,,,,,,,,,,,,,,,,,,,,,,,,,,,,,,,,,,,,,,,,,,,,,,,,,,,,,,,,,,,,,,,,,,,,,,,,,,,,,,,,,,,,,,,,
1725715970.136752,1725715970.137389,131.0,0.0,4228.846191,4257.94873,4249.230957,4313.205078,4266.153809,4265.0,4248.974121,4273.333496,4262.05127,4242.820313,4474.487305,4502.05127,4380.128418,4397.563965,2463.0,1.0,15.0,,,,0.0,4.0,4.0,4.0,4.0,4.0,4.0,4.0,4.0,4.0,4.0,4.0,4.0,4.0,4.0,100.0,,,,,,,,,,,,,,,,,,,,,,,,,,,,,,,,,,,,,,,,,,,,,,,,,,,,,,,,,,,,,,,,,,,,,,,,,,,,,,,,,,,,,,,,,,,,,,,,,,,,,,,,,,,,,,,,,,,,,,,,,,,,,,,,,,,
1725715970.140656,1725715970.141193,132.0,0.0,4230.897461,4260.512695,4249.615234,4316.153809,4266.282227,4263.077148,4249.615234,4272.820313,4263.205078,4242.05127,4472.436035,4502.563965,4378.974121,4397.436035,2439.0,1.0,15.0,,,,0.0,4.0,4.0,4.0,4.0,4.0,4.0,4.0,4.0,4.0,4.0,4.0,4.0,4.0,4.0,100.0,,,,,,,,,,,,,,,,,,,,,,,,,,,,,,,,,,,,,,,,,,,,,,,,,,,,,,,,0.0,0.0,64.0,0.015377,1.0,0.0,,,,,,,,,,,,,,,,,,,,,,,,,,,,,,,,,,,,,,,,,,,,,,,,,,,,,,,,,,,,,,,,,,,,,,
1725715970.14456,1725715970.145097,133.0,0.0,4232.94873,4262.563965,4250.256348,4319.871582,4266.025879,4262.820313,4249.615234,4272.563965,4262.820313,4239.743652,4469.743652,4504.487305,4379.102539,4397.692383,2396.0,1.0,15.0,,,,0.0,4.0,4.0,4.0,4.0,4.0,4.0,4.0,4.0,4.0,4.0,4.0,4.0,4.0,4.0,100.0,,,,,,,,,,,,,,,,,,,,,,,,,,,,,,,,,,,,,,,,,,,,,,,,,,,,,,,,,,,,,,,,,,,,,,,,,,,,,,,,,,,,,,,,,,,,,,,,,,,,,,,,,,,,,,,,,,,,,,,,,,,,,,,,,,,
1725715970.148464,1725715970.149001,134.0,0.0,4233.461426,4262.563965,4251.025879,4323.205078,4265.897461,4263.461426,4250.0,4271.153809,4259.743652,4237.179688,4466.666504,4505.384766,4380.128418,4397.563965,2434.0,1.0,15.0,,,,0.0,4.0,4.0,4.0,4.0,4.0,4.0,4.0,4.0,4.0,4.0,4.0,4.0,4.0,4.0,100.0,,,,,,,,,,,,,,,,,,,,,,,,,,,,,,,,,,,,,,,,,,,,,,,,,,,,,,,,,,,,,,,,,,,,,,,,,,,,,,,,,,,,,,,,,,,,,,,,,,,,,,,,,,,,,,,,,,,,,,,,,,,,,,,,,,,
1725715970.152368,1725715970.153005,135.0,0.0,4232.563965,4260.384766,4251.538574,4325.256348,4266.282227,4264.615234,4250.641113,4268.461426,4255.512695,4235.384766,4462.94873,4503.461426,4380.897461,4397.179688,2491.0,1.0,15.0,,,,0.0,4.0,4.0,4.0,4.0,4.0,4.0,4.0,4.0,4.0,4.0,4.0,4.0,4.0,4.0,100.0,,,,,,,,,,,,,,,,,,,,,,,,,,,,,,,,,,,,,,,,,,,,,,,,,,,,,,,,,,,,,,,,,,,,,,,,,,,,,,,,,,,,,,,,,,,,,,,,,,,,,,,,,,,,,,,,,,,,,,,,,,,,,,,,,,,
1725715970.156272,1725715970.156909,136.0,0.0,4231.538574,4256.666504,4251.025879,4325.512695,4267.05127,4265.128418,4250.641113,4265.384766,4252.05127,4234.230957,4459.358887,4498.974121,4380.769043,4397.05127,2469.0,1.0,15.0,,,,0.0,4.0,4.0,4.0,4.0,4.0,4.0,4.0,4.0,4.0,4.0,4.0,4.0,4.0,4.0,100.0,,,,,,,,,,,,,,,,,,,,,,,,,,,,,,,,,,,,,,,,,,,,,,,,,,,,,,,,,,,,,,,,,,,,,,,,,,,,,,,,,,,,,,,,,,,,,,,,,,,,,,,,,,,,,,,,,,,,,,,,,,,,,,,,,,,
1725715970.160176,1725715970.160813,137.0,0.0,4230.384766,4252.692383,4249.743652,4325.0,4267.692383,4264.871582,4249.487305,4263.333496,4250.512695,4233.717773,4457.436035,4494.871582,4379.358887,4397.179688,2565.0,1.0,15.0,,,,0.0,4.0,4.0,4.0,4.0,4.0,4.0,4.0,4.0,4.0,4.0,4.0,4.0,4.0,4.0,100.0,,,,,,,,,,,,,,,,,,,,,,,,,,,,,,,,,,,,,,,,,,,,,,,,,,,,,,,,,,,,,,,,,,,,,,,,,,,,,,,,,,,,,,,,,,,,,,,,,,,,,,,,,,,,,,,,,,,,,,,,,,,,,,,,,,,
1725715970.16408,1725715970.164717,138.0,0.0,4228.205078,4249.230957,4248.846191,4324.615234,4267.692383,4263.846191,4248.077148,4262.820313,4250.384766,4233.846191,4457.94873,4493.974121,4376.794922,4397.692383,2884.0,1.0,15.0,,,,0.0,4.0,4.0,4.0,4.0,4.0,4.0,4.0,4.0,4.0,4.0,4.0,4.0,4.0,4.0,100.0,,,,,,,,,,,,,,,,,,,,,,,,,,,,,,,,,,,,,,,,,,,,,,,,,,,,,,,,,,,,,,,,,,,,,,,,,,,,,,,,,,,,,,,,,,,,,,,,,,,,,,,,,,,,,,,,,,,,,,,,,,,,,,,,,,,
1725715970.167984,1725715970.168721,139.0,0.0,4224.615234,4247.563965,4249.871582,4324.871582,4267.436035,4262.820313,4248.077148,4263.205078,4250.384766,4233.846191,4460.0,4497.563965,4374.230957,4398.077148,3116.0,1.0,15.0,,,,0.0,4.0,4.0,4.0,4.0,4.0,4.0,4.0,4.0,4.0,4.0,4.0,4.0,4.0,4.0,100.0,,,,,,,,,,,,,,,,,,,,,,,,,,,,,,,,,,,,,,,,,,,,,,,,,,,,,,,,,,,,,,,,,,,,,,,,,,,,,,,,,,,,,,,,,,,,,,,,,,,,,,,,,,,,,,,,,,,,,,,,,,,,,,,,,,,
1725715970.171888,1725715970.172625,140.0,0.0,4220.384766,4248.461426,4252.436035,4325.512695,4267.307617,4262.820313,4250.512695,4263.846191,4249.615234,4233.077148,4461.410156,4503.205078,4372.436035,4398.077148,3418.0,1.0,15.0,,,,0.0,4.0,4.0,4.0,4.0,4.0,4.0,4.0,4.0,4.0,4.0,4.0,4.0,4.0,4.0,100.0,,,,,,,,,,,,,,,,,,,,,,,,,,,,,,,,,,,,,,,,,,,,,,,,,,,,,,,,0.0,0.0,64.0,0.015377,1.0,0.0,,,,,,,,,,,,,,,,,,,,,,,,,,,,,,,,,,,,,,,,,,,,,,,,,,,,,,,,,,,,,,,,,,,,,,
1725715970.175793,1725715970.176529,141.0,0.0,4217.307617,4251.538574,4255.128418,4326.538574,4267.436035,4264.102539,4254.487305,4264.615234,4248.846191,4231.922852,4460.641113,4507.436035,4371.922852,4397.820313,3822.0,1.0,15.0,,,,0.0,4.0,4.0,4.0,4.0,4.0,4.0,4.0,4.0,4.0,4.0,4.0,4.0,4.0,4.0,100.0,,,,,,,,,,,,,,,,,,,,,,,,,,,,,,,,,,,,,,,,,,,,,,,,,,,,,,,,,,,,,,,,,,,,,,,,,,,,,,,,,,,,,,,,,,,,,,,,,,,,,,,,,,,,,,,,,,,,,,,,,,,,,,,,,,,
1725715970.179697,1725715970.180434,142.0,0.0,4215.641113,4255.128418,4256.538574,4327.563965,4267.436035,4266.410156,4257.563965,4265.897461,4249.743652,4231.794922,4458.974121,4508.205078,4372.179688,4397.563965,2884.0,1.0,15.0,,,,0.0,4.0,4.0,4.0,4.0,4.0,4.0,4.0,4.0,4.0,4.0,4.0,4.0,4.0,4.0,100.0,,,,,,,,,,,,,,,,,,,,,,,,,,,,,,,,,,,,,,,,,,,,,,,,,,,,,,,,,,,,,,,,,,,,,,,,,,,,,,,,,,,,,,,,,,,,,,,,,,,,,,,,,,,,,,,,,,,,,,,,,,,,,,,,,,,
1725715970.183601,1725715970.184338,143.0,0.0,4215.128418,4256.922852,4256.282227,4328.205078,4266.922852,4268.461426,4257.94873,4267.820313,4253.461426,4233.589844,4459.102539,4506.538574,4372.94873,4397.692383,3116.0,1.0,15.0,,,,0.0,4.0,4.0,4.0,4.0,4.0,4.0,4.0,4.0,4.0,4.0,4.0,4.0,4.0,4.0,100.0,,,,,,,,,,,,,,,,,,,,,,,,,,,,,,,,,,,,,,,,,,,,,,,,,,,,,,,,,,,,,,,,,,,,,,,,,,,,,,,,,,,,,,,,,,,,,,,,,,,,,,,,,,,,,,,,,,,,,,,,,,,,,,,,,,,
1725715970.187505,1725715970.188142,144.0,0.0,4214.743652,4256.153809,4255.769043,4327.692383,4265.897461,4269.487305,4255.384766,4270.0,4259.102539,4237.179688,4462.307617,4505.897461,4374.615234,4398.846191,3418.0,1.0,15.0,,,,0.0,4.0,4.0,4.0,4.0,4.0,4.0,4.0,4.0,4.0,4.0,4.0,4.0,4.0,4.0,100.0,,,,,,,,,,,,,,,,,,,,,,,,,,,,,,,,,,,,,,,,,,,,,,,,,,,,,,,,,,,,,,,,,,,,,,,,,,,,,,,,,,,,,,,,,,,,,,,,,,,,,,,,,,,,,,,,,,,,,,,,,,,,,,,,,,,
1725715970.191409,1725715970.192046,145.0,0.0,4215.128418,4253.589844,4256.282227,4326.025879,4265.0,4269.230957,4251.922852,4272.05127,4264.487305,4241.025879,4468.077148,4508.846191,4377.563965,4401.282227,3822.0,1.0,15.0,,,,0.0,4.0,4.0,4.0,4.0,4.0,4.0,4.0,4.0,4.0,4.0,4.0,4.0,4.0,4.0,100.0,,,,,,,,,,,,,,,,,,,,,,,,,,,,,,,,,,,,,,,,,,,,,,,,,,,,,,,,,,,,,,,,,,,,,,,,,,,,,,,,,,,,,,,,,,,,,,,,,,,,,,,,,,,,,,,,,,,,,,,,,,,,,,,,,,,
1725715970.195313,1725715970.19595,146.0,0.0,4217.179688,4251.153809,4258.461426,4324.871582,4264.358887,4268.205078,4249.615234,4273.589844,4267.307617,4244.102539,4473.717773,4515.128418,4381.666504,4404.871582,2884.0,1.0,15.0,,,,0.0,4.0,4.0,4.0,4.0,4.0,4.0,4.0,4.0,4.0,4.0,4.0,4.0,4.0,4.0,100.0,,,,,,,,,,,,,,,,,,,,,,,,,,,,,,,,,,,,,,,,,,,,,,,,,,,,,,,,,,,,,,,,,,,,,,,,,,,,,,,,,,,,,,,,,,,,,,,,,,,,,,,,,,,,,,,,,,,,,,,,,,,,,,,,,,,
1725715970.199217,1725715970.199954,147.0,0.0,4221.282227,4249.871582,4261.666504,4325.769043,4264.487305,4267.05127,4249.743652,4274.743652,4267.05127,4245.897461,4477.563965,4521.538574,4385.641113,4408.461426,3116.0,1.0,15.0,,,,0.0,4.0,4.0,4.0,4.0,4.0,4.0,4.0,4.0,4.0,4.0,4.0,4.0,4.0,4.0,100.0,,,,,,,,,,,,,,,,,,,,,,,,,,,,,,,,,,,,,,,,,,,,,,,,,,,,,,,,,,,,,,,,,,,,,,,,,,,,,,,,,,,,,,,,,,,,,,,,,,,,,,,,,,,,,,,,,,,,,,,,,,,,,,,,,,,
1725715970.203121,1725715970.203858,148.0,0.0,4225.769043,4249.615234,4264.230957,4329.230957,4265.0,4266.410156,4251.153809,4276.153809,4265.128418,4246.794922,4478.717773,4525.641113,4387.692383,4410.897461,3418.0,1.0,15.0,,,,0.0,4.0,4.0,4.0,4.0,4.0,4.0,4.0,4.0,4.0,4.0,4.0,4.0,4.0,4.0,100.0,,,,,,,,,,,,,,,,,1.0,0.0,0.0,,,,,,,,,,,,,,,,,,,,,,,,,,,,,,,,,,,,,0.0,0.0,1.0,0.0,1.0,0.0,2.929485,1.442692,0.244762,0.236541,0.058475,2.23768,1.02769,0.204286,0.23728,0.074144,1.2048,1.204747,0.263704,0.24042,0.071394,1.673136,0.669394,0.245205,0.213457,0.055283,0.941118,0.524195,0.181097,0.102789,0.059016,0.176932,0.142549,0.076214,0.092141,0.042612,1.321833,0.323171,0.133125,0.114118,0.063806,0.678062,0.563683,0.307199,0.181601,0.071771,0.795229,1.028048,0.316022,0.292941,0.069807,1.33218,1.286552,0.661082,0.25953,0.081979,2.423671,1.818115,0.593004,0.312867,0.173063,1.944935,1.507755,0.395287,0.32143,0.121752,2.627787,1.491194,0.846149,0.36189,0.199778,1.861322,1.311679,0.371543,0.317538,0.083161
1725715970.207025,1725715970.207762,149.0,0.0,4228.205078,4250.0,4265.0,4333.077148,4265.641113,4266.153809,4252.307617,4278.333496,4263.717773,4247.05127,4478.205078,4526.666504,4387.179688,4411.538574,3822.0,1.0,15.0,,,,0.0,4.0,4.0,4.0,4.0,4.0,4.0,4.0,4.0,4.0,4.0,4.0,4.0,4.0,4.0,100.0,,,,,,,,,,,,,,,,,,,,,,,,,,,,,,,,,,,,,,,,,,,,,,,,,,,,,,,,,,,,,,,,,,,,,,,,,,,,,,,,,,,,,,,,,,,,,,,,,,,,,,,,,,,,,,,,,,,,,,,,,,,,,,,,,,,
1725715970.210929,1725715970.211666,150.0,0.0,4227.307617,4250.641113,4264.102539,4334.871582,4265.897461,4266.410156,4252.05127,4281.025879,4263.717773,4246.922852,4477.05127,4525.769043,4385.128418,4410.384766,2884.0,1.0,15.0,,,,0.0,4.0,4.0,4.0,4.0,4.0,4.0,4.0,4.0,4.0,4.0,4.0,4.0,4.0,4.0,100.0,,,,,,,,,,,,,,,,,,,,,,,,,,,,,,,,,,,,,,,,,,,,,,,,,,,,,,,,,,,,,,,,,,,,,,,,,,,,,,,,,,,,,,,,,,,,,,,,,,,,,,,,,,,,,,,,,,,,,,,,,,,,,,,,,,,
1725715970.214833,1725715970.21567,151.0,0.0,4224.358887,4250.897461,4262.307617,4333.461426,4265.384766,4267.563965,4250.769043,4283.205078,4264.230957,4246.666504,4475.897461,4523.974121,4383.333496,4407.563965,3116.0,1.0,15.0,,,,0.0,4.0,4.0,4.0,4.0,4.0,4.0,4.0,4.0,4.0,4.0,4.0,4.0,4.0,4.0,100.0,,,,,,,,,,,,,,,,,,,,,,,,,,,,,,,,,,,,,,,,,,,,,,,,,,,,,,,,,,,,,,,,,,,,,,,,,,,,,,,,,,,,,,,,,,,,,,,,,,,,,,,,,,,,,,,,,,,,,,,,,,,,,,,,,,,
1725715970.218737,1725715970.219575,152.0,0.0,4222.05127,4250.512695,4260.641113,4330.0,4264.487305,4270.0,4249.230957,4283.717773,4264.358887,4246.410156,4475.384766,4521.025879,4382.692383,4403.205078,3418.0,1.0,15.0,,,,0.0,4.0,4.0,4.0,4.0,4.0,4.0,4.0,4.0,4.0,4.0,4.0,4.0,4.0,4.0,100.0,,,,,,,,,,,,,,,,,,,,,,,,,,,,,,,,,,,,,,,,,,,,,,,,,,,,,,,,,,,,,,,,,,,,,,,,,,,,,,,,,,,,,,,,,,,,,,,,,,,,,,,,,,,,,,,,,,,,,,,,,,,,,,,,,,,
1725715970.222642,1725715970.223479,153.0,0.0,4222.692383,4249.358887,4259.487305,4327.436035,4263.461426,4273.205078,4248.333496,4282.05127,4263.717773,4246.025879,4475.512695,4517.307617,4382.820313,4398.333496,3822.0,1.0,15.0,,,,0.0,4.0,4.0,4.0,4.0,4.0,4.0,4.0,4.0,4.0,4.0,4.0,4.0,4.0,4.0,100.0,,,,,,,,,,,,,,,,,,,,,,,,,,,,,,,,,,,,,,,,,,,,,,,,,,,,,,,,,,,,,,,,,,,,,,,,,,,,,,,,,,,,,,,,,,,,,,,,,,,,,,,,,,,,,,,,,,,,,,,,,,,,,,,,,,,
1725715970.226546,1725715970.227383,154.0,0.0,4226.025879,4248.717773,4259.230957,4327.820313,4262.94873,4276.282227,4248.333496,4279.102539,4263.077148,4245.512695,4476.153809,4514.358887,4382.692383,4395.128418,2884.0,1.0,15.0,,,,0.0,4.0,4.0,4.0,4.0,4.0,4.0,4.0,4.0,4.0,4.0,4.0,4.0,4.0,4.0,100.0,,,,,,,,,,,,,,,,,,,,,,,,,,,,,,,,,,,,,,,,,,,,,,,,,,,,,,,,,,,,,,,,,,,,,,,,,,,,,,,,,,,,,,,,,,,,,,,,,,,,,,,,,,,,,,,,,,,,,,,,,,,,,,,,,,,
1725715970.23045,1725715970.231187,155.0,0.0,4230.128418,4249.871582,4259.230957,4331.153809,4263.333496,4278.461426,4248.846191,4276.538574,4262.820313,4245.128418,4477.05127,4513.846191,4382.94873,4395.769043,3116.0,1.0,15.0,,,,0.0,4.0,4.0,4.0,4.0,4.0,4.0,4.0,4.0,4.0,4.0,4.0,4.0,4.0,4.0,100.0,,,,,,,,,,,,,,,,,,,,,,,,,,,,,,,,,,,,,,,,,,,,,,,,,,,,,,,,,,,,,,,,,,,,,,,,,,,,,,,,,,,,,,,,,,,,,,,,,,,,,,,,,,,,,,,,,,,,,,,,,,,,,,,,,,,
1725715970.234354,1725715970.235091,156.0,0.0,4232.820313,4252.692383,4259.358887,4335.384766,4264.230957,4279.487305,4249.102539,4275.641113,4263.077148,4245.512695,4478.205078,4516.538574,4385.0,4400.384766,3418.0,1.0,15.0,,,,0.0,4.0,4.0,4.0,4.0,4.0,4.0,4.0,4.0,4.0,4.0,4.0,4.0,4.0,4.0,100.0,,,,,,,,,,,,,,,,,,,,,,,,,,,,,,,,,,,,,,,,,,,,,,,,,,,,,,,,0.0,0.0,1.0,0.0,1.0,0.0,,,,,,,,,,,,,,,,,,,,,,,,,,,,,,,,,,,,,,,,,,,,,,,,,,,,,,,,,,,,,,,,,,,,,,
1725715970.238258,1725715970.238995,157.0,0.0,4234.102539,4256.153809,4260.256348,4337.820313,4265.256348,4278.974121,4249.102539,4276.538574,4263.461426,4246.794922,4478.974121,4521.153809,4389.230957,4406.794922,3822.0,1.0,15.0,,,,0.0,4.0,4.0,4.0,4.0,4.0,4.0,4.0,4.0,4.0,4.0,4.0,4.0,4.0,4.0,100.0,,,,,,,,,,,,,,,,,,,,,,,,,,,,,,,,,,,,,,,,,,,,,,,,,,,,,,,,,,,,,,,,,,,,,,,,,,,,,,,,,,,,,,,,,,,,,,,,,,,,,,,,,,,,,,,,,,,,,,,,,,,,,,,,,,,
1725715970.242162,1725715970.242999,158.0,0.0,4235.512695,4259.102539,4262.05127,4337.820313,4265.897461,4277.05127,4248.974121,4278.205078,4263.846191,4248.077148,4478.974121,4525.384766,4393.846191,4411.794922,2884.0,1.0,15.0,,,,0.0,4.0,4.0,4.0,4.0,4.0,4.0,4.0,4.0,4.0,4.0,4.0,4.0,4.0,4.0,100.0,,,,,,,,,,,,,,,,,,,,,,,,,,,,,,,,,,,,,,,,,,,,,,,,,,,,,,,,,,,,,,,,,,,,,,,,,,,,,,,,,,,,,,,,,,,,,,,,,,,,,,,,,,,,,,,,,,,,,,,,,,,,,,,,,,,
1725715970.246066,1725715970.246903,159.0,0.0,4238.333496,4261.025879,4263.846191,4336.538574,4266.025879,4274.358887,4249.230957,4278.974121,4263.589844,4248.589844,4477.94873,4527.05127,4395.641113,4412.820313,3116.0,1.0,15.0,,,,0.0,4.0,4.0,4.0,4.0,4.0,4.0,4.0,4.0,4.0,4.0,4.0,4.0,4.0,4.0,100.0,,,,,,,,,,,,,,,,,,,,,,,,,,,,,,,,,,,,,,,,,,,,,,,,,,,,,,,,,,,,,,,,,,,,,,,,,,,,,,,,,,,,,,,,,,,,,,,,,,,,,,,,,,,,,,,,,,,,,,,,,,,,,,,,,,,
1725715970.24997,1725715970.250807,160.0,0.0,4242.179688,4261.538574,4264.743652,4336.025879,4266.025879,4271.410156,4249.230957,4278.205078,4262.820313,4247.563965,4476.153809,4525.512695,4393.077148,4410.0,3418.0,1.0,15.0,,,,0.0,4.0,4.0,4.0,4.0,4.0,4.0,4.0,4.0,4.0,4.0,4.0,4.0,4.0,4.0,100.0,,,,,,,,,,,,,,,,,,,,,,,,,,,,,,,,,,,,,,,,,,,,,,,,,,,,,,,,,,,,,,,,,,,,,,,,,,,,,,,,,,,,,,,,,,,,,,,,,,,,,,,,,,,,,,,,,,,,,,,,,,,,,,,,,,,
1725715970.253874,1725715970.254711,161.0,0.0,4245.897461,4261.025879,4264.487305,4337.307617,4266.025879,4268.974121,4248.461426,4276.282227,4260.769043,4245.512695,4474.358887,4523.077148,4387.307617,4405.512695,3822.0,1.0,15.0,,,,0.0,4.0,4.0,4.0,4.0,4.0,4.0,4.0,4.0,4.0,4.0,4.0,4.0,4.0,4.0,100.0,,,,,,,,,,,,,,,,,,,,,,,,,,,,,,,,,,,,,,,,,,,,,,,,,,,,,,,,,,,,,,,,,,,,,,,,,,,,,,,,,,,,,,,,,,,,,,,,,,,,,,,,,,,,,,,,,,,,,,,,,,,,,,,,,,,
1725715970.257779,1725715970.258715,162.0,0.0,4248.205078,4260.512695,4263.717773,4339.358887,4266.025879,4268.077148,4246.282227,4274.615234,4257.436035,4243.205078,4473.717773,4522.436035,4381.666504,4402.436035,2884.0,1.0,15.0,,,,0.0,4.0,4.0,4.0,4.0,4.0,4.0,4.0,4.0,4.0,4.0,4.0,4.0,4.0,4.0,100.0,,,,,,,,,,,,,,,,,,,,,,,,,,,,,,,,,,,,,,,,,,,,,,,,,,,,,,,,,,,,,,,,,,,,,,,,,,,,,,,,,,,,,,,,,,,,,,,,,,,,,,,,,,,,,,,,,,,,,,,,,,,,,,,,,,,
1725715970.261683,1725715970.26262,163.0,0.0,4248.717773,4260.897461,4263.077148,4340.769043,4265.897461,4269.358887,4242.692383,4274.487305,4253.077148,4241.410156,4473.974121,4524.230957,4379.230957,4402.179688,3116.0,1.0,15.0,,,,0.0,4.0,4.0,4.0,4.0,4.0,4.0,4.0,4.0,4.0,4.0,4.0,4.0,4.0,4.0,100.0,,,,,,,,,,,,,,,,,,,,,,,,,,,,,,,,,,,,,,,,,,,,,,,,,,,,,,,,,,,,,,,,,,,,,,,,,,,,,,,,,,,,,,,,,,,,,,,,,,,,,,,,,,,,,,,,,,,,,,,,,,,,,,,,,,,
1725715970.265587,1725715970.266524,164.0,0.0,4248.846191,4262.307617,4263.077148,4341.025879,4265.769043,4272.307617,4238.461426,4275.384766,4248.974121,4240.512695,4474.230957,4526.410156,4380.641113,4403.717773,3418.0,1.0,15.0,,,,0.0,4.0,4.0,4.0,4.0,4.0,4.0,4.0,4.0,4.0,4.0,4.0,4.0,4.0,4.0,100.0,,,,,,,,,,,,,,,,,,,,,,,,,,,,,,,,,,,,,,,,,,,,,,,,,,,,,,,,0.0,0.0,1.0,0.0,1.0,0.0,,,,,,,,,,,,,,,,,,,,,,,,,,,,,,,,,,,,,,,,,,,,,,,,,,,,,,,,,,,,,,,,,,,,,,
1725715970.269491,1725715970.270528,165.0,0.0,4249.358887,4263.974121,4263.846191,4341.282227,4265.256348,4275.256348,4235.128418,4276.153809,4247.436035,4241.025879,4473.589844,4526.538574,4383.974121,4404.871582,3822.0,1.0,15.0,,,,0.0,4.0,4.0,4.0,4.0,4.0,4.0,4.0,4.0,4.0,4.0,4.0,4.0,4.0,4.0,100.0,,,,,,,,,,,,,,,,,,,,,,,,,,,,,,,,,,,,,,,,,,,,,,,,,,,,,,,,,,,,,,,,,,,,,,,,,,,,,,,,,,,,,,,,,,,,,,,,,,,,,,,,,,,,,,,,,,,,,,,,,,,,,,,,,,,
1725715970.273395,1725715970.274432,166.0,0.0,4250.897461,4265.0,4265.128418,4342.05127,4264.743652,4276.282227,4233.846191,4276.410156,4249.487305,4242.94873,4472.563965,4524.743652,4386.794922,4405.0,2884.0,1.0,15.0,,,,0.0,4.0,4.0,4.0,4.0,4.0,4.0,4.0,4.0,4.0,4.0,4.0,4.0,4.0,4.0,100.0,,,,,,,,,,,,,,,,,,,,,,,,,,,,,,,,,,,,,,,,,,,,,,,,,,,,,,,,,,,,,,,,,,,,,,,,,,,,,,,,,,,,,,,,,,,,,,,,,,,,,,,,,,,,,,,,,,,,,,,,,,,,,,,,,,,
1725715970.277299,1725715970.278336,167.0,0.0,4253.205078,4265.0,4266.410156,4343.333496,4264.230957,4275.0,4233.846191,4277.307617,4254.743652,4246.025879,4472.563965,4523.717773,4387.94873,4405.384766,3116.0,1.0,15.0,,,,0.0,4.0,4.0,4.0,4.0,4.0,4.0,4.0,4.0,4.0,4.0,4.0,4.0,4.0,4.0,100.0,,,,,,,,,,,,,,,,,,,,,,,,,,,,,,,,,,,,,,,,,,,,,,,,,,,,,,,,,,,,,,,,,,,,,,,,,,,,,,,,,,,,,,,,,,,,,,,,,,,,,,,,,,,,,,,,,,,,,,,,,,,,,,,,,,,
1725715970.281203,1725715970.28224,168.0,0.0,4256.410156,4264.102539,4267.179688,4343.974121,4263.974121,4272.563965,4233.846191,4279.871582,4261.025879,4249.102539,4474.743652,4526.153809,4388.974121,4407.563965,3418.0,1.0,15.0,,,,0.0,4.0,4.0,4.0,4.0,4.0,4.0,4.0,4.0,4.0,4.0,4.0,4.0,4.0,4.0,100.0,,,,,,,,,,,,,,,,,,,,,,,,,,,,,,,,,,,,,,,,,,,,,,,,,,,,,,,,,,,,,,,,,,,,,,,,,,,,,,,,,,,,,,,,,,,,,,,,,,,,,,,,,,,,,,,,,,,,,,,,,,,,,,,,,,,
1725715970.285107,1725715970.286144,169.0,0.0,4260.0,4262.94873,4267.692383,4343.974121,4263.974121,4270.641113,4233.333496,4283.846191,4265.897461,4250.897461,4479.615234,4531.538574,4391.538574,4411.538574,3822.0,1.0,15.0,,,,0.0,4.0,4.0,4.0,4.0,4.0,4.0,4.0,4.0,4.0,4.0,4.0,4.0,4.0,4.0,100.0,,,,,,,,,,,,,,,,,,,,,,,,,,,,,,,,,,,,,,,,,,,,,,,,,,,,,,,,,,,,,,,,,,,,,,,,,,,,,,,,,,,,,,,,,,,,,,,,,,,,,,,,,,,,,,,,,,,,,,,,,,,,,,,,,,,
1725715970.289011,1725715970.290048,170.0,0.0,4263.205078,4261.794922,4267.820313,4344.102539,4263.974121,4270.641113,4232.179688,4287.692383,4267.94873,4251.410156,4485.512695,4536.410156,4395.384766,4415.384766,2884.0,1.0,15.0,,,,0.0,4.0,4.0,4.0,4.0,4.0,4.0,4.0,4.0,4.0,4.0,4.0,4.0,4.0,4.0,100.0,,,,,,,,,,,,,,,,,,,,,,,,,,,,,,,,,,,,,,,,,,,,,,,,,,,,,,,,,,,,,,,,,,,,,,,,,,,,,,,,,,,,,,,,,,,,,,,,,,,,,,,,,,,,,,,,,,,,,,,,,,,,,,,,,,,
1725715970.292915,1725715970.293852,171.0,0.0,4264.743652,4261.410156,4267.692383,4345.256348,4264.230957,4272.692383,4231.153809,4289.230957,4267.436035,4251.282227,4490.128418,4537.563965,4398.589844,4416.922852,3116.0,1.0,15.0,,,,0.0,4.0,4.0,4.0,4.0,4.0,4.0,4.0,4.0,4.0,4.0,4.0,4.0,4.0,4.0,100.0,,,,,,,,,,,,,,,,,,,,,,,,,,,,,,,,,,,,,,,,,,,,,,,,,,,,,,,,,,,,,,,,,,,,,,,,,,,,,,,,,,,,,,,,,,,,,,,,,,,,,,,,,,,,,,,,,,,,,,,,,,,,,,,,,,,
1725715970.29682,1725715970.297756,172.0,0.0,4264.230957,4262.179688,4267.563965,4347.179688,4264.487305,4275.769043,4230.384766,4287.94873,4266.025879,4251.153809,4491.282227,4534.358887,4399.487305,4415.769043,3418.0,1.0,15.0,,,,0.0,4.0,4.0,4.0,4.0,4.0,4.0,4.0,4.0,4.0,4.0,4.0,4.0,4.0,4.0,100.0,,,,,,,,,,,,,,,,,,,,,,,,,,,,,,,,,,,,,,,,,,,,,,,,,,,,,,,,0.0,0.0,1.0,0.0,1.0,0.0,,,,,,,,,,,,,,,,,,,,,,,,,,,,,,,,,,,,,,,,,,,,,,,,,,,,,,,,,,,,,,,,,,,,,,
1725715970.300724,1725715970.30176,173.0,0.0,4262.436035,4264.102539,4267.436035,4349.102539,4265.0,4278.077148,4229.487305,4284.871582,4265.256348,4251.153809,4488.846191,4529.230957,4398.205078,4413.589844,3822.0,1.0,15.0,,,,0.0,4.0,4.0,4.0,4.0,4.0,4.0,4.0,4.0,4.0,4.0,4.0,4.0,4.0,4.0,100.0,,,,,,,,,,,,,,,,,,,,,,,,,,,,,,,,,,,,,,,,,,,,,,,,,,,,,,,,,,,,,,,,,,,,,,,,,,,,,,,,,,,,,,,,,,,,,,,,,,,,,,,,,,,,,,,,,,,,,,,,,,,,,,,,,,,
1725715970.304628,1725715970.305665,174.0,0.0,4260.769043,4266.025879,4266.922852,4350.128418,4265.641113,4278.846191,4227.563965,4282.563965,4266.025879,4251.025879,4483.846191,4524.871582,4397.05127,4412.05127,2884.0,1.0,15.0,,,,0.0,4.0,4.0,4.0,4.0,4.0,4.0,4.0,4.0,4.0,4.0,4.0,4.0,4.0,4.0,100.0,,,,,,,,,,,,,,,,,,,,,,,,,,,,,,,,,,,,,,,,,,,,,,,,,,,,,,,,,,,,,,,,,,,,,,,,,,,,,,,,,,,,,,,,,,,,,,,,,,,,,,,,,,,,,,,,,,,,,,,,,,,,,,,,,,,
1725715970.308532,1725715970.309569,175.0,0.0,4260.384766,4266.538574,4265.769043,4350.0,4265.769043,4278.717773,4224.230957,4282.307617,4267.307617,4250.256348,4478.333496,4523.205078,4397.307617,4411.922852,3116.0,1.0,15.0,,,,0.0,4.0,4.0,4.0,4.0,4.0,4.0,4.0,4.0,4.0,4.0,4.0,4.0,4.0,4.0,100.0,,,,,,,,,,,,,,,,,,,,,,,,,,,,,,,,,,,,,,,,,,,,,,,,,,,,,,,,,,,,,,,,,,,,,,,,,,,,,,,,,,,,,,,,,,,,,,,,,,,,,,,,,,,,,,,,,,,,,,,,,,,,,,,,,,,
1725715970.312436,1725715970.313473,176.0,0.0,4261.025879,4265.256348,4264.358887,4349.230957,4265.512695,4278.589844,4220.256348,4283.205078,4268.205078,4249.358887,4474.871582,4524.743652,4397.94873,4412.692383,3418.0,1.0,15.0,,,,0.0,4.0,4.0,4.0,4.0,4.0,4.0,4.0,4.0,4.0,4.0,4.0,4.0,4.0,4.0,100.0,,,,,,,,,,,,,,,,,,,,,,,,,,,,,,,,,,,,,,,,,,,,,,,,,,,,,,,,,,,,,,,,,,,,,,,,,,,,,,,,,,,,,,,,,,,,,,,,,,,,,,,,,,,,,,,,,,,,,,,,,,,,,,,,,,,
1725715970.31634,1725715970.317377,177.0,0.0,4262.05127,4264.230957,4263.974121,4349.102539,4265.128418,4278.461426,4217.436035,4283.717773,4267.820313,4248.974121,4474.743652,4527.563965,4397.307617,4413.589844,3822.0,1.0,15.0,,,,0.0,4.0,4.0,4.0,4.0,4.0,4.0,4.0,4.0,4.0,4.0,4.0,4.0,4.0,4.0,100.0,,,,,,,,,,,,,,,,,,,,,,,,,,,,,,,,,,,,,,,,,,,,,,,,,,,,,,,,,,,,,,,,,,,,,,,,,,,,,,,,,,,,,,,,,,,,,,,,,,,,,,,,,,,,,,,,,,,,,,,,,,,,,,,,,,,
1725715970.320244,1725715970.321181,178.0,0.0,4263.077148,4265.512695,4265.384766,4350.0,4265.0,4277.436035,4216.538574,4282.436035,4265.769043,4248.589844,4477.436035,4528.717773,4394.615234,4413.717773,2884.0,1.0,15.0,,,,0.0,4.0,4.0,4.0,4.0,4.0,4.0,4.0,4.0,4.0,4.0,4.0,4.0,4.0,4.0,100.0,,,,,,,,,,,,,,,,,,,,,,,,,,,,,,,,,,,,,,,,,,,,,,,,,,,,,,,,,,,,,,,,,,,,,,,,,,,,,,,,,,,,,,,,,,,,,,,,,,,,,,,,,,,,,,,,,,,,,,,,,,,,,,,,,,,
1725715970.324148,1725715970.325085,179.0,0.0,4264.358887,4268.846191,4267.692383,4351.410156,4264.743652,4275.128418,4217.563965,4280.0,4262.692383,4247.692383,4480.384766,4526.794922,4391.153809,4413.077148,3116.0,1.0,15.0,,,,0.0,4.0,4.0,4.0,4.0,4.0,4.0,4.0,4.0,4.0,4.0,4.0,4.0,4.0,4.0,100.0,,,,,,,,,,,,,,,,,,,,,,,,,,,,,,,,,,,,,,,,,,,,,,,,,,,,,,,,,,,,,,,,,,,,,,,,,,,,,,,,,,,,,,,,,,,,,,,,,,,,,,,,,,,,,,,,,,,,,,,,,,,,,,,,,,,
1725715970.328052,1725715970.328989,180.0,0.0,4266.794922,4272.179688,4269.743652,4352.179688,4264.102539,4272.307617,4218.846191,4278.077148,4259.743652,4246.025879,4481.666504,4523.461426,4389.358887,4411.922852,3418.0,1.0,15.0,,,,0.0,4.0,4.0,4.0,4.0,4.0,4.0,4.0,4.0,4.0,4.0,4.0,4.0,4.0,4.0,100.0,1.0,91.666664,4.0,4.0,4.0,4.0,4.0,4.0,3.0,4.0,4.0,4.0,4.0,4.0,4.0,4.0,1.0,0.0,0.0,,,,,,,,,,,,,,,,,,,,,,,,,,,,,,,,,,,,,0.0,0.0,1.0,0.0,1.0,0.0,3.186072,1.522652,0.249498,0.215164,0.062913,1.886551,0.951497,0.202024,0.227311,0.088111,1.0012,1.561249,0.260219,0.207807,0.064855,1.329852,0.793697,0.282158,0.192456,0.054311,0.78465,0.463898,0.18124,0.09018,0.060925,0.148979,0.133616,0.072031,0.081532,0.038047,1.385919,0.338604,0.116104,0.108567,0.063452,0.496196,0.506688,0.32276,0.165047,0.060839,0.64187,0.97805,0.277029,0.239679,0.071864,1.163551,1.30492,0.629843,0.241827,0.073315,1.997341,1.730456,0.55069,0.271066,0.162423,1.944955,1.74115,0.396001,0.300351,0.115473,2.468926,1.511371,0.778436,0.315861,0.199143,1.826817,1.597073,0.304316,0.278246,0.078385
1725715970.331957,1725715970.332893,181.0,0.0,4270.256348,4273.077148,4270.769043,4351.922852,4263.589844,4270.256348,4219.102539,4278.077148,4258.589844,4244.743652,4481.410156,4521.922852,4390.641113,4411.282227,3822.0,1.0,15.0,,,,0.0,4.0,4.0,4.0,4.0,4.0,4.0,4.0,4.0,4.0,4.0,4.0,4.0,4.0,4.0,100.0,,,,,,,,,,,,,,,,,,,,,,,,,,,,,,,,,,,,,,,,,,,,,,,,,,,,,,,,,,,,,,,,,,,,,,,,,,,,,,,,,,,,,,,,,,,,,,,,,,,,,,,,,,,,,,,,,,,,,,,,,,,,,,,,,,,
1725715970.335861,1725715970.336698,182.0,0.0,4273.846191,4271.025879,4271.538574,4351.922852,4263.974121,4270.128418,4218.333496,4279.743652,4259.358887,4245.0,4481.153809,4524.487305,4393.974121,4412.436035,2884.0,1.0,15.0,,,,0.0,4.0,4.0,4.0,4.0,4.0,4.0,4.0,4.0,4.0,4.0,4.0,4.0,4.0,4.0,100.0,,,,,,,,,,,,,,,,,,,,,,,,,,,,,,,,,,,,,,,,,,,,,,,,,,,,,,,,,,,,,,,,,,,,,,,,,,,,,,,,,,,,,,,,,,,,,,,,,,,,,,,,,,,,,,,,,,,,,,,,,,,,,,,,,,,
1725715970.339765,1725715970.340602,183.0,0.0,4276.666504,4267.820313,4272.436035,4353.205078,4265.641113,4272.307617,4216.794922,4281.538574,4261.282227,4246.538574,4482.436035,4529.615234,4397.179688,4415.641113,3116.0,1.0,15.0,,,,0.0,4.0,4.0,4.0,4.0,4.0,4.0,4.0,4.0,4.0,4.0,4.0,4.0,4.0,4.0,100.0,,,,,,,,,,,,,,,,,,,,,,,,,,,,,,,,,,,,,,,,,,,,,,,,,,,,,,,,,,,,,,,,,,,,,,,,,,,,,,,,,,,,,,,,,,,,,,,,,,,,,,,,,,,,,,,,,,,,,,,,,,,,,,,,,,,
1725715970.343669,1725715970.344506,184.0,0.0,4277.820313,4266.153809,4273.461426,4356.282227,4268.205078,4276.153809,4215.384766,4282.179688,4262.820313,4247.563965,4484.615234,4533.846191,4398.205078,4419.743652,3418.0,1.0,15.0,,,,0.0,4.0,4.0,4.0,4.0,4.0,4.0,4.0,4.0,4.0,4.0,4.0,4.0,4.0,4.0,100.0,,,,,,,,,,,,,,,,,,,,,,,,,,,,,,,,,,,,,,,,,,,,,,,,,,,,,,,,,,,,,,,,,,,,,,,,,,,,,,,,,,,,,,,,,,,,,,,,,,,,,,,,,,,,,,,,,,,,,,,,,,,,,,,,,,,
1725715970.347573,1725715970.34851,185.0,0.0,4277.179688,4267.307617,4273.846191,4359.615234,4270.512695,4280.128418,4215.0,4281.666504,4262.692383,4246.282227,4485.897461,4535.0,4396.153809,4422.563965,3822.0,1.0,15.0,,,,0.0,4.0,4.0,4.0,4.0,4.0,4.0,4.0,4.0,4.0,4.0,4.0,4.0,4.0,4.0,100.0,,,,,,,,,,,,,,,,,,,,,,,,,,,,,,,,,,,,,,,,,,,,,,,,,,,,,,,,,,,,,,,,,,,,,,,,,,,,,,,,,,,,,,,,,,,,,,,,,,,,,,,,,,,,,,,,,,,,,,,,,,,,,,,,,,,
1725715970.351477,1725715970.352414,186.0,0.0,4275.769043,4269.743652,4273.077148,4360.769043,4271.282227,4282.307617,4215.897461,4280.897461,4260.641113,4242.05127,4484.487305,4533.077148,4392.05127,4422.94873,2884.0,1.0,15.0,,,,0.0,4.0,4.0,4.0,4.0,4.0,4.0,4.0,4.0,4.0,4.0,4.0,4.0,4.0,4.0,100.0,,,,,,,,,,,,,,,,,,,,,,,,,,,,,,,,,,,,,,,,,,,,,,,,,,,,,,,,,,,,,,,,,,,,,,,,,,,,,,,,,,,,,,,,,,,,,,,,,,,,,,,,,,,,,,,,,,,,,,,,,,,,,,,,,,,
1725715970.355381,1725715970.356318,187.0,0.0,4274.487305,4271.153809,4271.410156,4358.589844,4269.743652,4282.05127,4217.563965,4280.512695,4257.692383,4236.922852,4480.769043,4530.641113,4387.94873,4421.410156,3116.0,1.0,15.0,,,,0.0,4.0,4.0,4.0,4.0,4.0,4.0,4.0,4.0,4.0,4.0,4.0,4.0,4.0,4.0,100.0,,,,,,,,,,,,,,,,,,,,,,,,,,,,,,,,,,,,,,,,,,,,,,,,,,,,,,,,,,,,,,,,,,,,,,,,,,,,,,,,,,,,,,,,,,,,,,,,,,,,,,,,,,,,,,,,,,,,,,,,,,,,,,,,,,,
1725715970.359285,1725715970.360222,188.0,0.0,4275.128418,4270.128418,4270.0,4353.974121,4267.179688,4280.0,4218.333496,4280.769043,4256.025879,4233.974121,4477.05127,4530.512695,4385.384766,4419.615234,3418.0,1.0,15.0,,,,0.0,4.0,4.0,4.0,4.0,4.0,4.0,4.0,4.0,4.0,4.0,4.0,4.0,4.0,4.0,100.0,,,,,,,,,,,,,,,,,,,,,,,,,,,,,,,,,,,,,,,,,,,,,,,,,,,,,,,,0.0,0.0,1.0,0.0,1.0,0.0,,,,,,,,,,,,,,,,,,,,,,,,,,,,,,,,,,,,,,,,,,,,,,,,,,,,,,,,,,,,,,,,,,,,,,
1725715970.363189,1725715970.364226,189.0,0.0,4278.205078,4267.692383,4270.256348,4349.487305,4265.0,4278.077148,4216.666504,4281.153809,4256.922852,4235.256348,4476.025879,4533.461426,4385.384766,4419.871582,3822.0,1.0,15.0,,,,0.0,4.0,4.0,4.0,4.0,4.0,4.0,4.0,4.0,4.0,4.0,4.0,4.0,4.0,4.0,100.0,,,,,,,,,,,,,,,,,,,,,,,,,,,,,,,,,,,,,,,,,,,,,,,,,,,,,,,,,,,,,,,,,,,,,,,,,,,,,,,,,,,,,,,,,,,,,,,,,,,,,,,,,,,,,,,,,,,,,,,,,,,,,,,,,,,
1725715970.367093,1725715970.36813,190.0,0.0,4283.461426,4266.153809,4272.436035,4347.94873,4264.487305,4277.820313,4212.563965,4281.666504,4260.0,4240.128418,4479.487305,4538.205078,4387.692383,4422.563965,2884.0,1.0,15.0,,,,0.0,4.0,4.0,4.0,4.0,4.0,4.0,4.0,4.0,4.0,4.0,4.0,4.0,4.0,4.0,100.0,,,,,,,,,,,,,,,,,,,,,,,,,,,,,,,,,,,,,,,,,,,,,,,,,,,,,,,,,,,,,,,,,,,,,,,,,,,,,,,,,,,,,,,,,,,,,,,,,,,,,,,,,,,,,,,,,,,,,,,,,,,,,,,,,,,
1725715970.370998,1725715970.372034,191.0,0.0,4289.358887,4266.794922,4275.512695,4350.128418,4265.641113,4278.717773,4207.563965,4282.179688,4263.333496,4246.025879,4486.025879,4541.922852,4391.282227,4426.538574,3116.0,1.0,15.0,,,,0.0,4.0,4.0,4.0,4.0,4.0,4.0,4.0,4.0,4.0,4.0,4.0,4.0,4.0,4.0,100.0,,,,,,,,,,,,,,,,,,,,,,,,,,,,,,,,,,,,,,,,,,,,,,,,,,,,,,,,,,,,,,,,,,,,,,,,,,,,,,,,,,,,,,,,,,,,,,,,,,,,,,,,,,,,,,,,,,,,,,,,,,,,,,,,,,,
1725715970.374902,1725715970.375938,192.0,0.0,4293.846191,4269.230957,4278.077148,4354.487305,4267.05127,4278.717773,4203.461426,4282.05127,4265.384766,4250.0,4492.436035,4542.563965,4395.0,4429.487305,3418.0,1.0,15.0,,,,0.0,4.0,4.0,4.0,4.0,4.0,4.0,4.0,4.0,4.0,4.0,4.0,4.0,4.0,4.0,100.0,,,,,,,,,,,,,,,,,,,,,,,,,,,,,,,,,,,,,,,,,,,,,,,,,,,,,,,,,,,,,,,,,,,,,,,,,,,,,,,,,,,,,,,,,,,,,,,,,,,,,,,,,,,,,,,,,,,,,,,,,,,,,,,,,,,
1725715970.378806,1725715970.379942,193.0,0.0,4295.641113,4271.153809,4278.974121,4358.077148,4267.436035,4276.153809,4201.025879,4281.410156,4265.384766,4250.512695,4496.153809,4540.769043,4398.077148,4430.256348,3822.0,1.0,15.0,,,,0.0,4.0,4.0,4.0,4.0,4.0,4.0,4.0,4.0,4.0,4.0,4.0,4.0,4.0,4.0,100.0,,,,,,,,,,,,,,,,,,,,,,,,,,,,,,,,,,,,,,,,,,,,,,,,,,,,,,,,,,,,,,,,,,,,,,,,,,,,,,,,,,,,,,,,,,,,,,,,,,,,,,,,,,,,,,,,,,,,,,,,,,,,,,,,,,,
1725715970.38271,1725715970.383847,194.0,0.0,4295.384766,4270.769043,4278.077148,4359.230957,4266.282227,4272.307617,4199.102539,4281.282227,4263.974121,4248.589844,4496.410156,4539.871582,4399.615234,4429.230957,2884.0,1.0,15.0,,,,0.0,4.0,4.0,4.0,4.0,4.0,4.0,4.0,4.0,4.0,4.0,4.0,4.0,4.0,4.0,100.0,,,,,,,,,,,,,,,,,,,,,,,,,,,,,,,,,,,,,,,,,,,,,,,,,,,,,,,,,,,,,,,,,,,,,,,,,,,,,,,,,,,,,,,,,,,,,,,,,,,,,,,,,,,,,,,,,,,,,,,,,,,,,,,,,,,
1725715970.386614,1725715970.387751,195.0,0.0,4294.230957,4268.333496,4276.794922,4358.461426,4264.743652,4269.358887,4196.666504,4282.820313,4262.436035,4246.794922,4494.615234,4542.563965,4399.871582,4428.461426,3116.0,1.0,15.0,,,,0.0,4.0,4.0,4.0,4.0,4.0,4.0,4.0,4.0,4.0,4.0,4.0,4.0,4.0,4.0,100.0,,,,,,,,,,,,,,,,,,,,,,,,,,,,,,,,,,,,,,,,,,,,,,,,,,,,,,,,,,,,,,,,,,,,,,,,,,,,,,,,,,,,,,,,,,,,,,,,,,,,,,,,,,,,,,,,,,,,,,,,,,,,,,,,,,,
1725715970.390518,1725715970.391755,196.0,0.0,4293.461426,4266.153809,4276.538574,4357.436035,4263.846191,4269.230957,4193.077148,4286.282227,4261.922852,4246.538574,4493.333496,4548.077148,4398.974121,4429.358887,3418.0,1.0,15.0,,,,0.0,4.0,4.0,4.0,4.0,4.0,4.0,4.0,4.0,4.0,4.0,4.0,4.0,4.0,4.0,100.0,,,,,,,,,,,,,,,,,,,,,,,,,,,,,,,,,,,,,,,,,,,,,,,,,,,,,,,,0.0,0.0,1.0,0.0,1.0,0.0,,,,,,,,,,,,,,,,,,,,,,,,,,,,,,,,,,,,,,,,,,,,,,,,,,,,,,,,,,,,,,,,,,,,,,
1725715970.394422,1725715970.395659,197.0,0.0,4292.94873,4265.641113,4277.563965,4358.205078,4264.358887,4271.410156,4188.717773,4290.641113,4262.820313,4248.077148,4493.717773,4552.820313,4398.077148,4431.153809,3822.0,1.0,15.0,,,,0.0,4.0,4.0,4.0,4.0,4.0,4.0,4.0,4.0,4.0,4.0,4.0,4.0,4.0,4.0,100.0,,,,,,,,,,,,,,,,,,,,,,,,,,,,,,,,,,,,,,,,,,,,,,,,,,,,,,,,,,,,,,,,,,,,,,,,,,,,,,,,,,,,,,,,,,,,,,,,,,,,,,,,,,,,,,,,,,,,,,,,,,,,,,,,,,,
1725715970.398326,1725715970.399563,198.0,0.0,4291.794922,4266.153809,4278.717773,4360.384766,4265.641113,4273.846191,4184.615234,4293.974121,4265.256348,4249.871582,4494.487305,4553.333496,4397.563965,4432.307617,2884.0,1.0,15.0,,,,0.0,4.0,4.0,4.0,4.0,4.0,4.0,4.0,4.0,4.0,4.0,4.0,4.0,4.0,4.0,100.0,,,,,,,,,,,,,,,,,,,,,,,,,,,,,,,,,,,,,,,,,,,,,,,,,,,,,,,,,,,,,,,,,,,,,,,,,,,,,,,,,,,,,,,,,,,,,,,,,,,,,,,,,,,,,,,,,,,,,,,,,,,,,,,,,,,
1725715970.40223,1725715970.403467,199.0,0.0,4289.487305,4266.025879,4278.846191,4362.307617,4266.282227,4274.487305,4181.153809,4295.641113,4268.717773,4250.641113,4494.487305,4549.615234,4397.820313,4431.666504,3116.0,1.0,15.0,,,,0.0,4.0,4.0,4.0,4.0,4.0,4.0,4.0,4.0,4.0,4.0,4.0,4.0,4.0,4.0,100.0,,,,,,,,,,,,,,,,,,,,,,,,,,,,,,,,,,,,,,,,,,,,,,,,,,,,,,,,,,,,,,,,,,,,,,,,,,,,,,,,,,,,,,,,,,,,,,,,,,,,,,,,,,,,,,,,,,,,,,,,,,,,,,,,,,,
1725715970.406134,1725715970.407371,200.0,0.0,4286.282227,4264.743652,4277.436035,4362.307617,4265.897461,4272.436035,4178.333496,4296.025879,4272.307617,4250.512695,4494.102539,4544.871582,4398.333496,4430.256348,3418.0,1.0,15.0,,,,0.0,4.0,4.0,4.0,4.0,4.0,4.0,4.0,4.0,4.0,4.0,4.0,4.0,4.0,4.0,100.0,,,,,,,,,,,,,,,,,,,,,,,,,,,,,,,,,,,,,,,,,,,,,,,,,,,,,,,,,,,,,,,,,,,,,,,,,,,,,,,,,,,,,,,,,,,,,,,,,,,,,,,,,,,,,,,,,,,,,,,,,,,,,,,,,,,
1725715970.410038,1725715970.411275,201.0,0.0,4283.333496,4263.846191,4275.512695,4360.128418,4264.871582,4268.717773,4175.641113,4296.538574,4275.0,4250.512695,4494.615234,4541.794922,4398.846191,4429.102539,3822.0,1.0,15.0,,,,0.0,4.0,4.0,4.0,4.0,4.0,4.0,4.0,4.0,4.0,4.0,4.0,4.0,4.0,4.0,100.0,,,,,,,,,,,,,,,,,,,,,,,,,,,,,,,,,,,,,,,,,,,,,,,,,,,,,,,,,,,,,,,,,,,,,,,,,,,,,,,,,,,,,,,,,,,,,,,,,,,,,,,,,,,,,,,,,,,,,,,,,,,,,,,,,,,
1725715970.413942,1725715970.415079,202.0,0.0,4281.666504,4264.487305,4274.743652,4357.307617,4263.974121,4265.0,4172.820313,4297.307617,4275.641113,4250.769043,4495.897461,4540.769043,4399.230957,4428.717773,2884.0,1.0,15.0,,,,0.0,4.0,4.0,4.0,4.0,4.0,4.0,4.0,4.0,4.0,4.0,4.0,4.0,4.0,4.0,100.0,,,,,,,,,,,,,,,,,,,,,,,,,,,,,,,,,,,,,,,,,,,,,,,,,,,,,,,,,,,,,,,,,,,,,,,,,,,,,,,,,,,,,,,,,,,,,,,,,,,,,,,,,,,,,,,,,,,,,,,,,,,,,,,,,,,
1725715970.417847,1725715970.418984,203.0,0.0,4281.410156,4266.794922,4275.256348,4356.153809,4263.461426,4263.077148,4170.384766,4297.179688,4273.589844,4251.025879,4495.641113,4540.641113,4399.102539,4428.077148,3116.0,1.0,15.0,,,,0.0,4.0,4.0,4.0,4.0,4.0,4.0,4.0,4.0,4.0,4.0,4.0,4.0,4.0,4.0,100.0,,,,,,,,,,,,,,,,,,,,,,,,,,,,,,,,,,,,,,,,,,,,,,,,,,,,,,,,,,,,,,,,,,,,,,,,,,,,,,,,,,,,,,,,,,,,,,,,,,,,,,,,,,,,,,,,,,,,,,,,,,,,,,,,,,,
