Timestamp,OriginalTimestamp,EEG.Counter,EEG.Interpolated,EEG.AF3,EEG.F7,EEG.F3,EEG.FC5,EEG.T7,EEG.P7,EEG.O1,EEG.O2,EEG.P8,EEG.T8,EEG.FC6,EEG.F4,EEG.F8,EEG.AF4,EEG.RawCq,EEG.Battery,EEG.BatteryPercent,MarkerIndex,MarkerType,MarkerValueInt,EEG.MarkerHardware,CQ.AF3,CQ.F7,CQ.F3,CQ.FC5,CQ.T7,CQ.P7,CQ.O1,CQ.O2,CQ.P8,CQ.T8,CQ.FC6,CQ.F4,CQ.F8,CQ.AF4,CQ.Overall,EQ.SampleRateQuality,EQ.OVERALL,EQ.AF3,EQ.F7,EQ.F3,EQ.FC5,EQ.T7,EQ.P7,EQ.O1,EQ.O2,EQ.P8,EQ.T8,EQ.FC6,EQ.F4,EQ.F8,EQ.AF4,MC.Action,MC.ActionPower,MC.IsActive,PM.Attention.IsActive,PM.Attention.Scaled,PM.Attention.Raw,PM.Attention.Min,PM.Attention.Max,PM.Engagement.IsActive,PM.Engagement.Scaled,PM.Engagement.Raw,PM.Engagement.Min,PM.Engagement.Max,PM.Excitement.IsActive,PM.Excitement.Scaled,PM.Excitement.Raw,PM.Excitement.Min,PM.Excitement.Max,PM.LongTermExcitement,PM.Stress.IsActive,PM.Stress.Scaled,PM.Stress.Raw,PM.Stress.Min,PM.Stress.Max,PM.Relaxation.IsActive,PM.Relaxation.Scaled,PM.Relaxation.Raw,PM.Relaxation.Min,PM.Relaxation.Max,PM.Interest.IsActive,PM.Interest.Scaled,PM.Interest.Raw,PM.Interest.Min,PM.Interest.Max,PM.Focus.IsActive,PM.Focus.Scaled,PM.Focus.Raw,PM.Focus.Min,PM.Focus.Max,FE.BlinkWink,FE.HorizontalEyesDirection,FE.UpperFaceAction,FE.UpperFaceActionPower,FE.LowerFaceAction,FE.LowerFaceActionPower,POW.AF3.Theta,POW.AF3.Alpha,POW.AF3.BetaL,POW.AF3.BetaH,POW.AF3.Gamma,POW.F7.Theta,POW.F7.Alpha,POW.F7.BetaL,POW.F7.BetaH,POW.F7.Gamma,POW.F3.Theta,POW.F3.Alpha,POW.F3.BetaL,POW.F3.BetaH,POW.F3.Gamma,POW.FC5.Theta,POW.FC5.Alpha,POW.FC5.BetaL,POW.FC5.BetaH,POW.FC5.Gamma,POW.T7.Theta,POW.T7.Alpha,POW.T7.BetaL,POW.T7.BetaH,POW.T7.Gamma,POW.P7.Theta,POW.P7.Alpha,POW.P7.BetaL,POW.P7.BetaH,POW.P7.Gamma,POW.O1.Theta,POW.O1.Alpha,POW.O1.BetaL,POW.O1.BetaH,POW.O1.Gamma,POW.O2.Theta,POW.O2.Alpha,POW.O2.BetaL,POW.O2.BetaH,POW.O2.Gamma,POW.P8.Theta,POW.P8.Alpha,POW.P8.BetaL,POW.P8.BetaH,POW.P8.Gamma,POW.T8.Theta,POW.T8.Alpha,POW.T8.BetaL,POW.T8.BetaH,POW.T8.Gamma,POW.FC6.Theta,POW.FC6.Alpha,POW.FC6.BetaL,POW.FC6.BetaH,POW.FC6.Gamma,POW.F4.Theta,POW.F4.Alpha,POW.F4.BetaL,POW.F4.BetaH,POW.F4.Gamma,POW.F8.Theta,POW.F8.Alpha,POW.F8.BetaL,POW.F8.BetaH,POW.F8.Gamma,POW.AF4.Theta,POW.AF4.Alpha,POW.AF4.BetaL,POW.AF4.BetaH,POW.AF4.Gamma
1725716021.846554,1725716021.848248,64.0,0.0,4335.897461,4324.743652,4295.0,4316.794922,4248.846191,4201.794922,4218.589844,4251.922852,4251.025879,4248.077148,4463.589844,4518.589844,4358.589844,4413.589844,0.0,1.0,15.0,13.0,1.0,1.0,0.0,4.0,4.0,4.0,4.0,4.0,4.0,4.0,4.0,4.0,4.0,4.0,4.0,4.0,4.0,100.0,,,,,,,,,,,,,,,,,,,,,,,,,,,,,,,,,,,,,,,,,,,,,,,,,,,,,,,,,,,,,,,,,,,,,,,,,,,,,,,,,,,,,,,,,,,,,,,,,,,,,,,,,,,,,,,,,,,,,,,,,,,,,,,,,,,
1725716021.850458,1725716021.852152,65.0,0.0,4337.692383,4323.717773,4292.179688,4315.256348,4249.230957,4201.282227,4217.307617,4251.410156,4251.282227,4248.333496,4462.820313,4512.179688,4358.846191,4413.077148,0.0,1.0,15.0,,,,0.0,4.0,4.0,4.0,4.0,4.0,4.0,4.0,4.0,4.0,4.0,4.0,4.0,4.0,4.0,100.0,,,,,,,,,,,,,,,,,,,,,,,,,,,,,,,,,,,,,,,,,,,,,,,,,,,,,,,,,,,,,,,,,,,,,,,,,,,,,,,,,,,,,,,,,,,,,,,,,,,,,,,,,,,,,,,,,,,,,,,,,,,,,,,,,,,
1725716021.854362,1725716021.856056,66.0,0.0,4342.307617,4322.692383,4288.205078,4316.794922,4249.358887,4202.05127,4217.94873,4250.769043,4251.025879,4247.179688,4463.717773,4508.205078,4358.077148,4412.179688,0.0,1.0,15.0,,,,0.0,4.0,4.0,4.0,4.0,4.0,4.0,4.0,4.0,4.0,4.0,4.0,4.0,4.0,4.0,100.0,,,,,,,,,,,,,,,,,,,,,,,,,,,,,,,,,,,,,,,,,,,,,,,,,,,,,,,,,,,,,,,,,,,,,,,,,,,,,,,,,,,,,,,,,,,,,,,,,,,,,,,,,,,,,,,,,,,,,,,,,,,,,,,,,,,
1725716021.858266,1725716021.86006,67.0,0.0,4351.410156,4322.436035,4284.743652,4320.128418,4249.102539,4203.205078,4218.974121,4250.769043,4251.025879,4246.282227,4466.922852,4508.974121,4357.563965,4412.436035,0.0,1.0,15.0,,,,0.0,4.0,4.0,4.0,4.0,4.0,4.0,4.0,4.0,4.0,4.0,4.0,4.0,4.0,4.0,100.0,,,,,,,,,,,,,,,,,,,,,,,,,,,,,,,,,,,,,,,,,,,,,,,,,,,,,,,,,,,,,,,,,,,,,,,,,,,,,,,,,,,,,,,,,,,,,,,,,,,,,,,,,,,,,,,,,,,,,,,,,,,,,,,,,,,
1725716021.862171,1725716021.863964,68.0,0.0,4363.974121,4322.94873,4283.846191,4323.205078,4248.846191,4203.974121,4218.461426,4250.897461,4252.179688,4247.05127,4471.025879,4513.974121,4358.974121,4414.487305,0.0,1.0,15.0,,,,0.0,4.0,4.0,4.0,4.0,4.0,4.0,4.0,4.0,4.0,4.0,4.0,4.0,4.0,4.0,100.0,,,,,,,,,,,,,,,,,,,,,,,,,,,,,,,,,,,,,,,,,,,,,,,,,,,,,,,,11.0,0.0,64.0,0.310304,1.0,0.0,,,,,,,,,,,,,,,,,,,,,,,,,,,,,,,,,,,,,,,,,,,,,,,,,,,,,,,,,,,,,,,,,,,,,,
1725716021.866075,1725716021.867868,69.0,0.0,4377.436035,4323.846191,4286.025879,4324.615234,4248.846191,4203.461426,4215.256348,4250.512695,4254.358887,4248.717773,4474.102539,4520.128418,4362.179688,4418.077148,0.0,1.0,15.0,,,,0.0,4.0,4.0,4.0,4.0,4.0,4.0,4.0,4.0,4.0,4.0,4.0,4.0,4.0,4.0,100.0,,,,,,,,,,,,,,,,,,,,,,,,,,,,,,,,,,,,,,,,,,,,,,,,,,,,,,,,,,,,,,,,,,,,,,,,,,,,,,,,,,,,,,,,,,,,,,,,,,,,,,,,,,,,,,,,,,,,,,,,,,,,,,,,,,,
1725716021.869979,1725716021.871773,70.0,0.0,4389.743652,4325.256348,4289.487305,4324.743652,4249.102539,4202.436035,4210.512695,4249.871582,4257.05127,4250.384766,4474.871582,4524.358887,4366.153809,4421.794922,0.0,1.0,15.0,,,,0.0,4.0,4.0,4.0,4.0,4.0,4.0,4.0,4.0,4.0,4.0,4.0,4.0,4.0,4.0,100.0,,,,,,,,,,,,,,,,,,,,,,,,,,,,,,,,,,,,,,,,,,,,,,,,,,,,,,,,,,,,,,,,,,,,,,,,,,,,,,,,,,,,,,,,,,,,,,,,,,,,,,,,,,,,,,,,,,,,,,,,,,,,,,,,,,,
1725716021.873883,1725716021.875677,71.0,0.0,4400.128418,4326.922852,4291.922852,4324.743652,4249.615234,4201.538574,4206.153809,4250.128418,4259.358887,4251.282227,4474.358887,4525.384766,4369.358887,4424.230957,0.0,1.0,15.0,,,,0.0,4.0,4.0,4.0,4.0,4.0,4.0,4.0,4.0,4.0,4.0,4.0,4.0,4.0,4.0,100.0,,,,,,,,,,,,,,,,,,,,,,,,,,,,,,,,,,,,,,,,,,,,,,,,,,,,,,,,,,,,,,,,,,,,,,,,,,,,,,,,,,,,,,,,,,,,,,,,,,,,,,,,,,,,,,,,,,,,,,,,,,,,,,,,,,,
1725716021.877787,1725716021.879481,72.0,0.0,4408.589844,4328.205078,4291.666504,4325.512695,4249.743652,4201.410156,4203.717773,4252.179688,4261.153809,4251.282227,4474.615234,4524.487305,4371.025879,4425.128418,0.0,1.0,15.0,,,,0.0,4.0,4.0,4.0,4.0,4.0,4.0,4.0,4.0,4.0,4.0,4.0,4.0,4.0,4.0,100.0,,,,,,,,,,,,,,,,,,,,,,,,,,,,,,,,,,,,,,,,,,,,,,,,,,,,,,,,,,,,,,,,,,,,,,,,,,,,,,,,,,,,,,,,,,,,,,,,,,,,,,,,,,,,,,,,,,,,,,,,,,,,,,,,,,,
1725716021.881691,1725716021.883385,73.0,0.0,4415.897461,4328.077148,4289.102539,4327.05127,4249.358887,4201.666504,4202.820313,4255.897461,4262.307617,4250.897461,4476.794922,4523.846191,4371.794922,4425.128418,0.0,1.0,15.0,,,,0.0,4.0,4.0,4.0,4.0,4.0,4.0,4.0,4.0,4.0,4.0,4.0,4.0,4.0,4.0,100.0,,,,,,,,,,,,,,,,,,,,,,,,,,,,,,,,,,,,,,,,,,,,,,,,,,,,,,,,,,,,,,,,,,,,,,,,,,,,,,,,,,,,,,,,,,,,,,,,,,,,,,,,,,,,,,,,,,,,,,,,,,,,,,,,,,,
1725716021.885595,1725716021.887289,74.0,0.0,4423.461426,4326.794922,4285.641113,4327.94873,4248.846191,4201.794922,4202.179688,4259.871582,4263.205078,4250.641113,4479.487305,4524.615234,4372.563965,4425.256348,0.0,1.0,15.0,,,,0.0,4.0,4.0,4.0,4.0,4.0,4.0,4.0,4.0,4.0,4.0,4.0,4.0,4.0,4.0,100.0,,,,,,,,,,,,,,,,,,,,,,,,,,,,,,,,,,,,,,,,,,,,,,,,,,,,,,,,,,,,,,,,,,,,,,,,,,,,,,,,,,,,,,,,,,,,,,,,,,,,,,,,,,,,,,,,,,,,,,,,,,,,,,,,,,,
1725716021.889499,1725716021.891193,75.0,0.0,4432.05127,4325.128418,4283.205078,4327.436035,4248.589844,4201.410156,4200.256348,4261.922852,4264.102539,4250.384766,4480.641113,4526.025879,4374.102539,4426.410156,0.0,1.0,15.0,,,,0.0,4.0,4.0,4.0,4.0,4.0,4.0,4.0,4.0,4.0,4.0,4.0,4.0,4.0,4.0,100.0,,,,,,,,,,,,,,,,,,,,,,,,,,,,,,,,,,,,,,,,,,,,,,,,,,,,,,,,,,,,,,,,,,,,,,,,,,,,,,,,,,,,,,,,,,,,,,,,,,,,,,,,,,,,,,,,,,,,,,,,,,,,,,,,,,,
1725716021.893403,1725716021.894997,76.0,0.0,4442.05127,4324.230957,4282.820313,4326.025879,4249.102539,4201.025879,4196.410156,4261.538574,4264.871582,4250.256348,4479.743652,4527.179688,4376.282227,4428.205078,0.0,1.0,15.0,,,,0.0,4.0,4.0,4.0,4.0,4.0,4.0,4.0,4.0,4.0,4.0,4.0,4.0,4.0,4.0,100.0,,,,,,,,,,,,,,,,,,,,,,,,,,,,,,,,,,,,,,,,,,,,,,,,,,,,,,,,11.0,0.0,64.0,0.310304,1.0,0.0,,,,,,,,,,,,,,,,,,,,,,,,,,,,,,,,,,,,,,,,,,,,,,,,,,,,,,,,,,,,,,,,,,,,,,
1725716021.897308,1725716021.898902,77.0,0.0,4453.077148,4325.0,4283.717773,4325.0,4249.743652,4201.153809,4191.153809,4259.743652,4265.512695,4250.384766,4477.94873,4527.692383,4378.333496,4429.871582,0.0,1.0,15.0,,,,0.0,4.0,4.0,4.0,4.0,4.0,4.0,4.0,4.0,4.0,4.0,4.0,4.0,4.0,4.0,100.0,,,,,,,,,,,,,,,,,,,,,,,,,,,,,,,,,,,,,,,,,,,,,,,,,,,,,,,,,,,,,,,,,,,,,,,,,,,,,,,,,,,,,,,,,,,,,,,,,,,,,,,,,,,,,,,,,,,,,,,,,,,,,,,,,,,
1725716021.901212,1725716021.902806,78.0,0.0,4464.230957,4326.922852,4284.358887,4325.256348,4249.871582,4201.410156,4185.769043,4258.974121,4265.512695,4251.666504,4477.692383,4528.589844,4379.615234,4430.769043,0.0,1.0,15.0,,,,0.0,4.0,4.0,4.0,4.0,4.0,4.0,4.0,4.0,4.0,4.0,4.0,4.0,4.0,4.0,100.0,,,,,,,,,,,,,,,,,,,,,,,,,,,,,,,,,,,,,,,,,,,,,,,,,,,,,,,,,,,,,,,,,,,,,,,,,,,,,,,,,,,,,,,,,,,,,,,,,,,,,,,,,,,,,,,,,,,,,,,,,,,,,,,,,,,
1725716021.905116,1725716021.90661,79.0,0.0,4474.230957,4328.589844,4283.589844,4326.282227,4248.974121,4201.025879,4181.025879,4260.384766,4265.384766,4254.358887,4479.230957,4530.512695,4379.871582,4430.512695,0.0,1.0,15.0,,,,0.0,4.0,4.0,4.0,4.0,4.0,4.0,4.0,4.0,4.0,4.0,4.0,4.0,4.0,4.0,100.0,,,,,,,,,,,,,,,,,,,,,,,,,,,,,,,,,,,,,,,,,,,,,,,,,,,,,,,,,,,,,,,,,,,,,,,,,,,,,,,,,,,,,,,,,,,,,,,,,,,,,,,,,,,,,,,,,,,,,,,,,,,,,,,,,,,
1725716021.90902,1725716021.910514,80.0,0.0,4481.922852,4327.820313,4281.666504,4326.666504,4247.179688,4199.358887,4176.922852,4263.461426,4265.256348,4258.205078,4481.538574,4533.333496,4379.615234,4430.0,0.0,1.0,15.0,,,,0.0,4.0,4.0,4.0,4.0,4.0,4.0,4.0,4.0,4.0,4.0,4.0,4.0,4.0,4.0,100.0,,,,,,,,,,,,,,,,,,,,,,,,,,,,,,,,,,,,,,,,,,,,,,,,,,,,,,,,,,,,,,,,,,,,,,,,,,,,,,,,,,,,,,,,,,,,,,,,,,,,,,,,,,,,,,,,,,,,,,,,,,,,,,,,,,,
1725716021.912924,1725716021.914418,81.0,0.0,4487.307617,4325.0,4280.0,4325.128418,4245.512695,4196.538574,4172.307617,4265.769043,4265.256348,4261.538574,4482.563965,4535.512695,4379.743652,4429.743652,0.0,1.0,15.0,,,,0.0,4.0,4.0,4.0,4.0,4.0,4.0,4.0,4.0,4.0,4.0,4.0,4.0,4.0,4.0,100.0,,,,,,,,,,,,,,,,,,,,,,,,,,,,,,,,,,,,,,,,,,,,,,,,,,,,,,,,,,,,,,,,,,,,,,,,,,,,,,,,,,,,,,,,,,,,,,,,,,,,,,,,,,,,,,,,,,,,,,,,,,,,,,,,,,,
1725716021.916828,1725716021.918422,82.0,0.0,4491.410156,4322.563965,4279.102539,4322.179688,4244.743652,4193.205078,4167.05127,4265.641113,4265.128418,4263.077148,4482.436035,4535.641113,4380.384766,4430.0,0.0,1.0,15.0,,,,0.0,4.0,4.0,4.0,4.0,4.0,4.0,4.0,4.0,4.0,4.0,4.0,4.0,4.0,4.0,100.0,,,,,,,,,,,,,,,,,,,,,,,,,,,,,,,,,,,,,,,,,,,,,,,,,,,,,,,,,,,,,,,,,,,,,,,,,,,,,,,,,,,,,,,,,,,,,,,,,,,,,,,,,,,,,,,,,,,,,,,,,,,,,,,,,,,
1725716021.920732,1725716021.922326,83.0,0.0,4496.153809,4322.820313,4278.846191,4318.974121,4245.512695,4190.512695,4161.922852,4263.589844,4265.128418,4262.94873,4482.436035,4534.102539,4381.153809,4430.512695,0.0,1.0,15.0,,,,0.0,4.0,4.0,4.0,4.0,4.0,4.0,4.0,4.0,4.0,4.0,4.0,4.0,4.0,4.0,100.0,,,,,,,,,,,,,,,,,,,,,,,,,,,,,,,,,,,,,,,,,,,,,,,,,,,,,,,,,,,,,,,,,,,,,,,,,,,,,,,,,,,,,,,,,,,,,,,,,,,,,,,,,,,,,,,,,,,,,,,,,,,,,,,,,,,
1725716021.924636,1725716021.92623,84.0,0.0,4503.077148,4325.128418,4278.846191,4317.179688,4247.05127,4189.102539,4157.820313,4262.05127,4265.384766,4262.179688,4483.974121,4533.077148,4381.666504,4430.512695,0.0,1.0,15.0,,,,0.0,4.0,4.0,4.0,4.0,4.0,4.0,4.0,4.0,4.0,4.0,4.0,4.0,4.0,4.0,100.0,,,,,,,,,,,,,,,,,1.0,0.0,0.0,,,,,,,,,,,,,,,,,,,,,,,,,,,,,,,,,,,,,11.0,0.0,64.0,0.224495,1.0,0.0,21.147675,2.581382,1.057194,0.357245,0.097803,0.835839,0.712219,0.528796,0.161787,0.084709,1.112757,0.969342,0.568258,0.161428,0.049077,0.964387,1.017641,0.520478,0.232454,0.079296,0.627516,0.284952,0.19208,0.071953,0.045216,0.412581,0.227768,0.153746,0.076991,0.034418,4.315598,0.983516,0.41574,0.087712,0.03701,0.563663,1.220961,0.547784,0.183206,0.112149,0.717875,1.223228,0.494606,0.191175,0.067978,1.012525,1.410997,0.663332,0.218576,0.073689,1.479538,2.220652,1.40056,0.329464,0.112439,2.117378,2.569801,1.789368,0.3036,0.107182,2.158192,2.173287,1.179652,0.371539,0.125975,1.881529,1.898221,0.827923,0.353308,0.076275
1725716021.92854,1725716021.930134,85.0,0.0,4512.436035,4326.410156,4278.974121,4317.179688,4247.94873,4189.230957,4155.256348,4262.820313,4266.153809,4262.179688,4487.05127,4533.974121,4381.922852,4430.256348,0.0,1.0,15.0,,,,0.0,4.0,4.0,4.0,4.0,4.0,4.0,4.0,4.0,4.0,4.0,4.0,4.0,4.0,4.0,100.0,,,,,,,,,,,,,,,,,,,,,,,,,,,,,,,,,,,,,,,,,,,,,,,,,,,,,,,,,,,,,,,,,,,,,,,,,,,,,,,,,,,,,,,,,,,,,,,,,,,,,,,,,,,,,,,,,,,,,,,,,,,,,,,,,,,
1725716021.932444,1725716021.934138,86.0,0.0,4523.077148,4323.717773,4279.230957,4318.205078,4247.692383,4189.615234,4153.589844,4265.641113,4267.563965,4263.461426,4490.384766,4536.666504,4381.922852,4430.512695,0.0,1.0,15.0,,,,0.0,4.0,4.0,4.0,4.0,4.0,4.0,4.0,4.0,4.0,4.0,4.0,4.0,4.0,4.0,100.0,,,,,,,,,,,,,,,,,,,,,,,,,,,,,,,,,,,,,,,,,,,,,,,,,,,,,,,,,,,,,,,,,,,,,,,,,,,,,,,,,,,,,,,,,,,,,,,,,,,,,,,,,,,,,,,,,,,,,,,,,,,,,,,,,,,
1725716021.936349,1725716021.938042,87.0,0.0,4533.461426,4317.563965,4279.487305,4319.230957,4246.282227,4189.743652,4151.538574,4268.205078,4268.461426,4265.128418,4492.307617,4539.743652,4381.666504,4431.410156,0.0,1.0,15.0,,,,0.0,4.0,4.0,4.0,4.0,4.0,4.0,4.0,4.0,4.0,4.0,4.0,4.0,4.0,4.0,100.0,,,,,,,,,,,,,,,,,,,,,,,,,,,,,,,,,,,,,,,,,,,,,,,,,,,,,,,,,,,,,,,,,,,,,,,,,,,,,,,,,,,,,,,,,,,,,,,,,,,,,,,,,,,,,,,,,,,,,,,,,,,,,,,,,,,
1725716021.940253,1725716021.941947,88.0,0.0,4542.692383,4312.179688,4279.487305,4319.230957,4245.0,4189.358887,4148.589844,4268.717773,4268.077148,4266.153809,4491.538574,4541.794922,4381.410156,4431.922852,0.0,1.0,15.0,,,,0.0,4.0,4.0,4.0,4.0,4.0,4.0,4.0,4.0,4.0,4.0,4.0,4.0,4.0,4.0,100.0,,,,,,,,,,,,,,,,,,,,,,,,,,,,,,,,,,,,,,,,,,,,,,,,,,,,,,,,,,,,,,,,,,,,,,,,,,,,,,,,,,,,,,,,,,,,,,,,,,,,,,,,,,,,,,,,,,,,,,,,,,,,,,,,,,,
1725716021.944157,1725716021.945851,89.0,0.0,4551.025879,4312.307617,4278.974121,4318.717773,4244.743652,4188.589844,4145.0,4267.436035,4266.538574,4265.641113,4488.974121,4541.922852,4381.153809,4431.410156,0.0,1.0,15.0,,,,0.0,4.0,4.0,4.0,4.0,4.0,4.0,4.0,4.0,4.0,4.0,4.0,4.0,4.0,4.0,100.0,,,,,,,,,,,,,,,,,,,,,,,,,,,,,,,,,,,,,,,,,,,,,,,,,,,,,,,,,,,,,,,,,,,,,,,,,,,,,,,,,,,,,,,,,,,,,,,,,,,,,,,,,,,,,,,,,,,,,,,,,,,,,,,,,,,
1725716021.948061,1725716021.949855,90.0,0.0,4559.487305,4319.102539,4277.94873,4318.717773,4246.025879,4188.333496,4141.025879,4266.666504,4264.743652,4264.102539,4486.794922,4540.256348,4380.897461,4430.256348,0.0,1.0,15.0,,,,0.0,4.0,4.0,4.0,4.0,4.0,4.0,4.0,4.0,4.0,4.0,4.0,4.0,4.0,4.0,100.0,,,,,,,,,,,,,,,,,,,,,,,,,,,,,,,,,,,,,,,,,,,,,,,,,,,,,,,,,,,,,,,,,,,,,,,,,,,,,,,,,,,,,,,,,,,,,,,,,,,,,,,,,,,,,,,,,,,,,,,,,,,,,,,,,,,
1725716021.951965,1725716021.953759,91.0,0.0,4569.615234,4329.230957,4277.307617,4320.512695,4248.333496,4188.717773,4137.179688,4267.307617,4264.102539,4262.820313,4486.666504,4537.692383,4380.769043,4429.743652,0.0,1.0,15.0,,,,0.0,4.0,4.0,4.0,4.0,4.0,4.0,4.0,4.0,4.0,4.0,4.0,4.0,4.0,4.0,100.0,,,,,,,,,,,,,,,,,,,,,,,,,,,,,,,,,,,,,,,,,,,,,,,,,,,,,,,,,,,,,,,,,,,,,,,,,,,,,,,,,,,,,,,,,,,,,,,,,,,,,,,,,,,,,,,,,,,,,,,,,,,,,,,,,,,
1725716021.955869,1725716021.957663,92.0,0.0,4582.05127,4336.922852,4277.436035,4323.717773,4250.256348,4189.102539,4133.077148,4269.102539,4265.384766,4262.94873,4489.102539,4536.025879,4381.538574,4431.025879,0.0,1.0,15.0,,,,0.0,4.0,4.0,4.0,4.0,4.0,4.0,4.0,4.0,4.0,4.0,4.0,4.0,4.0,4.0,100.0,,,,,,,,,,,,,,,,,,,,,,,,,,,,,,,,,,,,,,,,,,,,,,,,,,,,,,,,0.0,0.0,64.0,0.224495,1.0,0.0,,,,,,,,,,,,,,,,,,,,,,,,,,,,,,,,,,,,,,,,,,,,,,,,,,,,,,,,,,,,,,,,,,,,,,
1725716021.959773,1725716021.961567,93.0,0.0,4596.025879,4338.717773,4278.077148,4326.922852,4250.897461,4189.102539,4128.717773,4270.897461,4268.589844,4264.615234,4492.563965,4536.794922,4382.820313,4434.358887,0.0,1.0,15.0,,,,0.0,4.0,4.0,4.0,4.0,4.0,4.0,4.0,4.0,4.0,4.0,4.0,4.0,4.0,4.0,100.0,,,,,,,,,,,,,,,,,,,,,,,,,,,,,,,,,,,,,,,,,,,,,,,,,,,,,,,,,,,,,,,,,,,,,,,,,,,,,,,,,,,,,,,,,,,,,,,,,,,,,,,,,,,,,,,,,,,,,,,,,,,,,,,,,,,
1725716021.963677,1725716021.965571,94.0,0.0,4610.128418,4335.769043,4278.974121,4328.077148,4250.128418,4188.333496,4124.102539,4272.436035,4272.692383,4267.307617,4494.871582,4540.512695,4384.230957,4439.102539,0.0,1.0,15.0,,,,0.0,4.0,4.0,4.0,4.0,4.0,4.0,4.0,4.0,4.0,4.0,4.0,4.0,4.0,4.0,100.0,,,,,,,,,,,,,,,,,,,,,,,,,,,,,,,,,,,,,,,,,,,,,,,,,,,,,,,,,,,,,,,,,,,,,,,,,,,,,,,,,,,,,,,,,,,,,,,,,,,,,,,,,,,,,,,,,,,,,,,,,,,,,,,,,,,
1725716021.967581,1725716021.969475,95.0,0.0,4622.692383,4332.307617,4279.615234,4326.666504,4249.102539,4187.307617,4119.487305,4274.102539,4276.282227,4270.641113,4495.128418,4546.025879,4384.487305,4443.846191,0.0,1.0,15.0,,,,0.0,4.0,4.0,4.0,4.0,4.0,4.0,4.0,4.0,4.0,4.0,4.0,4.0,4.0,4.0,100.0,,,,,,,,,,,,,,,,,,,,,,,,,,,,,,,,,,,,,,,,,,,,,,,,,,,,,,,,,,,,,,,,,,,,,,,,,,,,,,,,,,,,,,,,,,,,,,,,,,,,,,,,,,,,,,,,,,,,,,,,,,,,,,,,,,,
1725716021.971486,1725716021.973379,96.0,0.0,4633.333496,4331.794922,4279.615234,4323.717773,4248.461426,4187.179688,4114.743652,4275.897461,4278.333496,4273.461426,4493.974121,4551.025879,4383.717773,4447.05127,0.0,1.0,15.0,,,,0.0,4.0,4.0,4.0,4.0,4.0,4.0,4.0,4.0,4.0,4.0,4.0,4.0,4.0,4.0,100.0,,,,,,,,,,,,,,,,,,,,,,,,,,,,,,,,,,,,,,,,,,,,,,,,,,,,,,,,,,,,,,,,,,,,,,,,,,,,,,,,,,,,,,,,,,,,,,,,,,,,,,,,,,,,,,,,,,,,,,,,,,,,,,,,,,,
1725716021.97539,1725716021.977283,97.0,0.0,4641.794922,4334.230957,4279.230957,4321.410156,4248.461426,4187.820313,4110.0,4277.05127,4278.717773,4275.256348,4493.461426,4552.692383,4383.205078,4447.692383,0.0,1.0,15.0,,,,0.0,4.0,4.0,4.0,4.0,4.0,4.0,4.0,4.0,4.0,4.0,4.0,4.0,4.0,4.0,100.0,,,,,,,,,,,,,,,,,,,,,,,,,,,,,,,,,,,,,,,,,,,,,,,,,,,,,,,,,,,,,,,,,,,,,,,,,,,,,,,,,,,,,,,,,,,,,,,,,,,,,,,,,,,,,,,,,,,,,,,,,,,,,,,,,,,
1725716021.979294,1725716021.981187,98.0,0.0,4648.846191,4336.922852,4278.589844,4321.025879,4248.589844,4188.077148,4105.641113,4276.410156,4278.717773,4275.769043,4494.230957,4550.0,4384.102539,4446.410156,0.0,1.0,15.0,,,,0.0,4.0,4.0,4.0,4.0,4.0,4.0,4.0,4.0,4.0,4.0,4.0,4.0,4.0,4.0,100.0,,,,,,,,,,,,,,,,,,,,,,,,,,,,,,,,,,,,,,,,,,,,,,,,,,,,,,,,,,,,,,,,,,,,,,,,,,,,,,,,,,,,,,,,,,,,,,,,,,,,,,,,,,,,,,,,,,,,,,,,,,,,,,,,,,,
1725716021.983198,1725716021.984992,99.0,0.0,4655.384766,4336.794922,4277.820313,4322.05127,4248.461426,4187.563965,4101.410156,4273.589844,4278.974121,4275.0,4495.256348,4544.487305,4386.153809,4444.358887,0.0,1.0,15.0,,,,0.0,4.0,4.0,4.0,4.0,4.0,4.0,4.0,4.0,4.0,4.0,4.0,4.0,4.0,4.0,100.0,,,,,,,,,,,,,,,,,,,,,,,,,,,,,,,,,,,,,,,,,,,,,,,,,,,,,,,,,,,,,,,,,,,,,,,,,,,,,,,,,,,,,,,,,,,,,,,,,,,,,,,,,,,,,,,,,,,,,,,,,,,,,,,,,,,
1725716021.987102,1725716021.988896,100.0,0.0,4662.820313,4333.077148,4277.05127,4322.94873,4248.333496,4186.794922,4096.666504,4269.615234,4279.102539,4273.333496,4495.256348,4539.230957,4388.461426,4443.205078,0.0,1.0,15.0,,,,0.0,4.0,4.0,4.0,4.0,4.0,4.0,4.0,4.0,4.0,4.0,4.0,4.0,4.0,4.0,100.0,,,,,,,,,,,,,,,,,,,,,,,,,,,,,,,,,,,,,,,,,,,,,,,,,,,,,,,,0.0,0.0,64.0,0.224495,1.0,0.0,,,,,,,,,,,,,,,,,,,,,,,,,,,,,,,,,,,,,,,,,,,,,,,,,,,,,,,,,,,,,,,,,,,,,,
1725716021.991006,1725716021.9928,101.0,0.0,4671.666504,4327.692383,4275.769043,4322.307617,4248.077148,4186.538574,4090.769287,4266.025879,4277.820313,4270.897461,4493.846191,4536.794922,4389.487305,4443.205078,0.0,1.0,15.0,,,,0.0,4.0,4.0,4.0,4.0,4.0,4.0,4.0,4.0,4.0,4.0,4.0,4.0,4.0,4.0,100.0,,,,,,,,,,,,,,,,,,,,,,,,,,,,,,,,,,,,,,,,,,,,,,,,,,,,,,,,,,,,,,,,,,,,,,,,,,,,,,,,,,,,,,,,,,,,,,,,,,,,,,,,,,,,,,,,,,,,,,,,,,,,,,,,,,,
1725716021.99491,1725716021.996604,102.0,0.0,4681.282227,4323.846191,4273.846191,4320.0,4247.436035,4186.538574,4083.076904,4264.230957,4274.743652,4268.205078,4491.666504,4537.563965,4388.205078,4443.974121,0.0,1.0,15.0,,,,0.0,4.0,4.0,4.0,4.0,4.0,4.0,4.0,4.0,4.0,4.0,4.0,4.0,4.0,4.0,100.0,,,,,,,,,,,,,,,,,,,,,,,,,,,,,,,,,,,,,,,,,,,,,,,,,,,,,,,,,,,,,,,,,,,,,,,,,,,,,,,,,,,,,,,,,,,,,,,,,,,,,,,,,,,,,,,,,,,,,,,,,,,,,,,,,,,
1725716021.998814,1725716022.000508,103.0,0.0,4690.897461,4323.077148,4271.410156,4317.436035,4245.769043,4185.897461,4074.487061,4264.230957,4270.256348,4265.769043,4489.615234,4539.743652,4385.384766,4444.487305,0.0,1.0,15.0,,,,0.0,4.0,4.0,4.0,4.0,4.0,4.0,4.0,4.0,4.0,4.0,4.0,4.0,4.0,4.0,100.0,,,,,,,,,,,,,,,,,,,,,,,,,,,,,,,,,,,,,,,,,,,,,,,,,,,,,,,,,,,,,,,,,,,,,,,,,,,,,,,,,,,,,,,,,,,,,,,,,,,,,,,,,,,,,,,,,,,,,,,,,,,,,,,,,,,
1725716022.002718,1725716022.004412,104.0,0.0,4698.846191,4324.487305,4268.589844,4315.897461,4242.94873,4183.589844,4065.897461,4264.871582,4266.410156,4264.230957,4488.333496,4540.897461,4382.179688,4444.102539,0.0,1.0,15.0,,,,0.0,4.0,4.0,4.0,4.0,4.0,4.0,4.0,4.0,4.0,4.0,4.0,4.0,4.0,4.0,100.0,,,,,,,,,,,,,,,,,,,,,,,,,,,,,,,,,,,,,,,,,,,,,,,,,,,,,,,,,,,,,,,,,,,,,,,,,,,,,,,,,,,,,,,,,,,,,,,,,,,,,,,,,,,,,,,,,,,,,,,,,,,,,,,,,,,
1725716022.006622,1725716022.008416,105.0,0.0,4704.487305,4325.897461,4266.025879,4316.025879,4239.487305,4179.358887,4058.461426,4264.743652,4264.615234,4263.589844,4487.94873,4539.358887,4380.256348,4442.820313,0.0,1.0,15.0,,,,0.0,4.0,4.0,4.0,4.0,4.0,4.0,4.0,4.0,4.0,4.0,4.0,4.0,4.0,4.0,100.0,,,,,,,,,,,,,,,,,,,,,,,,,,,,,,,,,,,,,,,,,,,,,,,,,,,,,,,,,,,,,,,,,,,,,,,,,,,,,,,,,,,,,,,,,,,,,,,,,,,,,,,,,,,,,,,,,,,,,,,,,,,,,,,,,,,
1725716022.010527,1725716022.01232,106.0,0.0,4708.077148,4326.025879,4263.974121,4317.436035,4236.410156,4174.230957,4053.076904,4263.846191,4265.641113,4263.589844,4488.461426,4536.025879,4379.871582,4441.666504,0.0,1.0,15.0,,,,0.0,4.0,4.0,4.0,4.0,4.0,4.0,4.0,4.0,4.0,4.0,4.0,4.0,4.0,4.0,100.0,,,,,,,,,,,,,,,,,,,,,,,,,,,,,,,,,,,,,,,,,,,,,,,,,,,,,,,,,,,,,,,,,,,,,,,,,,,,,,,,,,,,,,,,,,,,,,,,,,,,,,,,,,,,,,,,,,,,,,,,,,,,,,,,,,,
1725716022.014431,1725716022.016224,107.0,0.0,4711.410156,4325.128418,4263.333496,4318.974121,4234.615234,4170.384766,4049.615479,4263.205078,4268.717773,4263.846191,4489.358887,4533.333496,4380.512695,4441.153809,0.0,1.0,15.0,,,,0.0,4.0,4.0,4.0,4.0,4.0,4.0,4.0,4.0,4.0,4.0,4.0,4.0,4.0,4.0,100.0,,,,,,,,,,,,,,,,,,,,,,,,,,,,,,,,,,,,,,,,,,,,,,,,,,,,,,,,,,,,,,,,,,,,,,,,,,,,,,,,,,,,,,,,,,,,,,,,,,,,,,,,,,,,,,,,,,,,,,,,,,,,,,,,,,,
1725716022.018335,1725716022.020129,108.0,0.0,4716.153809,4324.487305,4263.589844,4320.0,4234.615234,4169.102539,4046.666748,4264.358887,4272.563965,4263.846191,4490.0,4533.589844,4381.282227,4441.666504,0.0,1.0,15.0,,,,0.0,4.0,4.0,4.0,4.0,4.0,4.0,4.0,4.0,4.0,4.0,4.0,4.0,4.0,4.0,100.0,,,,,,,,,,,,,,,,,,,,,,,,,,,,,,,,,,,,,,,,,,,,,,,,,,,,,,,,0.0,0.0,64.0,0.224495,1.0,0.0,,,,,,,,,,,,,,,,,,,,,,,,,,,,,,,,,,,,,,,,,,,,,,,,,,,,,,,,,,,,,,,,,,,,,,
1725716022.022239,1725716022.024133,109.0,0.0,4722.436035,4325.384766,4264.102539,4320.256348,4235.512695,4170.0,4043.205078,4267.307617,4275.256348,4263.589844,4490.384766,4537.307617,4381.794922,4442.692383,0.0,1.0,15.0,,,,0.0,4.0,4.0,4.0,4.0,4.0,4.0,4.0,4.0,4.0,4.0,4.0,4.0,4.0,4.0,100.0,,,,,,,,,,,,,,,,,,,,,,,,,,,,,,,,,,,,,,,,,,,,,,,,,,,,,,,,,,,,,,,,,,,,,,,,,,,,,,,,,,,,,,,,,,,,,,,,,,,,,,,,,,,,,,,,,,,,,,,,,,,,,,,,,,,
1725716022.026143,1725716022.028037,110.0,0.0,4728.846191,4327.820313,4264.230957,4319.743652,4236.025879,4171.666504,4038.974365,4271.025879,4276.410156,4263.333496,4490.128418,4542.563965,4381.794922,4443.846191,0.0,1.0,15.0,,,,0.0,4.0,4.0,4.0,4.0,4.0,4.0,4.0,4.0,4.0,4.0,4.0,4.0,4.0,4.0,100.0,,,,,,,,,,,,,,,,,,,,,,,,,,,,,,,,,,,,,,,,,,,,,,,,,,,,,,,,,,,,,,,,,,,,,,,,,,,,,,,,,,,,,,,,,,,,,,,,,,,,,,,,,,,,,,,,,,,,,,,,,,,,,,,,,,,
1725716022.030047,1725716022.031941,111.0,0.0,4733.333496,4330.897461,4264.230957,4318.974121,4235.384766,4172.436035,4034.487061,4273.974121,4276.410156,4263.333496,4489.615234,4547.307617,4381.666504,4444.615234,0.0,1.0,15.0,,,,0.0,4.0,4.0,4.0,4.0,4.0,4.0,4.0,4.0,4.0,4.0,4.0,4.0,4.0,4.0,100.0,,,,,,,,,,,,,,,,,,,,,,,,,,,,,,,,,,,,,,,,,,,,,,,,,,,,,,,,,,,,,,,,,,,,,,,,,,,,,,,,,,,,,,,,,,,,,,,,,,,,,,,,,,,,,,,,,,,,,,,,,,,,,,,,,,,
1725716022.033951,1725716022.035945,112.0,0.0,4735.512695,4333.461426,4265.128418,4318.846191,4234.230957,4171.794922,4030.897461,4275.769043,4276.666504,4263.717773,4488.974121,4550.128418,4381.538574,4444.615234,0.0,1.0,15.0,,,,0.0,4.0,4.0,4.0,4.0,4.0,4.0,4.0,4.0,4.0,4.0,4.0,4.0,4.0,4.0,100.0,,,,,,,,,,,,,,,,,,,,,,,,,,,,,,,,,,,,,,,,,,,,,,,,,,,,,,,,,,,,,,,,,,,,,,,,,,,,,,,,,,,,,,,,,,,,,,,,,,,,,,,,,,,,,,,,,,,,,,,,,,,,,,,,,,,
1725716022.037855,1725716022.039849,113.0,0.0,4736.282227,4334.487305,4267.05127,4319.358887,4233.589844,4170.769043,4028.974365,4277.05127,4277.94873,4263.974121,4488.846191,4551.538574,4381.666504,4444.358887,0.0,1.0,15.0,,,,0.0,4.0,4.0,4.0,4.0,4.0,4.0,4.0,4.0,4.0,4.0,4.0,4.0,4.0,4.0,100.0,,,,,,,,,,,,,,,,,,,,,,,,,,,,,,,,,,,,,,,,,,,,,,,,,,,,,,,,,,,,,,,,,,,,,,,,,,,,,,,,,,,,,,,,,,,,,,,,,,,,,,,,,,,,,,,,,,,,,,,,,,,,,,,,,,,
1725716022.041759,1725716022.043753,114.0,0.0,4737.05127,4334.487305,4269.615234,4320.256348,4234.871582,4170.897461,4028.205078,4278.205078,4279.743652,4263.846191,4489.358887,4552.179688,4382.307617,4444.743652,0.0,1.0,15.0,,,,0.0,4.0,4.0,4.0,4.0,4.0,4.0,4.0,4.0,4.0,4.0,4.0,4.0,4.0,4.0,100.0,,,,,,,,,,,,,,,,,,,,,,,,,,,,,,,,,,,,,,,,,,,,,,,,,,,,,,,,,,,,,,,,,,,,,,,,,,,,,,,,,,,,,,,,,,,,,,,,,,,,,,,,,,,,,,,,,,,,,,,,,,,,,,,,,,,
1725716022.045663,1725716022.047657,115.0,0.0,4739.615234,4333.846191,4271.153809,4321.153809,4238.205078,4172.05127,4027.692383,4278.717773,4281.538574,4263.461426,4490.384766,4552.563965,4382.94873,4445.641113,0.0,1.0,15.0,,,,0.0,4.0,4.0,4.0,4.0,4.0,4.0,4.0,4.0,4.0,4.0,4.0,4.0,4.0,4.0,100.0,,,,,,,,,,,,,,,,,,,,,,,,,,,,,,,,,,,,,,,,,,,,,,,,,,,,,,,,,,,,,,,,,,,,,,,,,,,,,,,,,,,,,,,,,,,,,,,,,,,,,,,,,,,,,,,,,,,,,,,,,,,,,,,,,,,
1725716022.049568,1725716022.051561,116.0,0.0,4744.102539,4333.333496,4270.897461,4322.05127,4242.307617,4173.589844,4025.641113,4278.205078,4282.307617,4262.94873,4491.410156,4552.820313,4383.205078,4446.666504,0.0,1.0,15.0,,,,0.0,4.0,4.0,4.0,4.0,4.0,4.0,4.0,4.0,4.0,4.0,4.0,4.0,4.0,4.0,100.0,,,,,,,,,,,,,,,,,1.0,0.0,0.0,,,,,,,,,,,,,,,,,,,,,,,,,,,,,,,,,,,,,0.0,0.0,64.0,0.226048,1.0,0.0,23.458218,1.960729,1.308117,0.402793,0.101034,1.133363,0.68122,0.637734,0.172968,0.080614,1.10132,1.03916,0.696629,0.183693,0.051922,1.15472,1.107199,0.625156,0.207793,0.077428,0.699348,0.271514,0.22362,0.084069,0.042375,0.353589,0.254219,0.183986,0.0937,0.040747,4.760896,0.942192,0.457263,0.084735,0.039149,0.705509,1.355855,0.66734,0.192534,0.108061,0.801638,1.322839,0.619999,0.21138,0.070474,1.078506,1.638088,0.794807,0.2335,0.065683,1.709797,2.663512,1.706979,0.33426,0.116473,2.33769,2.927928,2.089531,0.315633,0.103859,2.51172,2.762965,1.468445,0.385571,0.142408,2.031287,2.258927,1.021451,0.383662,0.088164
1725716022.053471,1725716022.055565,117.0,0.0,4749.743652,4333.205078,4269.102539,4323.205078,4245.512695,4174.230957,4021.410156,4276.922852,4282.05127,4262.94873,4492.563965,4553.461426,4383.333496,4447.307617,0.0,1.0,15.0,,,,0.0,4.0,4.0,4.0,4.0,4.0,4.0,4.0,4.0,4.0,4.0,4.0,4.0,4.0,4.0,100.0,,,,,,,,,,,,,,,,,,,,,,,,,,,,,,,,,,,,,,,,,,,,,,,,,,,,,,,,,,,,,,,,,,,,,,,,,,,,,,,,,,,,,,,,,,,,,,,,,,,,,,,,,,,,,,,,,,,,,,,,,,,,,,,,,,,
1725716022.057376,1725716022.059469,118.0,0.0,4755.128418,4333.461426,4266.794922,4324.230957,4247.179688,4173.461426,4015.897461,4276.538574,4281.153809,4263.974121,4493.717773,4554.615234,4383.333496,4447.563965,0.0,1.0,15.0,,,,0.0,4.0,4.0,4.0,4.0,4.0,4.0,4.0,4.0,4.0,4.0,4.0,4.0,4.0,4.0,100.0,,,,,,,,,,,,,,,,,,,,,,,,,,,,,,,,,,,,,,,,,,,,,,,,,,,,,,,,,,,,,,,,,,,,,,,,,,,,,,,,,,,,,,,,,,,,,,,,,,,,,,,,,,,,,,,,,,,,,,,,,,,,,,,,,,,
1725716022.06128,1725716022.063373,119.0,0.0,4759.102539,4333.974121,4265.384766,4325.256348,4247.436035,4172.179688,4011.153809,4277.94873,4280.128418,4265.897461,4494.358887,4555.512695,4383.717773,4447.820313,0.0,1.0,15.0,,,,0.0,4.0,4.0,4.0,4.0,4.0,4.0,4.0,4.0,4.0,4.0,4.0,4.0,4.0,4.0,100.0,,,,,,,,,,,,,,,,,,,,,,,,,,,,,,,,,,,,,,,,,,,,,,,,,,,,,,,,,,,,,,,,,,,,,,,,,,,,,,,,,,,,,,,,,,,,,,,,,,,,,,,,,,,,,,,,,,,,,,,,,,,,,,,,,,,
1725716022.065184,1725716022.067277,120.0,0.0,4762.05127,4334.230957,4264.871582,4325.897461,4247.307617,4171.153809,4008.333252,4280.384766,4279.615234,4267.436035,4493.974121,4555.0,4383.333496,4447.94873,0.0,1.0,15.0,,,,0.0,4.0,4.0,4.0,4.0,4.0,4.0,4.0,4.0,4.0,4.0,4.0,4.0,4.0,4.0,100.0,,,,,,,,,,,,,,,,,,,,,,,,,,,,,,,,,,,,,,,,,,,,,,,,,,,,,,,,,,,,,,,,,,,,,,,,,,,,,,,,,,,,,,,,,,,,,,,,,,,,,,,,,,,,,,,,,,,,,,,,,,,,,,,,,,,
1725716022.069088,1725716022.071281,121.0,0.0,4765.0,4334.743652,4265.256348,4326.153809,4247.05127,4171.153809,4007.179443,4282.563965,4279.871582,4267.436035,4491.794922,4552.05127,4381.025879,4447.05127,0.0,1.0,15.0,,,,0.0,4.0,4.0,4.0,4.0,4.0,4.0,4.0,4.0,4.0,4.0,4.0,4.0,4.0,4.0,100.0,,,,,,,,,,,,,,,,,,,,,,,,,,,,,,,,,,,,,,,,,,,,,,,,,,,,,,,,,,,,,,,,,,,,,,,,,,,,,,,,,,,,,,,,,,,,,,,,,,,,,,,,,,,,,,,,,,,,,,,,,,,,,,,,,,,
1725716022.072992,1725716022.075186,122.0,0.0,4768.717773,4335.384766,4265.641113,4326.025879,4247.05127,4171.538574,4005.384521,4282.820313,4280.256348,4266.410156,4488.974121,4547.179688,4376.794922,4444.615234,0.0,1.0,15.0,,,,0.0,4.0,4.0,4.0,4.0,4.0,4.0,4.0,4.0,4.0,4.0,4.0,4.0,4.0,4.0,100.0,,,,,,,,,,,,,,,,,,,,,,,,,,,,,,,,,,,,,,,,,,,,,,,,,,,,,,,,,,,,,,,,,,,,,,,,,,,,,,,,,,,,,,,,,,,,,,,,,,,,,,,,,,,,,,,,,,,,,,,,,,,,,,,,,,,
1725716022.076896,1725716022.07909,123.0,0.0,4773.333496,4335.769043,4265.256348,4325.384766,4247.05127,4171.538574,4001.410156,4280.769043,4280.641113,4265.769043,4487.307617,4542.179688,4373.077148,4441.666504,0.0,1.0,15.0,,,,0.0,4.0,4.0,4.0,4.0,4.0,4.0,4.0,4.0,4.0,4.0,4.0,4.0,4.0,4.0,100.0,,,,,,,,,,,,,,,,,,,,,,,,,,,,,,,,,,,,,,,,,,,,,,,,,,,,,,,,,,,,,,,,,,,,,,,,,,,,,,,,,,,,,,,,,,,,,,,,,,,,,,,,,,,,,,,,,,,,,,,,,,,,,,,,,,,
1725716022.0808,1725716022.082994,124.0,0.0,4778.589844,4335.128418,4263.846191,4324.102539,4247.307617,4170.769043,3995.641113,4277.820313,4281.025879,4266.922852,4488.846191,4539.743652,4374.102539,4440.641113,0.0,1.0,15.0,,,,0.0,4.0,4.0,4.0,4.0,4.0,4.0,4.0,4.0,4.0,4.0,4.0,4.0,4.0,4.0,100.0,,,,,,,,,,,,,,,,,,,,,,,,,,,,,,,,,,,,,,,,,,,,,,,,,,,,,,,,0.0,0.0,64.0,0.226048,1.0,0.0,,,,,,,,,,,,,,,,,,,,,,,,,,,,,,,,,,,,,,,,,,,,,,,,,,,,,,,,,,,,,,,,,,,,,,
1725716022.084704,1725716022.086898,125.0,0.0,4784.615234,4333.717773,4262.179688,4323.077148,4247.436035,4169.743652,3990.128174,4275.897461,4281.922852,4270.384766,4493.974121,4541.282227,4382.05127,4443.333496,0.0,1.0,15.0,,,,0.0,4.0,4.0,4.0,4.0,4.0,4.0,4.0,4.0,4.0,4.0,4.0,4.0,4.0,4.0,100.0,,,,,,,,,,,,,,,,,,,,,,,,,,,,,,,,,,,,,,,,,,,,,,,,,,,,,,,,,,,,,,,,,,,,,,,,,,,,,,,,,,,,,,,,,,,,,,,,,,,,,,,,,,,,,,,,,,,,,,,,,,,,,,,,,,,
1725716022.088608,1725716022.090702,126.0,0.0,4792.05127,4333.461426,4261.282227,4323.205078,4247.307617,4168.974121,3987.307617,4276.410156,4284.102539,4275.384766,4501.410156,4546.282227,4395.128418,4449.487305,0.0,1.0,15.0,,,,0.0,4.0,4.0,4.0,4.0,4.0,4.0,4.0,4.0,4.0,4.0,4.0,4.0,4.0,4.0,100.0,,,,,,,,,,,,,,,,,,,,,,,,,,,,,,,,,,,,,,,,,,,,,,,,,,,,,,,,,,,,,,,,,,,,,,,,,,,,,,,,,,,,,,,,,,,,,,,,,,,,,,,,,,,,,,,,,,,,,,,,,,,,,,,,,,,
1725716022.092512,1725716022.094606,127.0,0.0,4801.538574,4336.282227,4261.666504,4324.358887,4247.05127,4169.102539,3987.564209,4278.717773,4287.563965,4280.128418,4508.333496,4552.692383,4408.461426,4456.922852,0.0,1.0,15.0,,,,0.0,4.0,4.0,4.0,4.0,4.0,4.0,4.0,4.0,4.0,4.0,4.0,4.0,4.0,4.0,100.0,,,,,,,,,,,,,,,,,,,,,,,,,,,,,,,,,,,,,,,,,,,,,,,,,,,,,,,,,,,,,,,,,,,,,,,,,,,,,,,,,,,,,,,,,,,,,,,,,,,,,,,,,,,,,,,,,,,,,,,,,,,,,,,,,,,
1725716022.096417,1725716022.09851,128.0,0.0,4812.05127,4341.922852,4262.820313,4325.512695,4246.922852,4170.0,3988.974365,4280.641113,4291.025879,4283.333496,4512.692383,4557.179688,4417.179688,4463.077148,2687.0,1.0,15.0,,,,0.0,4.0,4.0,4.0,4.0,4.0,4.0,4.0,4.0,4.0,4.0,4.0,4.0,4.0,4.0,100.0,,,,,,,,,,,,,,,,,,,,,,,,,,,,,,,,,,,,,,,,,,,,,,,,,,,,,,,,,,,,,,,,,,,,,,,,,,,,,,,,,,,,,,,,,,,,,,,,,,,,,,,,,,,,,,,,,,,,,,,,,,,,,,,,,,,
1725716022.100321,1725716022.102315,129.0,0.0,4821.282227,4348.205078,4263.974121,4325.384766,4246.922852,4170.897461,3989.230713,4280.769043,4293.461426,4284.487305,4513.205078,4558.461426,4419.615234,4465.897461,2576.0,1.0,15.0,,,,0.0,4.0,4.0,4.0,4.0,4.0,4.0,4.0,4.0,4.0,4.0,4.0,4.0,4.0,4.0,100.0,,,,,,,,,,,,,,,,,,,,,,,,,,,,,,,,,,,,,,,,,,,,,,,,,,,,,,,,,,,,,,,,,,,,,,,,,,,,,,,,,,,,,,,,,,,,,,,,,,,,,,,,,,,,,,,,,,,,,,,,,,,,,,,,,,,
1725716022.104225,1725716022.106219,130.0,0.0,4827.436035,4351.794922,4264.615234,4323.333496,4246.922852,4171.153809,3986.538574,4279.871582,4294.487305,4283.589844,4510.897461,4557.563965,4416.794922,4465.0,2454.0,1.0,15.0,,,,0.0,4.0,4.0,4.0,4.0,4.0,4.0,4.0,4.0,4.0,4.0,4.0,4.0,4.0,4.0,100.0,,,,,,,,,,,,,,,,,,,,,,,,,,,,,,,,,,,,,,,,,,,,,,,,,,,,,,,,,,,,,,,,,,,,,,,,,,,,,,,,,,,,,,,,,,,,,,,,,,,,,,,,,,,,,,,,,,,,,,,,,,,,,,,,,,,
1725716022.108129,1725716022.110123,131.0,0.0,4830.0,4351.025879,4264.615234,4320.256348,4246.922852,4170.256348,3981.281982,4280.384766,4295.0,4281.666504,4507.692383,4556.666504,4412.307617,4461.922852,2454.0,1.0,15.0,,,,0.0,4.0,4.0,4.0,4.0,4.0,4.0,4.0,4.0,4.0,4.0,4.0,4.0,4.0,4.0,100.0,,,,,,,,,,,,,,,,,,,,,,,,,,,,,,,,,,,,,,,,,,,,,,,,,,,,,,,,,,,,,,,,,,,,,,,,,,,,,,,,,,,,,,,,,,,,,,,,,,,,,,,,,,,,,,,,,,,,,,,,,,,,,,,,,,,
1725716022.112033,1725716022.114127,132.0,0.0,4830.256348,4346.410156,4264.102539,4317.563965,4246.794922,4168.846191,3975.512939,4283.205078,4295.128418,4280.512695,4505.897461,4557.436035,4409.102539,4458.974121,2438.0,1.0,15.0,,,,0.0,4.0,4.0,4.0,4.0,4.0,4.0,4.0,4.0,4.0,4.0,4.0,4.0,4.0,4.0,100.0,,,,,,,,,,,,,,,,,,,,,,,,,,,,,,,,,,,,,,,,,,,,,,,,,,,,,,,,0.0,0.0,64.0,0.226048,1.0,0.0,,,,,,,,,,,,,,,,,,,,,,,,,,,,,,,,,,,,,,,,,,,,,,,,,,,,,,,,,,,,,,,,,,,,,,
1725716022.115937,1725716022.118031,133.0,0.0,4829.871582,4340.769043,4263.461426,4316.410156,4246.794922,4167.307617,3972.05127,4287.94873,4295.128418,4281.410156,4506.922852,4560.256348,4408.333496,4458.461426,2393.0,1.0,15.0,,,,0.0,4.0,4.0,4.0,4.0,4.0,4.0,4.0,4.0,4.0,4.0,4.0,4.0,4.0,4.0,100.0,,,,,,,,,,,,,,,,,,,,,,,,,,,,,,,,,,,,,,,,,,,,,,,,,,,,,,,,,,,,,,,,,,,,,,,,,,,,,,,,,,,,,,,,,,,,,,,,,,,,,,,,,,,,,,,,,,,,,,,,,,,,,,,,,,,
1725716022.119841,1725716022.121935,134.0,0.0,4830.897461,4337.179688,4263.333496,4316.922852,4246.794922,4166.410156,3971.794922,4292.179688,4295.256348,4285.0,4510.512695,4564.871582,4409.102539,4461.282227,2436.0,1.0,15.0,,,,0.0,4.0,4.0,4.0,4.0,4.0,4.0,4.0,4.0,4.0,4.0,4.0,4.0,4.0,4.0,100.0,,,,,,,,,,,,,,,,,,,,,,,,,,,,,,,,,,,,,,,,,,,,,,,,,,,,,,,,,,,,,,,,,,,,,,,,,,,,,,,,,,,,,,,,,,,,,,,,,,,,,,,,,,,,,,,,,,,,,,,,,,,,,,,,,,,
1725716022.123745,1725716022.125839,135.0,0.0,4835.256348,4337.563965,4264.358887,4318.589844,4246.794922,4166.794922,3974.102539,4294.358887,4296.282227,4290.512695,4515.384766,4570.641113,4410.384766,4467.05127,2498.0,1.0,15.0,,,,0.0,4.0,4.0,4.0,4.0,4.0,4.0,4.0,4.0,4.0,4.0,4.0,4.0,4.0,4.0,100.0,,,,,,,,,,,,,,,,,,,,,,,,,,,,,,,,,,,,,,,,,,,,,,,,,,,,,,,,,,,,,,,,,,,,,,,,,,,,,,,,,,,,,,,,,,,,,,,,,,,,,,,,,,,,,,,,,,,,,,,,,,,,,,,,,,,
1725716022.127649,1725716022.129843,136.0,0.0,4842.692383,4341.025879,4266.153809,4320.256348,4247.05127,4168.333496,3976.153809,4295.128418,4298.461426,4295.897461,4520.512695,4576.538574,4412.307617,4473.717773,2469.0,1.0,15.0,,,,0.0,4.0,4.0,4.0,4.0,4.0,4.0,4.0,4.0,4.0,4.0,4.0,4.0,4.0,4.0,100.0,,,,,,,,,,,,,,,,,,,,,,,,,,,,,,,,,,,,,,,,,,,,,,,,,,,,,,,,,,,,,,,,,,,,,,,,,,,,,,,,,,,,,,,,,,,,,,,,,,,,,,,,,,,,,,,,,,,,,,,,,,,,,,,,,,,
1725716022.131554,1725716022.133747,137.0,0.0,4850.897461,4345.256348,4267.94873,4321.025879,4247.179688,4170.384766,3975.897461,4296.410156,4301.410156,4299.230957,4524.871582,4581.410156,4414.615234,4478.846191,2565.0,1.0,15.0,,,,0.0,4.0,4.0,4.0,4.0,4.0,4.0,4.0,4.0,4.0,4.0,4.0,4.0,4.0,4.0,100.0,,,,,,,,,,,,,,,,,,,,,,,,,,,,,,,,,,,,,,,,,,,,,,,,,,,,,,,,,,,,,,,,,,,,,,,,,,,,,,,,,,,,,,,,,,,,,,,,,,,,,,,,,,,,,,,,,,,,,,,,,,,,,,,,,,,
1725716022.135458,1725716022.137651,138.0,0.0,4857.05127,4348.205078,4268.974121,4320.512695,4247.179688,4171.666504,3972.692383,4298.589844,4303.717773,4299.230957,4527.692383,4583.589844,4416.922852,4480.897461,2867.0,1.0,15.0,,,,0.0,4.0,4.0,4.0,4.0,4.0,4.0,4.0,4.0,4.0,4.0,4.0,4.0,4.0,4.0,100.0,,,,,,,,,,,,,,,,,,,,,,,,,,,,,,,,,,,,,,,,,,,,,,,,,,,,,,,,,,,,,,,,,,,,,,,,,,,,,,,,,,,,,,,,,,,,,,,,,,,,,,,,,,,,,,,,,,,,,,,,,,,,,,,,,,,
1725716022.139362,1725716022.141655,139.0,0.0,4859.743652,4349.743652,4268.846191,4319.358887,4247.307617,4172.05127,3967.435791,4299.871582,4304.102539,4295.897461,4527.94873,4581.794922,4417.94873,4480.128418,3117.0,1.0,15.0,,,,0.0,4.0,4.0,4.0,4.0,4.0,4.0,4.0,4.0,4.0,4.0,4.0,4.0,4.0,4.0,100.0,,,,,,,,,,,,,,,,,,,,,,,,,,,,,,,,,,,,,,,,,,,,,,,,,,,,,,,,,,,,,,,,,,,,,,,,,,,,,,,,,,,,,,,,,,,,,,,,,,,,,,,,,,,,,,,,,,,,,,,,,,,,,,,,,,,
1725716022.143266,1725716022.145559,140.0,0.0,4860.128418,4350.897461,4267.820313,4318.717773,4247.436035,4171.282227,3961.666748,4298.333496,4302.563965,4290.897461,4525.512695,4577.307617,4417.179688,4477.820313,3391.0,1.0,15.0,,,,0.0,4.0,4.0,4.0,4.0,4.0,4.0,4.0,4.0,4.0,4.0,4.0,4.0,4.0,4.0,100.0,,,,,,,,,,,,,,,,,,,,,,,,,,,,,,,,,,,,,,,,,,,,,,,,,,,,,,,,0.0,0.0,64.0,0.226048,1.0,0.0,,,,,,,,,,,,,,,,,,,,,,,,,,,,,,,,,,,,,,,,,,,,,,,,,,,,,,,,,,,,,,,,,,,,,,
1725716022.14717,1725716022.149463,141.0,0.0,4860.769043,4351.922852,4266.410156,4319.102539,4247.692383,4170.256348,3957.179443,4293.846191,4300.0,4287.05127,4521.025879,4573.077148,4415.128418,4475.0,3817.0,1.0,15.0,,,,0.0,4.0,4.0,4.0,4.0,4.0,4.0,4.0,4.0,4.0,4.0,4.0,4.0,4.0,4.0,100.0,,,,,,,,,,,,,,,,,,,,,,,,,,,,,,,,,,,,,,,,,,,,,,,,,,,,,,,,,,,,,,,,,,,,,,,,,,,,,,,,,,,,,,,,,,,,,,,,,,,,,,,,,,,,,,,,,,,,,,,,,,,,,,,,,,,
1725716022.151074,1725716022.153368,142.0,0.0,4863.974121,4352.307617,4265.384766,4321.025879,4247.692383,4169.615234,3955.256348,4288.461426,4297.436035,4285.512695,4516.025879,4571.153809,4413.077148,4472.563965,2867.0,1.0,15.0,,,,0.0,4.0,4.0,4.0,4.0,4.0,4.0,4.0,4.0,4.0,4.0,4.0,4.0,4.0,4.0,100.0,,,,,,,,,,,,,,,,,,,,,,,,,,,,,,,,,,,,,,,,,,,,,,,,,,,,,,,,,,,,,,,,,,,,,,,,,,,,,,,,,,,,,,,,,,,,,,,,,,,,,,,,,,,,,,,,,,,,,,,,,,,,,,,,,,,
1725716022.154978,1725716022.157372,143.0,0.0,4869.871582,4351.538574,4265.256348,4323.846191,4247.94873,4169.743652,3955.384521,4284.871582,4295.384766,4285.384766,4511.794922,4571.410156,4411.025879,4470.384766,3117.0,1.0,15.0,,,,0.0,4.0,4.0,4.0,4.0,4.0,4.0,4.0,4.0,4.0,4.0,4.0,4.0,4.0,4.0,100.0,,,,,,,,,,,,,,,,,,,,,,,,,,,,,,,,,,,,,,,,,,,,,,,,,,,,,,,,,,,,,,,,,,,,,,,,,,,,,,,,,,,,,,,,,,,,,,,,,,,,,,,,,,,,,,,,,,,,,,,,,,,,,,,,,,,
1725716022.158882,1725716022.161276,144.0,0.0,4875.641113,4349.487305,4265.897461,4326.282227,4248.589844,4170.384766,3955.769287,4284.230957,4293.077148,4284.102539,4508.717773,4571.538574,4408.205078,4467.820313,3391.0,1.0,15.0,,,,0.0,4.0,4.0,4.0,4.0,4.0,4.0,4.0,4.0,4.0,4.0,4.0,4.0,4.0,4.0,100.0,,,,,,,,,,,,,,,,,,,,,,,,,,,,,,,,,,,,,,,,,,,,,,,,,,,,,,,,,,,,,,,,,,,,,,,,,,,,,,,,,,,,,,,,,,,,,,,,,,,,,,,,,,,,,,,,,,,,,,,,,,,,,,,,,,,
1725716022.162786,1725716022.16518,145.0,0.0,4878.461426,4346.538574,4266.538574,4326.922852,4249.230957,4171.025879,3954.871826,4285.384766,4289.615234,4280.128418,4506.922852,4569.871582,4403.974121,4464.615234,3817.0,1.0,15.0,,,,0.0,4.0,4.0,4.0,4.0,4.0,4.0,4.0,4.0,4.0,4.0,4.0,4.0,4.0,4.0,100.0,,,,,,,,,,,,,,,,,,,,,,,,,,,,,,,,,,,,,,,,,,,,,,,,,,,,,,,,,,,,,,,,,,,,,,,,,,,,,,,,,,,,,,,,,,,,,,,,,,,,,,,,,,,,,,,,,,,,,,,,,,,,,,,,,,,
1725716022.16669,1725716022.169084,146.0,0.0,4877.05127,4343.589844,4266.282227,4325.0,4248.846191,4170.769043,3951.923096,4285.897461,4284.871582,4273.846191,4505.641113,4566.282227,4398.461426,4461.025879,2867.0,1.0,15.0,,,,0.0,4.0,4.0,4.0,4.0,4.0,4.0,4.0,4.0,4.0,4.0,4.0,4.0,4.0,4.0,100.0,,,,,,,,,,,,,,,,,,,,,,,,,,,,,,,,,,,,,,,,,,,,,,,,,,,,,,,,,,,,,,,,,,,,,,,,,,,,,,,,,,,,,,,,,,,,,,,,,,,,,,,,,,,,,,,,,,,,,,,,,,,,,,,,,,,
1725716022.170595,1725716022.172988,147.0,0.0,4872.307617,4340.512695,4263.974121,4320.897461,4246.410156,4169.358887,3947.307617,4284.102539,4280.769043,4267.563965,4503.461426,4561.538574,4392.563965,4457.179688,3117.0,1.0,15.0,,,,0.0,4.0,4.0,4.0,4.0,4.0,4.0,4.0,4.0,4.0,4.0,4.0,4.0,4.0,4.0,100.0,,,,,,,,,,,,,,,,,,,,,,,,,,,,,,,,,,,,,,,,,,,,,,,,,,,,,,,,,,,,,,,,,,,,,,,,,,,,,,,,,,,,,,,,,,,,,,,,,,,,,,,,,,,,,,,,,,,,,,,,,,,,,,,,,,,
1725716022.174499,1725716022.176792,148.0,0.0,4866.153809,4336.666504,4259.230957,4315.897461,4242.307617,4167.307617,3942.435791,4280.512695,4278.461426,4262.692383,4498.589844,4555.769043,4386.410156,4452.436035,3391.0,1.0,15.0,,,,0.0,4.0,4.0,4.0,4.0,4.0,4.0,4.0,4.0,4.0,4.0,4.0,4.0,4.0,4.0,100.0,,,,,,,,,,,,,,,,,1.0,0.0,0.0,,,,,,,,,,,,,,,,,,,,,,,,,,,,,,,,,,,,,0.0,0.0,64.0,0.337299,1.0,0.0,28.311487,1.685172,1.513927,0.41527,0.103318,1.372223,0.690898,0.730957,0.187502,0.076164,1.048444,1.079538,0.787581,0.208864,0.056395,1.297866,1.121978,0.697108,0.191602,0.072787,0.806787,0.258295,0.250557,0.097705,0.039585,0.282045,0.284506,0.202744,0.1073,0.046072,5.320774,0.837772,0.462732,0.083552,0.043027,0.976791,1.358573,0.769131,0.195546,0.104271,1.101306,1.318976,0.736366,0.2255,0.072004,1.377449,1.755186,0.93715,0.246653,0.058656,2.170353,2.876699,1.946943,0.348442,0.122151,2.541816,3.00237,2.280375,0.324401,0.103347,3.059032,3.210354,1.704066,0.39609,0.152694,2.190044,2.402642,1.171069,0.408467,0.096433
1725716022.178403,1725716022.180696,149.0,0.0,4859.358887,4331.538574,4252.820313,4311.153809,4237.307617,4165.512695,3938.718018,4277.179688,4278.205078,4258.974121,4490.641113,4549.102539,4379.358887,4446.410156,3817.0,1.0,15.0,,,,0.0,4.0,4.0,4.0,4.0,4.0,4.0,4.0,4.0,4.0,4.0,4.0,4.0,4.0,4.0,100.0,,,,,,,,,,,,,,,,,,,,,,,,,,,,,,,,,,,,,,,,,,,,,,,,,,,,,,,,,,,,,,,,,,,,,,,,,,,,,,,,,,,,,,,,,,,,,,,,,,,,,,,,,,,,,,,,,,,,,,,,,,,,,,,,,,,
1725716022.182307,1725716022.1846,150.0,0.0,4851.922852,4325.512695,4246.666504,4307.179688,4232.563965,4164.743652,3936.538574,4276.282227,4278.846191,4256.153809,4481.922852,4542.307617,4371.538574,4439.615234,2867.0,1.0,15.0,,,,0.0,4.0,4.0,4.0,4.0,4.0,4.0,4.0,4.0,4.0,4.0,4.0,4.0,4.0,4.0,100.0,,,,,,,,,,,,,,,,,,,,,,,,,,,,,,,,,,,,,,,,,,,,,,,,,,,,,,,,,,,,,,,,,,,,,,,,,,,,,,,,,,,,,,,,,,,,,,,,,,,,,,,,,,,,,,,,,,,,,,,,,,,,,,,,,,,
1725716022.186211,1725716022.188505,151.0,0.0,4844.102539,4320.769043,4243.461426,4304.487305,4229.487305,4165.0,3935.769287,4278.077148,4280.0,4255.0,4477.05127,4537.05127,4365.384766,4435.128418,3117.0,1.0,15.0,,,,0.0,4.0,4.0,4.0,4.0,4.0,4.0,4.0,4.0,4.0,4.0,4.0,4.0,4.0,4.0,100.0,,,,,,,,,,,,,,,,,,,,,,,,,,,,,,,,,,,,,,,,,,,,,,,,,,,,,,,,,,,,,,,,,,,,,,,,,,,,,,,,,,,,,,,,,,,,,,,,,,,,,,,,,,,,,,,,,,,,,,,,,,,,,,,,,,,
1725716022.190115,1725716022.192409,152.0,0.0,4837.05127,4320.128418,4245.0,4303.846191,4229.487305,4165.897461,3936.153809,4281.666504,4282.179688,4257.436035,4478.717773,4536.666504,4364.358887,4435.897461,3391.0,1.0,15.0,,,,0.0,4.0,4.0,4.0,4.0,4.0,4.0,4.0,4.0,4.0,4.0,4.0,4.0,4.0,4.0,100.0,,,,,,,,,,,,,,,,,,,,,,,,,,,,,,,,,,,,,,,,,,,,,,,,,,,,,,,,,,,,,,,,,,,,,,,,,,,,,,,,,,,,,,,,,,,,,,,,,,,,,,,,,,,,,,,,,,,,,,,,,,,,,,,,,,,
1725716022.194019,1725716022.196213,153.0,0.0,4832.692383,4325.128418,4250.769043,4306.153809,4232.179688,4167.05127,3937.307617,4286.153809,4286.922852,4264.487305,4486.410156,4542.94873,4371.153809,4442.692383,3817.0,1.0,15.0,,,,0.0,4.0,4.0,4.0,4.0,4.0,4.0,4.0,4.0,4.0,4.0,4.0,4.0,4.0,4.0,100.0,,,,,,,,,,,,,,,,,,,,,,,,,,,,,,,,,,,,,,,,,,,,,,,,,,,,,,,,,,,,,,,,,,,,,,,,,,,,,,,,,,,,,,,,,,,,,,,,,,,,,,,,,,,,,,,,,,,,,,,,,,,,,,,,,,,
1725716022.197923,1725716022.200117,154.0,0.0,4831.410156,4334.487305,4258.333496,4311.666504,4236.410156,4168.205078,3938.974365,4291.410156,4294.487305,4274.615234,4496.794922,4554.615234,4384.487305,4453.077148,2867.0,1.0,15.0,,,,0.0,4.0,4.0,4.0,4.0,4.0,4.0,4.0,4.0,4.0,4.0,4.0,4.0,4.0,4.0,100.0,,,,,,,,,,,,,,,,,,,,,,,,,,,,,,,,,,,,,,,,,,,,,,,,,,,,,,,,,,,,,,,,,,,,,,,,,,,,,,,,,,,,,,,,,,,,,,,,,,,,,,,,,,,,,,,,,,,,,,,,,,,,,,,,,,,
1725716022.201827,1725716022.204021,155.0,0.0,4832.307617,4343.974121,4264.615234,4319.102539,4240.769043,4169.358887,3940.641113,4296.538574,4302.94873,4284.487305,4505.769043,4566.922852,4400.0,4462.820313,3117.0,1.0,15.0,,,,0.0,4.0,4.0,4.0,4.0,4.0,4.0,4.0,4.0,4.0,4.0,4.0,4.0,4.0,4.0,100.0,,,,,,,,,,,,,,,,,,,,,,,,,,,,,,,,,,,,,,,,,,,,,,,,,,,,,,,,,,,,,,,,,,,,,,,,,,,,,,,,,,,,,,,,,,,,,,,,,,,,,,,,,,,,,,,,,,,,,,,,,,,,,,,,,,,
1725716022.205732,1725716022.207825,156.0,0.0,4832.05127,4350.641113,4268.205078,4326.153809,4244.358887,4170.256348,3941.794922,4299.871582,4308.205078,4290.512695,4511.410156,4574.230957,4412.179688,4468.589844,3391.0,1.0,15.0,,,,0.0,4.0,4.0,4.0,4.0,4.0,4.0,4.0,4.0,4.0,4.0,4.0,4.0,4.0,4.0,100.0,,,,,,,,,,,,,,,,,,,,,,,,,,,,,,,,,,,,,,,,,,,,,,,,,,,,,,,,0.0,0.0,64.0,0.337299,1.0,0.0,,,,,,,,,,,,,,,,,,,,,,,,,,,,,,,,,,,,,,,,,,,,,,,,,,,,,,,,,,,,,,,,,,,,,,
1725716022.209636,1725716022.211729,157.0,0.0,4828.589844,4353.461426,4269.102539,4330.384766,4246.922852,4170.512695,3942.05127,4299.358887,4308.205078,4291.282227,4513.205078,4573.846191,4417.179688,4468.974121,3817.0,1.0,15.0,,,,0.0,4.0,4.0,4.0,4.0,4.0,4.0,4.0,4.0,4.0,4.0,4.0,4.0,4.0,4.0,100.0,,,,,,,,,,,,,,,,,,,,,,,,,,,,,,,,,,,,,,,,,,,,,,,,,,,,,,,,,,,,,,,,,,,,,,,,,,,,,,,,,,,,,,,,,,,,,,,,,,,,,,,,,,,,,,,,,,,,,,,,,,,,,,,,,,,
1725716022.21354,1725716022.215633,158.0,0.0,4821.282227,4354.230957,4268.333496,4330.384766,4248.205078,4170.128418,3942.179443,4294.743652,4303.589844,4287.692383,4511.666504,4567.179688,4415.0,4465.128418,2867.0,1.0,15.0,,,,0.0,4.0,4.0,4.0,4.0,4.0,4.0,4.0,4.0,4.0,4.0,4.0,4.0,4.0,4.0,100.0,,,,,,,,,,,,,,,,,,,,,,,,,,,,,,,,,,,,,,,,,,,,,,,,,,,,,,,,,,,,,,,,,,,,,,,,,,,,,,,,,,,,,,,,,,,,,,,,,,,,,,,,,,,,,,,,,,,,,,,,,,,,,,,,,,,
1725716022.217444,1725716022.219637,159.0,0.0,4811.410156,4354.871582,4266.794922,4326.794922,4247.563965,4169.230957,3942.692383,4287.563965,4297.94873,4282.436035,4507.307617,4557.436035,4408.846191,4459.102539,3117.0,1.0,15.0,,,,0.0,4.0,4.0,4.0,4.0,4.0,4.0,4.0,4.0,4.0,4.0,4.0,4.0,4.0,4.0,100.0,,,,,,,,,,,,,,,,,,,,,,,,,,,,,,,,,,,,,,,,,,,,,,,,,,,,,,,,,,,,,,,,,,,,,,,,,,,,,,,,,,,,,,,,,,,,,,,,,,,,,,,,,,,,,,,,,,,,,,,,,,,,,,,,,,,
1725716022.221348,1725716022.223542,160.0,0.0,4800.769043,4356.025879,4264.871582,4321.794922,4245.384766,4168.077148,3944.102539,4281.282227,4294.102539,4278.333496,4501.153809,4548.333496,4402.179688,4452.692383,3391.0,1.0,15.0,,,,0.0,4.0,4.0,4.0,4.0,4.0,4.0,4.0,4.0,4.0,4.0,4.0,4.0,4.0,4.0,100.0,,,,,,,,,,,,,,,,,,,,,,,,,,,,,,,,,,,,,,,,,,,,,,,,,,,,,,,,,,,,,,,,,,,,,,,,,,,,,,,,,,,,,,,,,,,,,,,,,,,,,,,,,,,,,,,,,,,,,,,,,,,,,,,,,,,
1725716022.225252,1725716022.227446,161.0,0.0,4790.384766,4356.666504,4262.563965,4317.94873,4242.692383,4167.179688,3946.153809,4278.589844,4293.333496,4276.410156,4495.512695,4542.307617,4397.563965,4447.436035,3817.0,1.0,15.0,,,,0.0,4.0,4.0,4.0,4.0,4.0,4.0,4.0,4.0,4.0,4.0,4.0,4.0,4.0,4.0,100.0,,,,,,,,,,,,,,,,,,,,,,,,,,,,,,,,,,,,,,,,,,,,,,,,,,,,,,,,,,,,,,,,,,,,,,,,,,,,,,,,,,,,,,,,,,,,,,,,,,,,,,,,,,,,,,,,,,,,,,,,,,,,,,,,,,,
1725716022.229156,1725716022.23135,162.0,0.0,4779.871582,4355.641113,4259.871582,4316.666504,4241.153809,4166.794922,3948.461426,4279.615234,4294.230957,4276.025879,4492.179688,4539.358887,4395.769043,4444.230957,2867.0,1.0,15.0,,,,0.0,4.0,4.0,4.0,4.0,4.0,4.0,4.0,4.0,4.0,4.0,4.0,4.0,4.0,4.0,100.0,,,,,,,,,,,,,,,,,,,,,,,,,,,,,,,,,,,,,,,,,,,,,,,,,,,,,,,,,,,,,,,,,,,,,,,,,,,,,,,,,,,,,,,,,,,,,,,,,,,,,,,,,,,,,,,,,,,,,,,,,,,,,,,,,,,
1725716022.23306,1725716022.235354,163.0,0.0,4767.820313,4353.077148,4257.692383,4317.692383,4241.282227,4167.179688,3950.769287,4282.05127,4294.871582,4275.512695,4492.692383,4538.717773,4396.922852,4443.461426,3117.0,1.0,15.0,,,,0.0,4.0,4.0,4.0,4.0,4.0,4.0,4.0,4.0,4.0,4.0,4.0,4.0,4.0,4.0,100.0,,,,,,,,,,,,,,,,,,,,,,,,,,,,,,,,,,,,,,,,,,,,,,,,,,,,,,,,,,,,,,,,,,,,,,,,,,,,,,,,,,,,,,,,,,,,,,,,,,,,,,,,,,,,,,,,,,,,,,,,,,,,,,,,,,,
1725716022.236964,1725716022.239258,164.0,0.0,4753.846191,4350.128418,4256.538574,4320.0,4242.179688,4168.077148,3953.205078,4283.205078,4293.974121,4275.128418,4496.538574,4539.230957,4399.871582,4444.871582,3391.0,1.0,15.0,,,,0.0,4.0,4.0,4.0,4.0,4.0,4.0,4.0,4.0,4.0,4.0,4.0,4.0,4.0,4.0,100.0,,,,,,,,,,,,,,,,,,,,,,,,,,,,,,,,,,,,,,,,,,,,,,,,,,,,,,,,0.0,0.0,64.0,0.337299,1.0,0.0,,,,,,,,,,,,,,,,,,,,,,,,,,,,,,,,,,,,,,,,,,,,,,,,,,,,,,,,,,,,,,,,,,,,,,
1725716022.240868,1725716022.243162,165.0,0.0,4738.717773,4348.717773,4257.179688,4322.436035,4241.922852,4168.846191,3956.666748,4282.692383,4291.666504,4275.384766,4502.05127,4540.0,4403.333496,4447.179688,3817.0,1.0,15.0,,,,0.0,4.0,4.0,4.0,4.0,4.0,4.0,4.0,4.0,4.0,4.0,4.0,4.0,4.0,4.0,100.0,,,,,,,,,,,,,,,,,,,,,,,,,,,,,,,,,,,,,,,,,,,,,,,,,,,,,,,,,,,,,,,,,,,,,,,,,,,,,,,,,,,,,,,,,,,,,,,,,,,,,,,,,,,,,,,,,,,,,,,,,,,,,,,,,,,
1725716022.244773,1725716022.247066,166.0,0.0,4723.846191,4349.871582,4259.743652,4324.743652,4239.871582,4168.974121,3961.153809,4281.282227,4288.717773,4276.922852,4506.282227,4540.512695,4405.769043,4449.102539,2867.0,1.0,15.0,,,,0.0,4.0,4.0,4.0,4.0,4.0,4.0,4.0,4.0,4.0,4.0,4.0,4.0,4.0,4.0,100.0,,,,,,,,,,,,,,,,,,,,,,,,,,,,,,,,,,,,,,,,,,,,,,,,,,,,,,,,,,,,,,,,,,,,,,,,,,,,,,,,,,,,,,,,,,,,,,,,,,,,,,,,,,,,,,,,,,,,,,,,,,,,,,,,,,,
1725716022.248677,1725716022.25097,167.0,0.0,4709.102539,4353.205078,4263.205078,4326.410156,4237.05127,4168.461426,3966.410156,4279.487305,4286.025879,4278.846191,4507.436035,4540.256348,4405.897461,4449.487305,3117.0,1.0,15.0,,,,0.0,4.0,4.0,4.0,4.0,4.0,4.0,4.0,4.0,4.0,4.0,4.0,4.0,4.0,4.0,100.0,,,,,,,,,,,,,,,,,,,,,,,,,,,,,,,,,,,,,,,,,,,,,,,,,,,,,,,,,,,,,,,,,,,,,,,,,,,,,,,,,,,,,,,,,,,,,,,,,,,,,,,,,,,,,,,,,,,,,,,,,,,,,,,,,,,
1725716022.252581,1725716022.254874,168.0,0.0,4693.205078,4356.538574,4265.641113,4327.307617,4234.871582,4167.820313,3971.794922,4277.307617,4283.461426,4279.615234,4505.512695,4539.230957,4403.974121,4448.461426,3391.0,1.0,15.0,,,,0.0,4.0,4.0,4.0,4.0,4.0,4.0,4.0,4.0,4.0,4.0,4.0,4.0,4.0,4.0,100.0,,,,,,,,,,,,,,,,,,,,,,,,,,,,,,,,,,,,,,,,,,,,,,,,,,,,,,,,,,,,,,,,,,,,,,,,,,,,,,,,,,,,,,,,,,,,,,,,,,,,,,,,,,,,,,,,,,,,,,,,,,,,,,,,,,,
1725716022.256485,1725716022.258778,169.0,0.0,4674.487305,4357.94873,4265.769043,4327.179688,4234.230957,4168.077148,3976.923096,4274.615234,4281.025879,4278.846191,4502.436035,4538.333496,4400.897461,4446.666504,3817.0,1.0,15.0,,,,0.0,4.0,4.0,4.0,4.0,4.0,4.0,4.0,4.0,4.0,4.0,4.0,4.0,4.0,4.0,100.0,,,,,,,,,,,,,,,,,,,,,,,,,,,,,,,,,,,,,,,,,,,,,,,,,,,,,,,,,,,,,,,,,,,,,,,,,,,,,,,,,,,,,,,,,,,,,,,,,,,,,,,,,,,,,,,,,,,,,,,,,,,,,,,,,,,
1725716022.260389,1725716022.262782,170.0,0.0,4653.077148,4357.179688,4264.358887,4326.794922,4234.743652,4169.615234,3982.307617,4272.05127,4279.358887,4277.692383,4500.641113,4538.077148,4398.205078,4445.384766,2867.0,1.0,15.0,,,,0.0,4.0,4.0,4.0,4.0,4.0,4.0,4.0,4.0,4.0,4.0,4.0,4.0,4.0,4.0,100.0,,,,,,,,,,,,,,,,,,,,,,,,,,,,,,,,,,,,,,,,,,,,,,,,,,,,,,,,,,,,,,,,,,,,,,,,,,,,,,,,,,,,,,,,,,,,,,,,,,,,,,,,,,,,,,,,,,,,,,,,,,,,,,,,,,,
1725716022.264293,1725716022.266686,171.0,0.0,4630.256348,4355.769043,4263.589844,4326.666504,4235.641113,4171.538574,3988.718018,4270.897461,4278.974121,4277.307617,4501.666504,4538.589844,4397.436035,4445.384766,3117.0,1.0,15.0,,,,0.0,4.0,4.0,4.0,4.0,4.0,4.0,4.0,4.0,4.0,4.0,4.0,4.0,4.0,4.0,100.0,,,,,,,,,,,,,,,,,,,,,,,,,,,,,,,,,,,,,,,,,,,,,,,,,,,,,,,,,,,,,,,,,,,,,,,,,,,,,,,,,,,,,,,,,,,,,,,,,,,,,,,,,,,,,,,,,,,,,,,,,,,,,,,,,,,
1725716022.268197,1725716022.270591,172.0,0.0,4607.820313,4355.256348,4265.128418,4326.922852,4235.897461,4172.307617,3996.281982,4271.410156,4279.487305,4277.820313,4504.615234,4539.230957,4398.717773,4446.153809,3391.0,1.0,15.0,,,,0.0,4.0,4.0,4.0,4.0,4.0,4.0,4.0,4.0,4.0,4.0,4.0,4.0,4.0,4.0,100.0,,,,,,,,,,,,,,,,,,,,,,,,,,,,,,,,,,,,,,,,,,,,,,,,,,,,,,,,0.0,0.0,64.0,0.337299,1.0,0.0,,,,,,,,,,,,,,,,,,,,,,,,,,,,,,,,,,,,,,,,,,,,,,,,,,,,,,,,,,,,,,,,,,,,,,
1725716022.272101,1725716022.274495,173.0,0.0,4586.282227,4355.769043,4269.487305,4326.666504,4235.512695,4171.666504,4005.0,4272.563965,4279.871582,4277.563965,4506.922852,4539.358887,4400.641113,4446.538574,3817.0,1.0,15.0,,,,0.0,4.0,4.0,4.0,4.0,4.0,4.0,4.0,4.0,4.0,4.0,4.0,4.0,4.0,4.0,100.0,,,,,,,,,,,,,,,,,,,,,,,,,,,,,,,,,,,,,,,,,,,,,,,,,,,,,,,,,,,,,,,,,,,,,,,,,,,,,,,,,,,,,,,,,,,,,,,,,,,,,,,,,,,,,,,,,,,,,,,,,,,,,,,,,,,
1725716022.276005,1725716022.278399,174.0,0.0,4566.025879,4356.410156,4274.743652,4325.641113,4234.871582,4170.769043,4013.718018,4272.94873,4278.589844,4275.384766,4506.794922,4538.974121,4401.025879,4445.769043,2867.0,1.0,15.0,,,,0.0,4.0,4.0,4.0,4.0,4.0,4.0,4.0,4.0,4.0,4.0,4.0,4.0,4.0,4.0,100.0,,,,,,,,,,,,,,,,,,,,,,,,,,,,,,,,,,,,,,,,,,,,,,,,,,,,,,,,,,,,,,,,,,,,,,,,,,,,,,,,,,,,,,,,,,,,,,,,,,,,,,,,,,,,,,,,,,,,,,,,,,,,,,,,,,,
1725716022.279909,1725716022.282203,175.0,0.0,4547.179688,4356.666504,4279.230957,4324.871582,4234.743652,4171.410156,4022.05127,4271.282227,4275.384766,4271.282227,4503.846191,4538.077148,4398.717773,4444.487305,3117.0,1.0,15.0,,,,0.0,4.0,4.0,4.0,4.0,4.0,4.0,4.0,4.0,4.0,4.0,4.0,4.0,4.0,4.0,100.0,,,,,,,,,,,,,,,,,,,,,,,,,,,,,,,,,,,,,,,,,,,,,,,,,,,,,,,,,,,,,,,,,,,,,,,,,,,,,,,,,,,,,,,,,,,,,,,,,,,,,,,,,,,,,,,,,,,,,,,,,,,,,,,,,,,
1725716022.283813,1725716022.286107,176.0,0.0,4529.487305,4356.794922,4281.538574,4325.897461,4235.512695,4174.487305,4029.487061,4268.205078,4270.897461,4266.666504,4499.358887,4537.05127,4394.615234,4443.205078,3391.0,1.0,15.0,,,,0.0,4.0,4.0,4.0,4.0,4.0,4.0,4.0,4.0,4.0,4.0,4.0,4.0,4.0,4.0,100.0,,,,,,,,,,,,,,,,,,,,,,,,,,,,,,,,,,,,,,,,,,,,,,,,,,,,,,,,,,,,,,,,,,,,,,,,,,,,,,,,,,,,,,,,,,,,,,,,,,,,,,,,,,,,,,,,,,,,,,,,,,,,,,,,,,,
1725716022.287717,1725716022.290011,177.0,0.0,4512.436035,4357.436035,4282.820313,4328.846191,4236.794922,4178.846191,4036.538574,4265.0,4266.538574,4263.589844,4494.358887,4535.897461,4391.025879,4442.307617,3817.0,1.0,15.0,,,,0.0,4.0,4.0,4.0,4.0,4.0,4.0,4.0,4.0,4.0,4.0,4.0,4.0,4.0,4.0,100.0,,,,,,,,,,,,,,,,,,,,,,,,,,,,,,,,,,,,,,,,,,,,,,,,,,,,,,,,,,,,,,,,,,,,,,,,,,,,,,,,,,,,,,,,,,,,,,,,,,,,,,,,,,,,,,,,,,,,,,,,,,,,,,,,,,,
1725716022.291622,1725716022.293915,178.0,0.0,4495.128418,4358.333496,4284.358887,4332.05127,4237.563965,4182.563965,4043.974365,4262.563965,4264.358887,4262.94873,4490.897461,4534.871582,4389.615234,4442.05127,2867.0,1.0,15.0,,,,0.0,4.0,4.0,4.0,4.0,4.0,4.0,4.0,4.0,4.0,4.0,4.0,4.0,4.0,4.0,100.0,,,,,,,,,,,,,,,,,,,,,,,,,,,,,,,,,,,,,,,,,,,,,,,,,,,,,,,,,,,,,,,,,,,,,,,,,,,,,,,,,,,,,,,,,,,,,,,,,,,,,,,,,,,,,,,,,,,,,,,,,,,,,,,,,,,
1725716022.295526,1725716022.29772,179.0,0.0,4477.436035,4358.717773,4287.179688,4333.846191,4237.307617,4184.102539,4052.307617,4260.512695,4264.871582,4263.717773,4490.384766,4533.974121,4390.128418,4442.05127,3117.0,1.0,15.0,,,,0.0,4.0,4.0,4.0,4.0,4.0,4.0,4.0,4.0,4.0,4.0,4.0,4.0,4.0,4.0,100.0,,,,,,,,,,,,,,,,,,,,,,,,,,,,,,,,,,,,,,,,,,,,,,,,,,,,,,,,,,,,,,,,,,,,,,,,,,,,,,,,,,,,,,,,,,,,,,,,,,,,,,,,,,,,,,,,,,,,,,,,,,,,,,,,,,,
1725716022.29943,1725716022.301624,180.0,0.0,4459.358887,4358.461426,4290.769043,4334.102539,4236.153809,4183.589844,4061.410156,4257.94873,4266.794922,4263.717773,4492.05127,4532.94873,4390.512695,4441.282227,3391.0,1.0,15.0,,,,0.0,4.0,4.0,4.0,4.0,4.0,4.0,4.0,4.0,4.0,4.0,4.0,4.0,4.0,4.0,100.0,1.0,41.666668,1.0,4.0,4.0,4.0,4.0,3.0,1.0,4.0,4.0,4.0,4.0,4.0,4.0,4.0,1.0,0.0,0.0,,,,,,,,,,,,,,,,,,,,,,,,,,,,,,,,,,,,,0.0,0.0,64.0,0.218258,1.0,0.0,33.102524,1.727635,1.620351,0.388009,0.104309,1.469135,0.680624,0.765292,0.192212,0.07186,0.95479,1.040836,0.801599,0.22167,0.059729,1.324387,1.031207,0.714996,0.176832,0.066299,0.896822,0.244709,0.26031,0.106,0.037363,0.258773,0.314467,0.20158,0.115641,0.049158,5.554029,0.700603,0.43414,0.082934,0.048712,1.29452,1.219528,0.810501,0.192797,0.099813,1.507412,1.189936,0.794663,0.227412,0.071362,1.812897,1.692673,1.007746,0.245125,0.053541,2.70101,2.743584,1.997576,0.351262,0.1268,2.68632,2.728,2.259604,0.320081,0.10438,3.599743,3.29432,1.764997,0.384043,0.152778,2.289532,2.251302,1.207923,0.406973,0.098601
1725716022.303334,1725716022.305528,181.0,0.0,4441.025879,4357.692383,4293.589844,4333.846191,4234.871582,4182.436035,4070.512939,4253.846191,4267.563965,4261.410156,4493.461426,4531.153809,4388.717773,4438.461426,3817.0,1.0,15.0,,,,0.0,4.0,4.0,4.0,4.0,4.0,4.0,4.0,4.0,4.0,4.0,4.0,4.0,4.0,4.0,100.0,,,,,,,,,,,,,,,,,,,,,,,,,,,,,,,,,,,,,,,,,,,,,,,,,,,,,,,,,,,,,,,,,,,,,,,,,,,,,,,,,,,,,,,,,,,,,,,,,,,,,,,,,,,,,,,,,,,,,,,,,,,,,,,,,,,
1725716022.307238,1725716022.309432,182.0,0.0,4421.922852,4357.436035,4295.256348,4334.615234,4234.102539,4182.563965,4079.230713,4248.717773,4265.256348,4256.410156,4492.05127,4528.589844,4384.102539,4434.230957,2867.0,1.0,15.0,,,,0.0,4.0,4.0,4.0,4.0,4.0,4.0,4.0,4.0,4.0,4.0,4.0,4.0,4.0,4.0,100.0,,,,,,,,,,,,,,,,,,,,,,,,,,,,,,,,,,,,,,,,,,,,,,,,,,,,,,,,,,,,,,,,,,,,,,,,,,,,,,,,,,,,,,,,,,,,,,,,,,,,,,,,,,,,,,,,,,,,,,,,,,,,,,,,,,,
1725716022.311142,1725716022.313236,183.0,0.0,4402.05127,4358.589844,4296.538574,4336.666504,4234.871582,4184.230957,4087.692383,4243.974121,4259.871582,4250.897461,4488.205078,4526.282227,4378.717773,4430.769043,3117.0,1.0,15.0,,,,0.0,4.0,4.0,4.0,4.0,4.0,4.0,4.0,4.0,4.0,4.0,4.0,4.0,4.0,4.0,100.0,,,,,,,,,,,,,,,,,,,,,,,,,,,,,,,,,,,,,,,,,,,,,,,,,,,,,,,,,,,,,,,,,,,,,,,,,,,,,,,,,,,,,,,,,,,,,,,,,,,,,,,,,,,,,,,,,,,,,,,,,,,,,,,,,,,
1725716022.315046,1725716022.31714,184.0,0.0,4382.307617,4361.538574,4299.358887,4339.743652,4237.307617,4186.282227,4096.410156,4241.794922,4253.974121,4247.307617,4484.743652,4525.897461,4375.641113,4430.641113,3391.0,1.0,15.0,,,,0.0,4.0,4.0,4.0,4.0,4.0,4.0,4.0,4.0,4.0,4.0,4.0,4.0,4.0,4.0,100.0,,,,,,,,,,,,,,,,,,,,,,,,,,,,,,,,,,,,,,,,,,,,,,,,,,,,,,,,,,,,,,,,,,,,,,,,,,,,,,,,,,,,,,,,,,,,,,,,,,,,,,,,,,,,,,,,,,,,,,,,,,,,,,,,,,,
1725716022.31895,1725716022.321044,185.0,0.0,4364.358887,4365.128418,4303.974121,4342.820313,4241.025879,4187.179688,4105.897461,4242.94873,4250.128418,4247.179688,4484.230957,4529.102539,4377.05127,4434.615234,3817.0,1.0,15.0,,,,0.0,4.0,4.0,4.0,4.0,4.0,4.0,4.0,4.0,4.0,4.0,4.0,4.0,4.0,4.0,100.0,,,,,,,,,,,,,,,,,,,,,,,,,,,,,,,,,,,,,,,,,,,,,,,,,,,,,,,,,,,,,,,,,,,,,,,,,,,,,,,,,,,,,,,,,,,,,,,,,,,,,,,,,,,,,,,,,,,,,,,,,,,,,,,,,,,
1725716022.322854,1725716022.325048,186.0,0.0,4348.333496,4367.307617,4308.974121,4344.871582,4244.358887,4186.666504,4115.769043,4246.153809,4249.358887,4249.487305,4486.666504,4534.871582,4381.794922,4440.512695,2867.0,1.0,15.0,,,,0.0,4.0,4.0,4.0,4.0,4.0,4.0,4.0,4.0,4.0,4.0,4.0,4.0,4.0,4.0,100.0,,,,,,,,,,,,,,,,,,,,,,,,,,,,,,,,,,,,,,,,,,,,,,,,,,,,,,,,,,,,,,,,,,,,,,,,,,,,,,,,,,,,,,,,,,,,,,,,,,,,,,,,,,,,,,,,,,,,,,,,,,,,,,,,,,,
1725716022.326759,1725716022.328952,187.0,0.0,4332.692383,4366.282227,4312.179688,4345.641113,4246.025879,4186.282227,4125.256348,4248.461426,4250.769043,4251.153809,4488.846191,4540.0,4385.897461,4444.358887,3117.0,1.0,15.0,,,,0.0,4.0,4.0,4.0,4.0,4.0,4.0,4.0,4.0,4.0,4.0,4.0,4.0,4.0,4.0,100.0,,,,,,,,,,,,,,,,,,,,,,,,,,,,,,,,,,,,,,,,,,,,,,,,,,,,,,,,,,,,,,,,,,,,,,,,,,,,,,,,,,,,,,,,,,,,,,,,,,,,,,,,,,,,,,,,,,,,,,,,,,,,,,,,,,,
1725716022.330663,1725716022.332856,188.0,0.0,4315.384766,4362.820313,4312.692383,4345.769043,4245.897461,4187.94873,4133.974121,4247.692383,4251.922852,4250.256348,4487.692383,4540.897461,4385.512695,4443.205078,3391.0,1.0,15.0,,,,0.0,4.0,4.0,4.0,4.0,4.0,4.0,4.0,4.0,4.0,4.0,4.0,4.0,4.0,4.0,100.0,,,,,,,,,,,,,,,,,,,,,,,,,,,,,,,,,,,,,,,,,,,,,,,,,,,,,,,,0.0,0.0,64.0,0.218258,1.0,0.0,,,,,,,,,,,,,,,,,,,,,,,,,,,,,,,,,,,,,,,,,,,,,,,,,,,,,,,,,,,,,,,,,,,,,,
1725716022.334567,1725716022.33686,189.0,0.0,4295.897461,4358.974121,4311.794922,4345.641113,4245.256348,4192.179688,4142.563965,4244.871582,4251.922852,4247.05127,4482.94873,4536.538574,4379.871582,4437.820313,3817.0,1.0,15.0,,,,0.0,4.0,4.0,4.0,4.0,4.0,4.0,4.0,4.0,4.0,4.0,4.0,4.0,4.0,4.0,100.0,,,,,,,,,,,,,,,,,,,,,,,,,,,,,,,,,,,,,,,,,,,,,,,,,,,,,,,,,,,,,,,,,,,,,,,,,,,,,,,,,,,,,,,,,,,,,,,,,,,,,,,,,,,,,,,,,,,,,,,,,,,,,,,,,,,
1725716022.338471,1725716022.340765,190.0,0.0,4275.512695,4357.307617,4312.05127,4345.256348,4245.897461,4197.563965,4152.179688,4242.307617,4250.512695,4243.974121,4477.436035,4529.743652,4372.05127,4431.794922,2867.0,1.0,15.0,,,,0.0,4.0,4.0,4.0,4.0,4.0,4.0,4.0,4.0,4.0,4.0,4.0,4.0,4.0,4.0,100.0,,,,,,,,,,,,,,,,,,,,,,,,,,,,,,,,,,,,,,,,,,,,,,,,,,,,,,,,,,,,,,,,,,,,,,,,,,,,,,,,,,,,,,,,,,,,,,,,,,,,,,,,,,,,,,,,,,,,,,,,,,,,,,,,,,,
1725716022.342375,1725716022.344669,191.0,0.0,4256.922852,4357.820313,4314.615234,4344.358887,4247.820313,4201.538574,4163.461426,4242.05127,4248.589844,4243.333496,4474.358887,4524.358887,4366.410156,4428.205078,3117.0,1.0,15.0,,,,0.0,4.0,4.0,4.0,4.0,4.0,4.0,4.0,4.0,4.0,4.0,4.0,4.0,4.0,4.0,100.0,,,,,,,,,,,,,,,,,,,,,,,,,,,,,,,,,,,,,,,,,,,,,,,,,,,,,,,,,,,,,,,,,,,,,,,,,,,,,,,,,,,,,,,,,,,,,,,,,,,,,,,,,,,,,,,,,,,,,,,,,,,,,,,,,,,
1725716022.346279,1725716022.348573,192.0,0.0,4241.153809,4359.230957,4318.333496,4343.077148,4249.743652,4202.563965,4175.769043,4243.846191,4247.436035,4244.230957,4474.358887,4522.94873,4364.743652,4427.820313,3391.0,1.0,15.0,,,,0.0,4.0,4.0,4.0,4.0,4.0,4.0,4.0,4.0,4.0,4.0,4.0,4.0,4.0,4.0,100.0,,,,,,,,,,,,,,,,,,,,,,,,,,,,,,,,,,,,,,,,,,,,,,,,,,,,,,,,,,,,,,,,,,,,,,,,,,,,,,,,,,,,,,,,,,,,,,,,,,,,,,,,,,,,,,,,,,,,,,,,,,,,,,,,,,,
1725716022.350183,1725716022.352477,193.0,0.0,4227.179688,4359.743652,4321.025879,4342.05127,4250.512695,4201.153809,4187.563965,4246.153809,4248.077148,4244.230957,4474.871582,4523.846191,4365.641113,4428.717773,3817.0,1.0,15.0,,,,0.0,4.0,4.0,4.0,4.0,4.0,4.0,4.0,4.0,4.0,4.0,4.0,4.0,4.0,4.0,100.0,,,,,,,,,,,,,,,,,,,,,,,,,,,,,,,,,,,,,,,,,,,,,,,,,,,,,,,,,,,,,,,,,,,,,,,,,,,,,,,,,,,,,,,,,,,,,,,,,,,,,,,,,,,,,,,,,,,,,,,,,,,,,,,,,,,
1725716022.354087,1725716022.356281,194.0,0.0,4213.077148,4358.974121,4321.538574,4342.563965,4250.769043,4199.871582,4197.436035,4247.307617,4250.128418,4241.666504,4472.692383,4523.846191,4365.641113,4428.589844,2867.0,1.0,15.0,,,,0.0,4.0,4.0,4.0,4.0,4.0,4.0,4.0,4.0,4.0,4.0,4.0,4.0,4.0,4.0,100.0,,,,,,,,,,,,,,,,,,,,,,,,,,,,,,,,,,,,,,,,,,,,,,,,,,,,,,,,,,,,,,,,,,,,,,,,,,,,,,,,,,,,,,,,,,,,,,,,,,,,,,,,,,,,,,,,,,,,,,,,,,,,,,,,,,,
1725716022.357991,1725716022.360185,195.0,0.0,4196.666504,4357.820313,4320.384766,4344.358887,4251.538574,4200.769043,4205.128418,4246.922852,4251.666504,4237.307617,4467.05127,4521.025879,4362.820313,4426.025879,3117.0,1.0,15.0,,,,0.0,4.0,4.0,4.0,4.0,4.0,4.0,4.0,4.0,4.0,4.0,4.0,4.0,4.0,4.0,100.0,,,,,,,,,,,,,,,,,,,,,,,,,,,,,,,,,,,,,,,,,,,,,,,,,,,,,,,,,,,,,,,,,,,,,,,,,,,,,,,,,,,,,,,,,,,,,,,,,,,,,,,,,,,,,,,,,,,,,,,,,,,,,,,,,,,
1725716022.361895,1725716022.364089,196.0,0.0,4177.436035,4356.922852,4318.974121,4346.282227,4252.94873,4204.743652,4212.307617,4245.384766,4250.641113,4233.461426,4460.256348,4515.897461,4357.692383,4421.666504,3391.0,1.0,15.0,,,,0.0,4.0,4.0,4.0,4.0,4.0,4.0,4.0,4.0,4.0,4.0,4.0,4.0,4.0,4.0,100.0,,,,,,,,,,,,,,,,,,,,,,,,,,,,,,,,,,,,,,,,,,,,,,,,,,,,,,,,0.0,0.0,64.0,0.218258,1.0,0.0,,,,,,,,,,,,,,,,,,,,,,,,,,,,,,,,,,,,,,,,,,,,,,,,,,,,,,,,,,,,,,,,,,,,,,
1725716022.3658,1725716022.368093,197.0,0.0,4156.922852,4356.153809,4318.589844,4346.666504,4254.358887,4210.384766,4220.641113,4243.846191,4246.282227,4231.410156,4455.512695,4511.794922,4352.179688,4417.436035,3817.0,1.0,15.0,,,,0.0,4.0,4.0,4.0,4.0,4.0,4.0,4.0,4.0,4.0,4.0,4.0,4.0,4.0,4.0,100.0,,,,,,,,,,,,,,,,,,,,,,,,,,,,,,,,,,,,,,,,,,,,,,,,,,,,,,,,,,,,,,,,,,,,,,,,,,,,,,,,,,,,,,,,,,,,,,,,,,,,,,,,,,,,,,,,,,,,,,,,,,,,,,,,,,,
1725716022.369704,1725716022.371997,198.0,0.0,4137.692383,4354.743652,4319.743652,4345.384766,4255.128418,4215.0,4231.025879,4243.333496,4240.512695,4230.256348,4455.256348,4511.410156,4347.820313,4415.0,2867.0,1.0,15.0,,,,0.0,4.0,4.0,4.0,4.0,4.0,4.0,4.0,4.0,4.0,4.0,4.0,4.0,4.0,4.0,100.0,,,,,,,,,,,,,,,,,,,,,,,,,,,,,,,,,,,,,,,,,,,,,,,,,,,,,,,,,,,,,,,,,,,,,,,,,,,,,,,,,,,,,,,,,,,,,,,,,,,,,,,,,,,,,,,,,,,,,,,,,,,,,,,,,,,
1725716022.373608,1725716022.375902,199.0,0.0,4121.666504,4352.179688,4322.307617,4344.102539,4255.256348,4216.666504,4242.692383,4244.358887,4236.282227,4228.077148,4459.102539,4514.871582,4345.0,4414.487305,3117.0,1.0,15.0,,,,0.0,4.0,4.0,4.0,4.0,4.0,4.0,4.0,4.0,4.0,4.0,4.0,4.0,4.0,4.0,100.0,,,,,,,,,,,,,,,,,,,,,,,,,,,,,,,,,,,,,,,,,,,,,,,,,,,,,,,,,,,,,,,,,,,,,,,,,,,,,,,,,,,,,,,,,,,,,,,,,,,,,,,,,,,,,,,,,,,,,,,,,,,,,,,,,,,
1725716022.377512,1725716022.379806,200.0,0.0,4107.94873,4349.102539,4326.282227,4344.487305,4255.128418,4215.512695,4254.102539,4246.282227,4235.384766,4224.358887,4464.230957,4520.128418,4343.205078,4415.128418,3391.0,1.0,15.0,,,,0.0,4.0,4.0,4.0,4.0,4.0,4.0,4.0,4.0,4.0,4.0,4.0,4.0,4.0,4.0,100.0,,,,,,,,,,,,,,,,,,,,,,,,,,,,,,,,,,,,,,,,,,,,,,,,,,,,,,,,,,,,,,,,,,,,,,,,,,,,,,,,,,,,,,,,,,,,,,,,,,,,,,,,,,,,,,,,,,,,,,,,,,,,,,,,,,,
1725716022.381416,1725716022.38371,201.0,0.0,4093.718018,4345.769043,4331.153809,4346.410156,4255.256348,4214.102539,4264.102539,4247.94873,4238.077148,4221.025879,4466.922852,4524.615234,4341.538574,4415.512695,3817.0,1.0,15.0,,,,0.0,4.0,4.0,4.0,4.0,4.0,4.0,4.0,4.0,4.0,4.0,4.0,4.0,4.0,4.0,100.0,,,,,,,,,,,,,,,,,,,,,,,,,,,,,,,,,,,,,,,,,,,,,,,,,,,,,,,,,,,,,,,,,,,,,,,,,,,,,,,,,,,,,,,,,,,,,,,,,,,,,,,,,,,,,,,,,,,,,,,,,,,,,,,,,,,
1725716022.38532,1725716022.387514,202.0,0.0,4075.897461,4342.563965,4335.128418,4347.436035,4255.769043,4214.743652,4272.179688,4248.974121,4243.461426,4221.153809,4465.256348,4526.153809,4339.487305,4415.0,2867.0,1.0,15.0,,,,0.0,4.0,4.0,4.0,4.0,4.0,4.0,4.0,4.0,4.0,4.0,4.0,4.0,4.0,4.0,100.0,,,,,,,,,,,,,,,,,,,,,,,,,,,,,,,,,,,,,,,,,,,,,,,,,,,,,,,,,,,,,,,,,,,,,,,,,,,,,,,,,,,,,,,,,,,,,,,,,,,,,,,,,,,,,,,,,,,,,,,,,,,,,,,,,,,
1725716022.389224,1725716022.391418,203.0,0.0,4053.461426,4339.743652,4336.153809,4345.512695,4255.897461,4217.436035,4279.358887,4249.615234,4249.358887,4225.641113,4460.256348,4523.846191,4337.05127,4412.820313,3117.0,1.0,15.0,,,,0.0,4.0,4.0,4.0,4.0,4.0,4.0,4.0,4.0,4.0,4.0,4.0,4.0,4.0,4.0,100.0,,,,,,,,,,,,,,,,,,,,,,,,,,,,,,,,,,,,,,,,,,,,,,,,,,,,,,,,,,,,,,,,,,,,,,,,,,,,,,,,,,,,,,,,,,,,,,,,,,,,,,,,,,,,,,,,,,,,,,,,,,,,,,,,,,,
1725716022.393128,1725716022.395322,204.0,0.0,4028.718018,4337.436035,4333.461426,4340.641113,4254.615234,4219.871582,4286.794922,4250.384766,4253.077148,4231.922852,4454.743652,4518.461426,4335.128418,4408.846191,3391.0,1.0,15.0,,,,0.0,4.0,4.0,4.0,4.0,4.0,4.0,4.0,4.0,4.0,4.0,4.0,4.0,4.0,4.0,100.0,,,,,,,,,,,,,,,,,,,,,,,,,,,,,,,,,,,,,,,,,,,,,,,,,,,,,,,,0.0,0.0,64.0,0.218258,1.0,0.0,,,,,,,,,,,,,,,,,,,,,,,,,,,,,,,,,,,,,,,,,,,,,,,,,,,,,,,,,,,,,,,,,,,,,,
1725716022.397032,1725716022.399226,205.0,0.0,4005.256348,4335.897461,4328.717773,4335.0,4252.436035,4220.128418,4295.128418,4250.512695,4253.333496,4236.153809,4451.282227,4512.179688,4334.230957,4403.589844,3817.0,1.0,15.0,,,,0.0,4.0,4.0,4.0,4.0,4.0,4.0,4.0,4.0,4.0,4.0,4.0,4.0,4.0,4.0,100.0,,,,,,,,,,,,,,,,,,,,,,,,,,,,,,,,,,,,,,,,,,,,,,,,,,,,,,,,,,,,,,,,,,,,,,,,,,,,,,,,,,,,,,,,,,,,,,,,,,,,,,,,,,,,,,,,,,,,,,,,,,,,,,,,,,,
1725716022.400936,1725716022.40303,206.0,0.0,3985.769287,4335.0,4325.256348,4331.025879,4250.641113,4218.589844,4304.487305,4249.230957,4250.0,4235.769043,4451.282227,4507.563965,4334.743652,4398.846191,2867.0,1.0,15.0,,,,0.0,4.0,4.0,4.0,4.0,4.0,4.0,4.0,4.0,4.0,4.0,4.0,4.0,4.0,4.0,100.0,,,,,,,,,,,,,,,,,,,,,,,,,,,,,,,,,,,,,,,,,,,,,,,,,,,,,,,,,,,,,,,,,,,,,,,,,,,,,,,,,,,,,,,,,,,,,,,,,,,,,,,,,,,,,,,,,,,,,,,,,,,,,,,,,,,
1725716022.404841,1725716022.406935,207.0,0.0,3971.281982,4334.230957,4325.512695,4330.128418,4250.512695,4218.077148,4314.615234,4246.153809,4245.128418,4232.307617,4453.846191,4505.897461,4335.512695,4396.282227,3117.0,1.0,15.0,,,,0.0,4.0,4.0,4.0,4.0,4.0,4.0,4.0,4.0,4.0,4.0,4.0,4.0,4.0,4.0,100.0,,,,,,,,,,,,,,,,,,,,,,,,,,,,,,,,,,,,,,,,,,,,,,,,,,,,,,,,,,,,,,,,,,,,,,,,,,,,,,,,,,,,,,,,,,,,,,,,,,,,,,,,,,,,,,,,,,,,,,,,,,,,,,,,,,,
1725716022.408745,1725716022.410839,208.0,0.0,3960.512939,4332.94873,4328.974121,4331.794922,4251.538574,4220.384766,4325.256348,4241.922852,4240.384766,4229.102539,4456.153809,4506.410156,4335.0,4395.897461,3391.0,1.0,15.0,,,,0.0,4.0,4.0,4.0,4.0,4.0,4.0,4.0,4.0,4.0,4.0,4.0,4.0,4.0,4.0,100.0,,,,,,,,,,,,,,,,,,,,,,,,,,,,,,,,,,,,,,,,,,,,,,,,,,,,,,,,,,,,,,,,,,,,,,,,,,,,,,,,,,,,,,,,,,,,,,,,,,,,,,,,,,,,,,,,,,,,,,,,,,,,,,,,,,,
1725716022.412649,1725716022.414743,209.0,0.0,3951.794922,4330.897461,4332.820313,4334.487305,4252.436035,4225.384766,4336.025879,4237.94873,4236.922852,4228.974121,4456.025879,4507.179688,4332.563965,4396.153809,3817.0,1.0,15.0,,,,0.0,4.0,4.0,4.0,4.0,4.0,4.0,4.0,4.0,4.0,4.0,4.0,4.0,4.0,4.0,100.0,,,,,,,,,,,,,,,,,,,,,,,,,,,,,,,,,,,,,,,,,,,,,,,,,,,,,,,,,,,,,,,,,,,,,,,,,,,,,,,,,,,,,,,,,,,,,,,,,,,,,,,,,,,,,,,,,,,,,,,,,,,,,,,,,,,
1725716022.416553,1725716022.418547,210.0,0.0,3943.333252,4327.94873,4333.589844,4336.153809,4252.436035,4230.641113,4346.153809,4234.871582,4234.615234,4230.769043,4452.563965,4505.641113,4329.358887,4395.256348,2867.0,1.0,15.0,,,,0.0,4.0,4.0,4.0,4.0,4.0,4.0,4.0,4.0,4.0,4.0,4.0,4.0,4.0,4.0,100.0,,,,,,,,,,,,,,,,,,,,,,,,,,,,,,,,,,,,,,,,,,,,,,,,,,,,,,,,,,,,,,,,,,,,,,,,,,,,,,,,,,,,,,,,,,,,,,,,,,,,,,,,,,,,,,,,,,,,,,,,,,,,,,,,,,,
1725716022.420457,1725716022.422451,211.0,0.0,3934.230713,4325.384766,4330.641113,4335.384766,4251.794922,4233.589844,4355.641113,4233.205078,4233.461426,4231.666504,4447.179688,4501.025879,4327.307617,4392.692383,3117.0,1.0,15.0,,,,0.0,4.0,4.0,4.0,4.0,4.0,4.0,4.0,4.0,4.0,4.0,4.0,4.0,4.0,4.0,100.0,,,,,,,,,,,,,,,,,,,,,,,,,,,,,,,,,,,,,,,,,,,,,,,,,,,,,,,,,,,,,,,,,,,,,,,,,,,,,,,,,,,,,,,,,,,,,,,,,,,,,,,,,,,,,,,,,,,,,,,,,,,,,,,,,,,
1725716022.424361,1725716022.426355,212.0,0.0,3924.615479,4324.230957,4326.538574,4332.94873,4252.179688,4233.333496,4364.871582,4232.692383,4233.461426,4229.358887,4442.820313,4495.0,4327.94873,4389.615234,3391.0,1.0,15.0,,,,0.0,4.0,4.0,4.0,4.0,4.0,4.0,4.0,4.0,4.0,4.0,4.0,4.0,4.0,4.0,100.0,,,,,,,,,,,,,,,,,1.0,0.0,0.0,,,,,,,,,,,,,,,,,,,,,,,,,,,,,,,,,,,,,0.0,0.0,64.0,0.366222,1.0,0.0,34.935883,1.989165,1.616559,0.332453,0.105546,1.392488,0.621445,0.733124,0.184594,0.069437,0.813189,0.904381,0.731059,0.214222,0.060023,1.20094,0.85091,0.680092,0.158749,0.059561,0.931023,0.238165,0.250591,0.104894,0.035937,0.242003,0.340173,0.179633,0.117605,0.04955,5.493499,0.561116,0.389609,0.0815,0.055986,1.572517,0.984964,0.783923,0.185844,0.094108,1.863167,0.97348,0.778007,0.217019,0.06787,2.246999,1.460567,0.968208,0.226355,0.05143,3.138803,2.294242,1.822067,0.331678,0.129594,2.75898,2.183338,2.025468,0.30134,0.106895,3.961224,2.977543,1.615552,0.35296,0.144206,2.295347,1.850473,1.118121,0.372772,0.095614
1725716022.428265,1725716022.430359,213.0,0.0,3914.871826,4325.0,4324.615234,4330.512695,4254.871582,4231.666504,4374.871582,4233.461426,4234.487305,4224.358887,4442.179688,4490.128418,4330.769043,4387.692383,3817.0,1.0,15.0,,,,0.0,4.0,4.0,4.0,4.0,4.0,4.0,4.0,4.0,4.0,4.0,4.0,4.0,4.0,4.0,100.0,,,,,,,,,,,,,,,,,,,,,,,,,,,,,,,,,,,,,,,,,,,,,,,,,,,,,,,,,,,,,,,,,,,,,,,,,,,,,,,,,,,,,,,,,,,,,,,,,,,,,,,,,,,,,,,,,,,,,,,,,,,,,,,,,,,
1725716022.432169,1725716022.434263,214.0,0.0,3905.0,4326.538574,4326.666504,4329.615234,4258.717773,4231.153809,4385.128418,4235.0,4235.384766,4219.615234,4445.0,4488.846191,4333.846191,4386.922852,2867.0,1.0,15.0,,,,0.0,4.0,4.0,4.0,4.0,4.0,4.0,4.0,4.0,4.0,4.0,4.0,4.0,4.0,4.0,100.0,,,,,,,,,,,,,,,,,,,,,,,,,,,,,,,,,,,,,,,,,,,,,,,,,,,,,,,,,,,,,,,,,,,,,,,,,,,,,,,,,,,,,,,,,,,,,,,,,,,,,,,,,,,,,,,,,,,,,,,,,,,,,,,,,,,
1725716022.436073,1725716022.438167,215.0,0.0,3894.743652,4327.563965,4331.153809,4330.641113,4261.666504,4232.94873,4394.102539,4236.153809,4235.0,4217.692383,4448.333496,4490.641113,4334.487305,4386.410156,3117.0,1.0,15.0,,,,0.0,4.0,4.0,4.0,4.0,4.0,4.0,4.0,4.0,4.0,4.0,4.0,4.0,4.0,4.0,100.0,,,,,,,,,,,,,,,,,,,,,,,,,,,,,,,,,,,,,,,,,,,,,,,,,,,,,,,,,,,,,,,,,,,,,,,,,,,,,,,,,,,,,,,,,,,,,,,,,,,,,,,,,,,,,,,,,,,,,,,,,,,,,,,,,,,
1725716022.439978,1725716022.442171,216.0,0.0,3883.589844,4327.307617,4335.0,4332.179688,4261.666504,4235.641113,4400.384766,4236.153809,4233.589844,4218.461426,4448.717773,4492.179688,4331.794922,4384.487305,3391.0,1.0,15.0,,,,0.0,4.0,4.0,4.0,4.0,4.0,4.0,4.0,4.0,4.0,4.0,4.0,4.0,4.0,4.0,100.0,,,,,,,,,,,,,,,,,,,,,,,,,,,,,,,,,,,,,,,,,,,,,,,,,,,,,,,,,,,,,,,,,,,,,,,,,,,,,,,,,,,,,,,,,,,,,,,,,,,,,,,,,,,,,,,,,,,,,,,,,,,,,,,,,,,
1725716022.443882,1725716022.446075,217.0,0.0,3872.179443,4326.538574,4336.410156,4332.94873,4259.743652,4237.05127,4404.871582,4234.743652,4232.563965,4220.256348,4445.769043,4491.794922,4327.179688,4381.666504,3817.0,1.0,15.0,,,,0.0,4.0,4.0,4.0,4.0,4.0,4.0,4.0,4.0,4.0,4.0,4.0,4.0,4.0,4.0,100.0,,,,,,,,,,,,,,,,,,,,,,,,,,,,,,,,,,,,,,,,,,,,,,,,,,,,,,,,,,,,,,,,,,,,,,,,,,,,,,,,,,,,,,,,,,,,,,,,,,,,,,,,,,,,,,,,,,,,,,,,,,,,,,,,,,,
1725716022.447786,1725716022.44998,218.0,0.0,3862.179443,4325.641113,4336.410156,4333.077148,4258.205078,4236.025879,4409.871582,4233.461426,4233.205078,4221.538574,4442.179688,4490.256348,4323.974121,4380.0,2867.0,1.0,15.0,,,,0.0,4.0,4.0,4.0,4.0,4.0,4.0,4.0,4.0,4.0,4.0,4.0,4.0,4.0,4.0,100.0,,,,,,,,,,,,,,,,,,,,,,,,,,,,,,,,,,,,,,,,,,,,,,,,,,,,,,,,,,,,,,,,,,,,,,,,,,,,,,,,,,,,,,,,,,,,,,,,,,,,,,,,,,,,,,,,,,,,,,,,,,,,,,,,,,,
1725716022.45169,1725716022.453884,219.0,0.0,3855.128174,4325.0,4337.692383,4333.589844,4258.461426,4233.717773,4417.307617,4233.589844,4235.0,4221.922852,4441.410156,4490.769043,4324.615234,4381.282227,3117.0,1.0,15.0,,,,0.0,4.0,4.0,4.0,4.0,4.0,4.0,4.0,4.0,4.0,4.0,4.0,4.0,4.0,4.0,100.0,,,,,,,,,,,,,,,,,,,,,,,,,,,,,,,,,,,,,,,,,,,,,,,,,,,,,,,,,,,,,,,,,,,,,,,,,,,,,,,,,,,,,,,,,,,,,,,,,,,,,,,,,,,,,,,,,,,,,,,,,,,,,,,,,,,
1725716022.455594,1725716022.457788,220.0,0.0,3851.025635,4324.358887,4341.025879,4335.256348,4260.0,4232.692383,4427.05127,4235.128418,4236.666504,4221.666504,4444.102539,4493.974121,4328.077148,4384.743652,3391.0,1.0,15.0,,,,0.0,4.0,4.0,4.0,4.0,4.0,4.0,4.0,4.0,4.0,4.0,4.0,4.0,4.0,4.0,100.0,,,,,,,,,,,,,,,,,,,,,,,,,,,,,,,,,,,,,,,,,,,,,,,,,,,,,,,,0.0,0.0,64.0,0.366222,1.0,0.0,,,,,,,,,,,,,,,,,,,,,,,,,,,,,,,,,,,,,,,,,,,,,,,,,,,,,,,,,,,,,,,,,,,,,,
1725716022.459498,1725716022.461592,221.0,0.0,3848.589844,4323.846191,4345.256348,4337.436035,4260.769043,4235.0,4437.179688,4236.794922,4236.794922,4220.897461,4446.794922,4497.307617,4331.025879,4387.692383,3817.0,1.0,15.0,,,,0.0,4.0,4.0,4.0,4.0,4.0,4.0,4.0,4.0,4.0,4.0,4.0,4.0,4.0,4.0,100.0,,,,,,,,,,,,,,,,,,,,,,,,,,,,,,,,,,,,,,,,,,,,,,,,,,,,,,,,,,,,,,,,,,,,,,,,,,,,,,,,,,,,,,,,,,,,,,,,,,,,,,,,,,,,,,,,,,,,,,,,,,,,,,,,,,,
1725716022.463402,1725716022.465496,222.0,0.0,3845.769287,4323.717773,4348.205078,4339.102539,4259.743652,4239.743652,4445.384766,4236.922852,4235.0,4219.615234,4445.769043,4496.666504,4330.0,4387.05127,2867.0,1.0,15.0,,,,0.0,4.0,4.0,4.0,4.0,4.0,4.0,4.0,4.0,4.0,4.0,4.0,4.0,4.0,4.0,100.0,,,,,,,,,,,,,,,,,,,,,,,,,,,,,,,,,,,,,,,,,,,,,,,,,,,,,,,,,,,,,,,,,,,,,,,,,,,,,,,,,,,,,,,,,,,,,,,,,,,,,,,,,,,,,,,,,,,,,,,,,,,,,,,,,,,
1725716022.467306,1725716022.4694,223.0,0.0,3841.666748,4323.974121,4348.077148,4339.230957,4256.794922,4243.717773,4450.512695,4235.0,4231.794922,4217.820313,4440.384766,4491.153809,4324.743652,4382.563965,3117.0,1.0,15.0,,,,0.0,4.0,4.0,4.0,4.0,4.0,4.0,4.0,4.0,4.0,4.0,4.0,4.0,4.0,4.0,100.0,,,,,,,,,,,,,,,,,,,,,,,,,,,,,,,,,,,,,,,,,,,,,,,,,,,,,,,,,,,,,,,,,,,,,,,,,,,,,,,,,,,,,,,,,,,,,,,,,,,,,,,,,,,,,,,,,,,,,,,,,,,,,,,,,,,
1725716022.47121,1725716022.473404,224.0,0.0,3836.923096,4323.589844,4345.512695,4338.077148,4253.077148,4245.256348,4452.94873,4232.05127,4228.846191,4216.025879,4433.205078,4483.717773,4318.974121,4377.307617,3391.0,1.0,15.0,,,,0.0,4.0,4.0,4.0,4.0,4.0,4.0,4.0,4.0,4.0,4.0,4.0,4.0,4.0,4.0,100.0,,,,,,,,,,,,,,,,,,,,,,,,,,,,,,,,,,,,,,,,,,,,,,,,,,,,,,,,,,,,,,,,,,,,,,,,,,,,,,,,,,,,,,,,,,,,,,,,,,,,,,,,,,,,,,,,,,,,,,,,,,,,,,,,,,,
1725716022.475114,1725716022.477308,225.0,0.0,3833.076904,4321.282227,4342.820313,4336.025879,4250.512695,4244.743652,4455.256348,4230.384766,4228.077148,4214.871582,4428.461426,4479.871582,4316.922852,4375.128418,3817.0,1.0,15.0,,,,0.0,4.0,4.0,4.0,4.0,4.0,4.0,4.0,4.0,4.0,4.0,4.0,4.0,4.0,4.0,100.0,,,,,,,,,,,,,,,,,,,,,,,,,,,,,,,,,,,,,,,,,,,,,,,,,,,,,,,,,,,,,,,,,,,,,,,,,,,,,,,,,,,,,,,,,,,,,,,,,,,,,,,,,,,,,,,,,,,,,,,,,,,,,,,,,,,
1725716022.479018,1725716022.481212,226.0,0.0,3831.666748,4317.05127,4341.666504,4334.487305,4249.743652,4244.358887,4459.358887,4231.282227,4230.0,4215.641113,4428.333496,4482.307617,4320.256348,4377.436035,2867.0,1.0,15.0,,,,0.0,4.0,4.0,4.0,4.0,4.0,4.0,4.0,4.0,4.0,4.0,4.0,4.0,4.0,4.0,100.0,,,,,,,,,,,,,,,,,,,,,,,,,,,,,,,,,,,,,,,,,,,,,,,,,,,,,,,,,,,,,,,,,,,,,,,,,,,,,,,,,,,,,,,,,,,,,,,,,,,,,,,,,,,,,,,,,,,,,,,,,,,,,,,,,,,
1725716022.482922,1725716022.485117,227.0,0.0,3832.307617,4312.692383,4342.563965,4333.846191,4250.641113,4245.384766,4465.384766,4234.230957,4233.589844,4218.077148,4431.538574,4488.846191,4326.153809,4381.794922,3117.0,1.0,15.0,,,,0.0,4.0,4.0,4.0,4.0,4.0,4.0,4.0,4.0,4.0,4.0,4.0,4.0,4.0,4.0,100.0,,,,,,,,,,,,,,,,,,,,,,,,,,,,,,,,,,,,,,,,,,,,,,,,,,,,,,,,,,,,,,,,,,,,,,,,,,,,,,,,,,,,,,,,,,,,,,,,,,,,,,,,,,,,,,,,,,,,,,,,,,,,,,,,,,,
1725716022.486827,1725716022.489021,228.0,0.0,3833.205078,4310.769043,4343.717773,4334.230957,4251.666504,4247.307617,4471.025879,4237.179688,4236.153809,4220.512695,4434.358887,4493.846191,4329.743652,4384.358887,3391.0,1.0,15.0,,,,0.0,4.0,4.0,4.0,4.0,4.0,4.0,4.0,4.0,4.0,4.0,4.0,4.0,4.0,4.0,100.0,,,,,,,,,,,,,,,,,,,,,,,,,,,,,,,,,,,,,,,,,,,,,,,,,,,,,,,,0.0,0.0,64.0,0.366222,1.0,0.0,,,,,,,,,,,,,,,,,,,,,,,,,,,,,,,,,,,,,,,,,,,,,,,,,,,,,,,,,,,,,,,,,,,,,,
1725716022.490731,1725716022.492825,229.0,0.0,3832.564209,4312.563965,4343.589844,4334.615234,4252.05127,4248.077148,4474.358887,4237.692383,4235.512695,4220.512695,4434.230957,4492.94873,4327.692383,4382.692383,3817.0,1.0,15.0,,,,0.0,4.0,4.0,4.0,4.0,4.0,4.0,4.0,4.0,4.0,4.0,4.0,4.0,4.0,4.0,100.0,,,,,,,,,,,,,,,,,,,,,,,,,,,,,,,,,,,,,,,,,,,,,,,,,,,,,,,,,,,,,,,,,,,,,,,,,,,,,,,,,,,,,,,,,,,,,,,,,,,,,,,,,,,,,,,,,,,,,,,,,,,,,,,,,,,
1725716022.494635,1725716022.496729,230.0,0.0,3830.128174,4316.025879,4341.922852,4334.230957,4251.794922,4246.153809,4476.153809,4235.512695,4232.563965,4217.436035,4431.153809,4486.666504,4321.282227,4378.205078,2867.0,1.0,15.0,,,,0.0,4.0,4.0,4.0,4.0,4.0,4.0,4.0,4.0,4.0,4.0,4.0,4.0,4.0,4.0,100.0,,,,,,,,,,,,,,,,,,,,,,,,,,,,,,,,,,,,,,,,,,,,,,,,,,,,,,,,,,,,,,,,,,,,,,,,,,,,,,,,,,,,,,,,,,,,,,,,,,,,,,,,,,,,,,,,,,,,,,,,,,,,,,,,,,,
1725716022.498539,1725716022.500633,231.0,0.0,3826.666748,4317.692383,4339.743652,4332.692383,4251.794922,4241.410156,4478.333496,4232.436035,4229.615234,4212.563965,4427.820313,4479.102539,4314.230957,4373.717773,3117.0,1.0,15.0,,,,0.0,4.0,4.0,4.0,4.0,4.0,4.0,4.0,4.0,4.0,4.0,4.0,4.0,4.0,4.0,100.0,,,,,,,,,,,,,,,,,,,,,,,,,,,,,,,,,,,,,,,,,,,,,,,,,,,,,,,,,,,,,,,,,,,,,,,,,,,,,,,,,,,,,,,,,,,,,,,,,,,,,,,,,,,,,,,,,,,,,,,,,,,,,,,,,,,
1725716022.502443,1725716022.504537,232.0,0.0,3823.076904,4314.871582,4338.461426,4330.384766,4251.922852,4236.410156,4481.794922,4230.769043,4228.717773,4207.820313,4426.410156,4474.871582,4309.743652,4370.897461,3391.0,1.0,15.0,,,,0.0,4.0,4.0,4.0,4.0,4.0,4.0,4.0,4.0,4.0,4.0,4.0,4.0,4.0,4.0,100.0,,,,,,,,,,,,,,,,,,,,,,,,,,,,,,,,,,,,,,,,,,,,,,,,,,,,,,,,,,,,,,,,,,,,,,,,,,,,,,,,,,,,,,,,,,,,,,,,,,,,,,,,,,,,,,,,,,,,,,,,,,,,,,,,,,,
1725716022.506347,1725716022.508341,233.0,0.0,3820.512939,4307.563965,4337.692383,4328.077148,4251.666504,4233.717773,4485.384766,4231.282227,4229.615234,4204.487305,4426.922852,4475.512695,4308.589844,4369.615234,3817.0,1.0,15.0,,,,0.0,4.0,4.0,4.0,4.0,4.0,4.0,4.0,4.0,4.0,4.0,4.0,4.0,4.0,4.0,100.0,,,,,,,,,,,,,,,,,,,,,,,,,,,,,,,,,,,,,,,,,,,,,,,,,,,,,,,,,,,,,,,,,,,,,,,,,,,,,,,,,,,,,,,,,,,,,,,,,,,,,,,,,,,,,,,,,,,,,,,,,,,,,,,,,,,
1725716022.510251,1725716022.512245,234.0,0.0,3819.615479,4298.717773,4336.282227,4326.025879,4250.641113,4234.871582,4486.922852,4233.205078,4231.282227,4202.94873,4426.922852,4478.333496,4309.230957,4368.589844,2867.0,1.0,15.0,,,,0.0,4.0,4.0,4.0,4.0,4.0,4.0,4.0,4.0,4.0,4.0,4.0,4.0,4.0,4.0,100.0,,,,,,,,,,,,,,,,,,,,,,,,,,,,,,,,,,,,,,,,,,,,,,,,,,,,,,,,,,,,,,,,,,,,,,,,,,,,,,,,,,,,,,,,,,,,,,,,,,,,,,,,,,,,,,,,,,,,,,,,,,,,,,,,,,,
1725716022.514155,1725716022.51615,235.0,0.0,3821.025635,4292.307617,4333.077148,4324.358887,4248.974121,4238.717773,4485.384766,4234.743652,4232.05127,4202.94873,4424.102539,4479.615234,4309.358887,4366.666504,3117.0,1.0,15.0,,,,0.0,4.0,4.0,4.0,4.0,4.0,4.0,4.0,4.0,4.0,4.0,4.0,4.0,4.0,4.0,100.0,,,,,,,,,,,,,,,,,,,,,,,,,,,,,,,,,,,,,,,,,,,,,,,,,,,,,,,,,,,,,,,,,,,,,,,,,,,,,,,,,,,,,,,,,,,,,,,,,,,,,,,,,,,,,,,,,,,,,,,,,,,,,,,,,,,
1725716022.518059,1725716022.520054,236.0,0.0,3824.615479,4290.512695,4328.846191,4323.333496,4247.179688,4242.436035,4482.307617,4234.230957,4231.666504,4204.102539,4419.358887,4477.692383,4307.820313,4363.974121,3391.0,1.0,15.0,,,,0.0,4.0,4.0,4.0,4.0,4.0,4.0,4.0,4.0,4.0,4.0,4.0,4.0,4.0,4.0,100.0,,,,,,,,,,,,,,,,,,,,,,,,,,,,,,,,,,,,,,,,,,,,,,,,,,,,,,,,0.0,0.0,64.0,0.366222,1.0,0.0,,,,,,,,,,,,,,,,,,,,,,,,,,,,,,,,,,,,,,,,,,,,,,,,,,,,,,,,,,,,,,,,,,,,,,
1725716022.521963,1725716022.523858,237.0,0.0,3830.256348,4292.307617,4326.025879,4323.205078,4246.666504,4243.205078,4480.769043,4232.05127,4230.512695,4206.282227,4415.769043,4474.102539,4305.0,4361.794922,3817.0,1.0,15.0,,,,0.0,4.0,4.0,4.0,4.0,4.0,4.0,4.0,4.0,4.0,4.0,4.0,4.0,4.0,4.0,100.0,,,,,,,,,,,,,,,,,,,,,,,,,,,,,,,,,,,,,,,,,,,,,,,,,,,,,,,,,,,,,,,,,,,,,,,,,,,,,,,,,,,,,,,,,,,,,,,,,,,,,,,,,,,,,,,,,,,,,,,,,,,,,,,,,,,
1725716022.525868,1725716022.527762,238.0,0.0,3837.307617,4294.615234,4326.410156,4324.358887,4247.820313,4240.897461,4482.179688,4229.615234,4229.487305,4208.974121,4416.153809,4472.436035,4302.820313,4361.666504,2867.0,1.0,15.0,,,,0.0,4.0,4.0,4.0,4.0,4.0,4.0,4.0,4.0,4.0,4.0,4.0,4.0,4.0,4.0,100.0,,,,,,,,,,,,,,,,,,,,,,,,,,,,,,,,,,,,,,,,,,,,,,,,,,,,,,,,,,,,,,,,,,,,,,,,,,,,,,,,,,,,,,,,,,,,,,,,,,,,,,,,,,,,,,,,,,,,,,,,,,,,,,,,,,,
1725716022.529772,1725716022.531666,239.0,0.0,3844.743652,4295.384766,4330.0,4326.282227,4249.743652,4237.179688,4486.282227,4228.846191,4228.974121,4211.794922,4420.256348,4474.102539,4302.692383,4363.461426,3117.0,1.0,15.0,,,,0.0,4.0,4.0,4.0,4.0,4.0,4.0,4.0,4.0,4.0,4.0,4.0,4.0,4.0,4.0,100.0,,,,,,,,,,,,,,,,,,,,,,,,,,,,,,,,,,,,,,,,,,,,,,,,,,,,,,,,,,,,,,,,,,,,,,,,,,,,,,,,,,,,,,,,,,,,,,,,,,,,,,,,,,,,,,,,,,,,,,,,,,,,,,,,,,,
1725716022.533676,1725716022.53567,240.0,0.0,3851.538574,4294.487305,4334.358887,4327.820313,4250.897461,4234.615234,4490.897461,4230.384766,4229.230957,4214.102539,4425.256348,4477.307617,4304.743652,4365.512695,3391.0,1.0,15.0,,,,0.0,4.0,4.0,4.0,4.0,4.0,4.0,4.0,4.0,4.0,4.0,4.0,4.0,4.0,4.0,100.0,,,,,,,,,,,,,,,,,,,,,,,,,,,,,,,,,,,,,,,,,,,,,,,,,,,,,,,,,,,,,,,,,,,,,,,,,,,,,,,,,,,,,,,,,,,,,,,,,,,,,,,,,,,,,,,,,,,,,,,,,,,,,,,,,,,
1725716022.53758,1725716022.539574,241.0,0.0,3856.794922,4293.333496,4337.05127,4328.589844,4250.384766,4233.974121,4493.717773,4233.333496,4230.256348,4215.769043,4428.333496,4478.974121,4307.820313,4366.025879,3817.0,1.0,15.0,,,,0.0,4.0,4.0,4.0,4.0,4.0,4.0,4.0,4.0,4.0,4.0,4.0,4.0,4.0,4.0,100.0,,,,,,,,,,,,,,,,,,,,,,,,,,,,,,,,,,,,,,,,,,,,,,,,,,,,,,,,,,,,,,,,,,,,,,,,,,,,,,,,,,,,,,,,,,,,,,,,,,,,,,,,,,,,,,,,,,,,,,,,,,,,,,,,,,,
1725716022.541484,1725716022.543478,242.0,0.0,3860.256348,4293.461426,4337.05127,4329.615234,4249.230957,4234.743652,4493.589844,4235.256348,4231.666504,4216.666504,4428.077148,4478.077148,4310.128418,4365.0,2867.0,1.0,15.0,,,,0.0,4.0,4.0,4.0,4.0,4.0,4.0,4.0,4.0,4.0,4.0,4.0,4.0,4.0,4.0,100.0,,,,,,,,,,,,,,,,,,,,,,,,,,,,,,,,,,,,,,,,,,,,,,,,,,,,,,,,,,,,,,,,,,,,,,,,,,,,,,,,,,,,,,,,,,,,,,,,,,,,,,,,,,,,,,,,,,,,,,,,,,,,,,,,,,,
1725716022.545388,1725716022.547482,243.0,0.0,3863.589844,4294.871582,4335.769043,4332.05127,4248.974121,4235.512695,4491.794922,4235.0,4233.333496,4216.922852,4425.512695,4476.922852,4310.512695,4364.358887,3117.0,1.0,15.0,,,,0.0,4.0,4.0,4.0,4.0,4.0,4.0,4.0,4.0,4.0,4.0,4.0,4.0,4.0,4.0,100.0,,,,,,,,,,,,,,,,,,,,,,,,,,,,,,,,,,,,,,,,,,,,,,,,,,,,,,,,,,,,,,,,,,,,,,,,,,,,,,,,,,,,,,,,,,,,,,,,,,,,,,,,,,,,,,,,,,,,,,,,,,,,,,,,,,,
1725716022.549292,1725716022.551386,244.0,0.0,3868.718018,4296.794922,4335.384766,4335.769043,4250.769043,4235.769043,4490.512695,4233.846191,4234.871582,4216.666504,4423.589844,4477.820313,4309.358887,4366.153809,3391.0,1.0,15.0,,,,0.0,4.0,4.0,4.0,4.0,4.0,4.0,4.0,4.0,4.0,4.0,4.0,4.0,4.0,4.0,100.0,,,,,,,,,,,,,,,,,1.0,0.0,0.0,,,,,,,,,,,,,,,,,,,,,,,,,,,,,,,,,,,,,0.0,0.0,64.0,0.255029,1.0,0.0,32.0056,2.353133,1.521412,0.269437,0.109008,1.177281,0.536747,0.664775,0.177671,0.070976,0.63357,0.718578,0.605444,0.192189,0.057549,0.965732,0.641717,0.609884,0.142146,0.054292,0.891436,0.245137,0.230926,0.096784,0.035167,0.257253,0.355447,0.146176,0.113394,0.047543,4.744619,0.449437,0.34703,0.078375,0.064055,1.714816,0.737604,0.724991,0.176767,0.088072,2.026426,0.753724,0.71117,0.20084,0.06222,2.560677,1.152442,0.843074,0.200909,0.053431,3.364417,1.701263,1.483592,0.298538,0.132781,2.747674,1.580863,1.682872,0.282077,0.113235,4.076026,2.440091,1.317714,0.331333,0.135146,2.209617,1.368263,0.949238,0.321543,0.091946
1725716022.553196,1725716022.555291,245.0,0.0,3877.307617,4298.077148,4337.179688,4339.487305,4254.743652,4235.769043,4491.153809,4233.333496,4236.153809,4216.538574,4425.0,4481.794922,4308.974121,4370.641113,3817.0,1.0,15.0,,,,0.0,4.0,4.0,4.0,4.0,4.0,4.0,4.0,4.0,4.0,4.0,4.0,4.0,4.0,4.0,100.0,,,,,,,,,,,,,,,,,,,,,,,,,,,,,,,,,,,,,,,,,,,,,,,,,,,,,,,,,,,,,,,,,,,,,,,,,,,,,,,,,,,,,,,,,,,,,,,,,,,,,,,,,,,,,,,,,,,,,,,,,,,,,,,,,,,
1725716022.5571,1725716022.559195,246.0,0.0,3887.820557,4298.333496,4339.615234,4341.794922,4259.615234,4236.025879,4492.820313,4233.846191,4236.153809,4217.179688,4430.128418,4486.666504,4310.897461,4375.769043,2867.0,1.0,15.0,,,,0.0,4.0,4.0,4.0,4.0,4.0,4.0,4.0,4.0,4.0,4.0,4.0,4.0,4.0,4.0,100.0,,,,,,,,,,,,,,,,,,,,,,,,,,,,,,,,,,,,,,,,,,,,,,,,,,,,,,,,,,,,,,,,,,,,,,,,,,,,,,,,,,,,,,,,,,,,,,,,,,,,,,,,,,,,,,,,,,,,,,,,,,,,,,,,,,,
1725716022.561005,1725716022.563099,247.0,0.0,3897.05127,4297.563965,4339.358887,4342.179688,4263.717773,4236.410156,4493.333496,4233.717773,4234.358887,4218.333496,4436.282227,4489.487305,4314.871582,4378.589844,3117.0,1.0,15.0,,,,0.0,4.0,4.0,4.0,4.0,4.0,4.0,4.0,4.0,4.0,4.0,4.0,4.0,4.0,4.0,100.0,,,,,,,,,,,,,,,,,,,,,,,,,,,,,,,,,,,,,,,,,,,,,,,,,,,,,,,,,,,,,,,,,,,,,,,,,,,,,,,,,,,,,,,,,,,,,,,,,,,,,,,,,,,,,,,,,,,,,,,,,,,,,,,,,,,
1725716022.564909,1725716022.566903,248.0,0.0,3902.05127,4296.794922,4333.333496,4341.922852,4265.512695,4237.05127,4492.05127,4231.666504,4231.282227,4218.846191,4440.0,4487.94873,4318.974121,4378.205078,3391.0,1.0,15.0,,,,0.0,4.0,4.0,4.0,4.0,4.0,4.0,4.0,4.0,4.0,4.0,4.0,4.0,4.0,4.0,100.0,,,,,,,,,,,,,,,,,,,,,,,,,,,,,,,,,,,,,,,,,,,,,,,,,,,,,,,,,,,,,,,,,,,,,,,,,,,,,,,,,,,,,,,,,,,,,,,,,,,,,,,,,,,,,,,,,,,,,,,,,,,,,,,,,,,
1725716022.568813,1725716022.570807,249.0,0.0,3902.307617,4296.410156,4321.922852,4342.563965,4264.358887,4237.563965,4490.897461,4227.820313,4228.461426,4218.077148,4440.256348,4482.436035,4321.410156,4375.384766,3817.0,1.0,15.0,,,,0.0,4.0,4.0,4.0,4.0,4.0,4.0,4.0,4.0,4.0,4.0,4.0,4.0,4.0,4.0,100.0,,,,,,,,,,,,,,,,,,,,,,,,,,,,,,,,,,,,,,,,,,,,,,,,,,,,,,,,,,,,,,,,,,,,,,,,,,,,,,,,,,,,,,,,,,,,,,,,,,,,,,,,,,,,,,,,,,,,,,,,,,,,,,,,,,,
1725716022.572717,1725716022.574711,250.0,0.0,3900.128174,4296.410156,4308.717773,4344.871582,4260.897461,4237.436035,4491.410156,4224.102539,4227.179688,4216.794922,4438.205078,4475.769043,4320.769043,4371.794922,2867.0,1.0,15.0,,,,0.0,4.0,4.0,4.0,4.0,4.0,4.0,4.0,4.0,4.0,4.0,4.0,4.0,4.0,4.0,100.0,,,,,,,,,,,,,,,,,,,,,,,,,,,,,,,,,,,,,,,,,,,,,,,,,,,,,,,,,,,,,,,,,,,,,,,,,,,,,,,,,,,,,,,,,,,,,,,,,,,,,,,,,,,,,,,,,,,,,,,,,,,,,,,,,,,
1725716022.576621,1725716022.578715,251.0,0.0,3898.974365,4296.282227,4297.307617,4348.077148,4255.769043,4236.922852,4492.692383,4222.820313,4227.692383,4216.794922,4436.282227,4471.153809,4317.692383,4368.974121,3117.0,1.0,15.0,,,,0.0,4.0,4.0,4.0,4.0,4.0,4.0,4.0,4.0,4.0,4.0,4.0,4.0,4.0,4.0,100.0,,,,,,,,,,,,,,,,,,,,,,,,,,,,,,,,,,,,,,,,,,,,,,,,,,,,,,,,,,,,,,,,,,,,,,,,,,,,,,,,,,,,,,,,,,,,,,,,,,,,,,,,,,,,,,,,,,,,,,,,,,,,,,,,,,,
1725716022.580525,1725716022.582619,252.0,0.0,3901.923096,4296.025879,4290.256348,4350.641113,4250.769043,4236.538574,4492.179688,4225.256348,4229.358887,4218.205078,4435.897461,4470.641113,4315.0,4367.179688,3391.0,1.0,15.0,,,,0.0,4.0,4.0,4.0,4.0,4.0,4.0,4.0,4.0,4.0,4.0,4.0,4.0,4.0,4.0,100.0,,,,,,,,,,,,,,,,,,,,,,,,,,,,,,,,,,,,,,,,,,,,,,,,,,,,,,,,0.0,0.0,64.0,0.255029,1.0,0.0,,,,,,,,,,,,,,,,,,,,,,,,,,,,,,,,,,,,,,,,,,,,,,,,,,,,,,,,,,,,,,,,,,,,,,
1725716022.584429,1725716022.586523,253.0,0.0,3910.897461,4295.769043,4288.077148,4351.410156,4247.563965,4236.282227,4488.205078,4229.871582,4230.641113,4221.153809,4437.820313,4474.358887,4315.769043,4366.538574,3817.0,1.0,15.0,,,,0.0,4.0,4.0,4.0,4.0,4.0,4.0,4.0,4.0,4.0,4.0,4.0,4.0,4.0,4.0,100.0,,,,,,,,,,,,,,,,,,,,,,,,,,,,,,,,,,,,,,,,,,,,,,,,,,,,,,,,,,,,,,,,,,,,,,,,,,,,,,,,,,,,,,,,,,,,,,,,,,,,,,,,,,,,,,,,,,,,,,,,,,,,,,,,,,,
1725716022.588333,1725716022.590427,254.0,0.0,3925.0,4295.769043,4289.871582,4351.282227,4247.307617,4235.897461,4482.05127,4233.974121,4231.282227,4225.256348,4441.538574,4481.153809,4321.794922,4367.692383,2867.0,1.0,15.0,,,,0.0,4.0,4.0,4.0,4.0,4.0,4.0,4.0,4.0,4.0,4.0,4.0,4.0,4.0,4.0,100.0,,,,,,,,,,,,,,,,,,,,,,,,,,,,,,,,,,,,,,,,,,,,,,,,,,,,,,,,,,,,,,,,,,,,,,,,,,,,,,,,,,,,,,,,,,,,,,,,,,,,,,,,,,,,,,,,,,,,,,,,,,,,,,,,,,,
1725716022.592237,1725716022.594332,255.0,0.0,3941.410156,4296.410156,4293.333496,4351.922852,4249.743652,4235.384766,4477.307617,4235.641113,4231.410156,4229.871582,4446.025879,4488.333496,4330.769043,4371.153809,15.0,1.0,15.0,,,,0.0,4.0,4.0,4.0,4.0,4.0,4.0,4.0,4.0,4.0,4.0,4.0,4.0,4.0,4.0,100.0,,,,,,,,,,,,,,,,,,,,,,,,,,,,,,,,,,,,,,,,,,,,,,,,,,,,,,,,,,,,,,,,,,,,,,,,,,,,,,,,,,,,,,,,,,,,,,,,,,,,,,,,,,,,,,,,,,,,,,,,,,,,,,,,,,,
1725716022.596141,1725716022.598136,0.0,0.0,3957.05127,4297.179688,4295.256348,4354.487305,4253.461426,4234.871582,4475.897461,4234.743652,4231.282227,4233.077148,4449.743652,4492.692383,4337.820313,4375.897461,2687.0,1.0,15.0,,,,0.0,4.0,4.0,4.0,4.0,4.0,4.0,4.0,4.0,4.0,4.0,4.0,4.0,4.0,4.0,100.0,,,,,,,,,,,,,,,,,,,,,,,,,,,,,,,,,,,,,,,,,,,,,,,,,,,,,,,,,,,,,,,,,,,,,,,,,,,,,,,,,,,,,,,,,,,,,,,,,,,,,,,,,,,,,,,,,,,,,,,,,,,,,,,,,,,
1725716022.600046,1725716022.60204,1.0,0.0,3969.743652,4297.563965,4293.589844,4358.717773,4257.05127,4234.487305,4477.307617,4233.846191,4231.410156,4233.077148,4451.025879,4492.94873,4338.589844,4380.0,2568.0,1.0,15.0,,,,0.0,4.0,4.0,4.0,4.0,4.0,4.0,4.0,4.0,4.0,4.0,4.0,4.0,4.0,4.0,100.0,,,,,,,,,,,,,,,,,,,,,,,,,,,,,,,,,,,,,,,,,,,,,,,,,,,,,,,,,,,,,,,,,,,,,,,,,,,,,,,,,,,,,,,,,,,,,,,,,,,,,,,,,,,,,,,,,,,,,,,,,,,,,,,,,,,
1725716022.60395,1725716022.605944,2.0,0.0,3979.871826,4297.436035,4288.717773,4363.077148,4259.615234,4234.358887,4478.461426,4235.256348,4231.794922,4230.0,4449.743652,4490.384766,4333.717773,4381.538574,2515.0,1.0,15.0,,,,0.0,4.0,4.0,4.0,4.0,4.0,4.0,4.0,4.0,4.0,4.0,4.0,4.0,4.0,4.0,100.0,,,,,,,,,,,,,,,,,,,,,,,,,,,,,,,,,,,,,,,,,,,,,,,,,,,,,,,,,,,,,,,,,,,,,,,,,,,,,,,,,,,,,,,,,,,,,,,,,,,,,,,,,,,,,,,,,,,,,,,,,,,,,,,,,,,
1725716022.607854,1725716022.609848,3.0,0.0,3989.230713,4296.666504,4283.974121,4365.512695,4260.641113,4234.487305,4476.922852,4239.358887,4232.692383,4225.897461,4447.563965,4488.205078,4327.820313,4380.384766,2471.0,1.0,15.0,,,,0.0,4.0,4.0,4.0,4.0,4.0,4.0,4.0,4.0,4.0,4.0,4.0,4.0,4.0,4.0,100.0,,,,,,,,,,,,,,,,,,,,,,,,,,,,,,,,,,,,,,,,,,,,,,,,,,,,,,,,,,,,,,,,,,,,,,,,,,,,,,,,,,,,,,,,,,,,,,,,,,,,,,,,,,,,,,,,,,,,,,,,,,,,,,,,,,,
1725716022.611758,1725716022.613652,4.0,0.0,4000.128174,4295.897461,4282.436035,4365.512695,4259.615234,4234.487305,4472.179688,4244.615234,4233.589844,4223.589844,4447.179688,4489.487305,4326.538574,4378.974121,2436.0,1.0,15.0,,,,0.0,4.0,4.0,4.0,4.0,4.0,4.0,4.0,4.0,4.0,4.0,4.0,4.0,4.0,4.0,100.0,,,,,,,,,,,,,,,,,,,,,,,,,,,,,,,,,,,,,,,,,,,,,,,,,,,,,,,,0.0,0.0,64.0,0.255029,1.0,0.0,,,,,,,,,,,,,,,,,,,,,,,,,,,,,,,,,,,,,,,,,,,,,,,,,,,,,,,,,,,,,,,,,,,,,,
1725716022.615662,1725716022.617556,5.0,0.0,4013.846191,4295.512695,4285.128418,4363.974121,4257.05127,4234.230957,4465.641113,4248.717773,4234.102539,4224.615234,4450.384766,4495.0,4331.794922,4380.128418,2381.0,1.0,15.0,,,,0.0,4.0,4.0,4.0,4.0,4.0,4.0,4.0,4.0,4.0,4.0,4.0,4.0,4.0,4.0,100.0,,,,,,,,,,,,,,,,,,,,,,,,,,,,,,,,,,,,,,,,,,,,,,,,,,,,,,,,,,,,,,,,,,,,,,,,,,,,,,,,,,,,,,,,,,,,,,,,,,,,,,,,,,,,,,,,,,,,,,,,,,,,,,,,,,,
1725716022.619566,1725716022.62146,6.0,0.0,4030.512939,4295.641113,4290.769043,4362.692383,4254.487305,4233.717773,4460.128418,4250.0,4234.230957,4228.461426,4457.307617,4502.94873,4340.512695,4385.641113,2423.0,1.0,15.0,,,,0.0,4.0,4.0,4.0,4.0,4.0,4.0,4.0,4.0,4.0,4.0,4.0,4.0,4.0,4.0,100.0,,,,,,,,,,,,,,,,,,,,,,,,,,,,,,,,,,,,,,,,,,,,,,,,,,,,,,,,,,,,,,,,,,,,,,,,,,,,,,,,,,,,,,,,,,,,,,,,,,,,,,,,,,,,,,,,,,,,,,,,,,,,,,,,,,,
1725716022.62347,1725716022.625365,7.0,0.0,4048.589844,4296.153809,4296.153809,4362.820313,4253.461426,4232.94873,4456.922852,4249.102539,4234.615234,4233.205078,4466.153809,4509.615234,4347.692383,4393.717773,2499.0,1.0,15.0,,,,0.0,4.0,4.0,4.0,4.0,4.0,4.0,4.0,4.0,4.0,4.0,4.0,4.0,4.0,4.0,100.0,,,,,,,,,,,,,,,,,,,,,,,,,,,,,,,,,,,,,,,,,,,,,,,,,,,,,,,,,,,,,,,,,,,,,,,,,,,,,,,,,,,,,,,,,,,,,,,,,,,,,,,,,,,,,,,,,,,,,,,,,,,,,,,,,,,
1725716022.627374,1725716022.629169,8.0,0.0,4065.256348,4296.025879,4298.846191,4363.974121,4254.358887,4232.436035,4455.128418,4247.692383,4235.769043,4236.922852,4474.487305,4512.436035,4349.871582,4400.256348,2471.0,1.0,15.0,,,,0.0,4.0,4.0,4.0,4.0,4.0,4.0,4.0,4.0,4.0,4.0,4.0,4.0,4.0,4.0,100.0,,,,,,,,,,,,,,,,,,,,,,,,,,,,,,,,,,,,,,,,,,,,,,,,,,,,,,,,,,,,,,,,,,,,,,,,,,,,,,,,,,,,,,,,,,,,,,,,,,,,,,,,,,,,,,,,,,,,,,,,,,,,,,,,,,,
1725716022.631278,1725716022.633073,9.0,0.0,4078.076904,4295.256348,4298.077148,4365.256348,4256.153809,4231.922852,4452.692383,4246.666504,4237.436035,4238.461426,4479.615234,4511.153809,4347.820313,4402.179688,2556.0,1.0,15.0,,,,0.0,4.0,4.0,4.0,4.0,4.0,4.0,4.0,4.0,4.0,4.0,4.0,4.0,4.0,4.0,100.0,,,,,,,,,,,,,,,,,,,,,,,,,,,,,,,,,,,,,,,,,,,,,,,,,,,,,,,,,,,,,,,,,,,,,,,,,,,,,,,,,,,,,,,,,,,,,,,,,,,,,,,,,,,,,,,,,,,,,,,,,,,,,,,,,,,
1725716022.635183,1725716022.636977,10.0,0.0,4087.307617,4294.230957,4294.615234,4365.897461,4257.692383,4231.538574,4447.94873,4246.282227,4238.333496,4237.94873,4479.358887,4507.692383,4344.102539,4399.615234,2882.0,1.0,15.0,,,,0.0,4.0,4.0,4.0,4.0,4.0,4.0,4.0,4.0,4.0,4.0,4.0,4.0,4.0,4.0,100.0,,,,,,,,,,,,,,,,,,,,,,,,,,,,,,,,,,,,,,,,,,,,,,,,,,,,,,,,,,,,,,,,,,,,,,,,,,,,,,,,,,,,,,,,,,,,,,,,,,,,,,,,,,,,,,,,,,,,,,,,,,,,,,,,,,,
1725716022.639087,1725716022.640781,11.0,0.0,4096.025879,4293.589844,4290.384766,4365.769043,4257.563965,4231.410156,4440.897461,4245.769043,4237.692383,4236.025879,4474.102539,4504.615234,4341.410156,4395.641113,3119.0,1.0,15.0,,,,0.0,4.0,4.0,4.0,4.0,4.0,4.0,4.0,4.0,4.0,4.0,4.0,4.0,4.0,4.0,100.0,,,,,,,,,,,,,,,,,,,,,,,,,,,,,,,,,,,,,,,,,,,,,,,,,,,,,,,,,,,,,,,,,,,,,,,,,,,,,,,,,,,,,,,,,,,,,,,,,,,,,,,,,,,,,,,,,,,,,,,,,,,,,,,,,,,
1725716022.642991,1725716022.644685,12.0,0.0,4107.820313,4293.461426,4287.179688,4365.0,4255.384766,4231.794922,4433.205078,4244.743652,4235.897461,4233.974121,4467.05127,4503.077148,4340.897461,4393.717773,3411.0,1.0,15.0,,,,0.0,4.0,4.0,4.0,4.0,4.0,4.0,4.0,4.0,4.0,4.0,4.0,4.0,4.0,4.0,100.0,,,,,,,,,,,,,,,,,,,,,,,,,,,,,,,,,,,,,,,,,,,,,,,,,,,,,,,,0.0,0.0,64.0,0.255029,1.0,0.0,,,,,,,,,,,,,,,,,,,,,,,,,,,,,,,,,,,,,,,,,,,,,,,,,,,,,,,,,,,,,,,,,,,,,,
1725716022.646895,1725716022.648589,13.0,0.0,4123.461426,4293.846191,4285.256348,4364.102539,4252.05127,4232.179688,4426.153809,4243.333496,4234.230957,4233.205078,4462.692383,4502.692383,4341.666504,4395.128418,3820.0,1.0,15.0,,,,0.0,4.0,4.0,4.0,4.0,4.0,4.0,4.0,4.0,4.0,4.0,4.0,4.0,4.0,4.0,100.0,,,,,,,,,,,,,,,,,,,,,,,,,,,,,,,,,,,,,,,,,,,,,,,,,,,,,,,,,,,,,,,,,,,,,,,,,,,,,,,,,,,,,,,,,,,,,,,,,,,,,,,,,,,,,,,,,,,,,,,,,,,,,,,,,,,
1725716022.650799,1725716022.652593,14.0,0.0,4140.641113,4294.358887,4284.230957,4364.102539,4249.358887,4231.538574,4419.871582,4242.436035,4233.461426,4233.717773,4462.94873,4502.563965,4341.794922,4398.077148,2882.0,1.0,15.0,,,,0.0,4.0,4.0,4.0,4.0,4.0,4.0,4.0,4.0,4.0,4.0,4.0,4.0,4.0,4.0,100.0,,,,,,,,,,,,,,,,,,,,,,,,,,,,,,,,,,,,,,,,,,,,,,,,,,,,,,,,,,,,,,,,,,,,,,,,,,,,,,,,,,,,,,,,,,,,,,,,,,,,,,,,,,,,,,,,,,,,,,,,,,,,,,,,,,,
1725716022.654703,1725716022.656498,15.0,0.0,4156.025879,4293.974121,4283.333496,4365.256348,4248.846191,4229.102539,4413.205078,4242.563965,4233.589844,4234.743652,4466.282227,4502.692383,4340.512695,4399.743652,3119.0,1.0,15.0,,,,0.0,4.0,4.0,4.0,4.0,4.0,4.0,4.0,4.0,4.0,4.0,4.0,4.0,4.0,4.0,100.0,,,,,,,,,,,,,,,,,,,,,,,,,,,,,,,,,,,,,,,,,,,,,,,,,,,,,,,,,,,,,,,,,,,,,,,,,,,,,,,,,,,,,,,,,,,,,,,,,,,,,,,,,,,,,,,,,,,,,,,,,,,,,,,,,,,
1725716022.658607,1725716022.660402,16.0,0.0,4168.461426,4291.922852,4282.307617,4367.179688,4250.769043,4225.256348,4405.512695,4243.974121,4234.102539,4234.743652,4469.230957,4503.461426,4338.717773,4398.974121,3411.0,1.0,15.0,,,,0.0,4.0,4.0,4.0,4.0,4.0,4.0,4.0,4.0,4.0,4.0,4.0,4.0,4.0,4.0,100.0,,,,,,,,,,,,,,,,,,,,,,,,,,,,,,,,,,,,,,,,,,,,,,,,,,,,,,,,,,,,,,,,,,,,,,,,,,,,,,,,,,,,,,,,,,,,,,,,,,,,,,,,,,,,,,,,,,,,,,,,,,,,,,,,,,,
1725716022.662511,1725716022.664306,17.0,0.0,4179.615234,4288.461426,4281.794922,4368.589844,4253.717773,4221.538574,4396.666504,4246.025879,4234.487305,4233.717773,4469.615234,4505.256348,4338.461426,4397.05127,3820.0,1.0,15.0,,,,0.0,4.0,4.0,4.0,4.0,4.0,4.0,4.0,4.0,4.0,4.0,4.0,4.0,4.0,4.0,100.0,,,,,,,,,,,,,,,,,,,,,,,,,,,,,,,,,,,,,,,,,,,,,,,,,,,,,,,,,,,,,,,,,,,,,,,,,,,,,,,,,,,,,,,,,,,,,,,,,,,,,,,,,,,,,,,,,,,,,,,,,,,,,,,,,,,
1725716022.666415,1725716022.66821,18.0,0.0,4191.410156,4285.384766,4282.05127,4368.205078,4256.153809,4219.230957,4387.179688,4247.436035,4235.256348,4233.205078,4467.692383,4507.436035,4340.512695,4396.666504,2882.0,1.0,15.0,,,,0.0,4.0,4.0,4.0,4.0,4.0,4.0,4.0,4.0,4.0,4.0,4.0,4.0,4.0,4.0,100.0,,,,,,,,,,,,,,,,,,,,,,,,,,,,,,,,,,,,,,,,,,,,,,,,,,,,,,,,,,,,,,,,,,,,,,,,,,,,,,,,,,,,,,,,,,,,,,,,,,,,,,,,,,,,,,,,,,,,,,,,,,,,,,,,,,,
1725716022.670319,1725716022.672014,19.0,0.0,4204.358887,4284.615234,4282.179688,4366.153809,4257.436035,4218.846191,4377.692383,4247.436035,4236.282227,4233.974121,4465.0,4508.589844,4343.461426,4398.461426,3119.0,1.0,15.0,,,,0.0,4.0,4.0,4.0,4.0,4.0,4.0,4.0,4.0,4.0,4.0,4.0,4.0,4.0,4.0,100.0,,,,,,,,,,,,,,,,,,,,,,,,,,,,,,,,,,,,,,,,,,,,,,,,,,,,,,,,,,,,,,,,,,,,,,,,,,,,,,,,,,,,,,,,,,,,,,,,,,,,,,,,,,,,,,,,,,,,,,,,,,,,,,,,,,,
1725716022.674224,1725716022.675918,20.0,0.0,4217.563965,4285.897461,4281.410156,4362.820313,4257.820313,4219.871582,4368.846191,4246.666504,4236.410156,4234.743652,4462.94873,4507.692383,4345.128418,4400.128418,3411.0,1.0,15.0,,,,0.0,4.0,4.0,4.0,4.0,4.0,4.0,4.0,4.0,4.0,4.0,4.0,4.0,4.0,4.0,100.0,,,,,,,,,,,,,,,,,1.0,0.0,0.0,,,,,,,,,,,,,,,,,,,,,,,,,,,,,,,,,,,,,0.0,0.0,64.0,0.185967,1.0,0.0,29.114742,2.700432,1.393739,0.219915,0.115179,0.950601,0.48204,0.604234,0.186282,0.077175,0.518692,0.547606,0.478316,0.16877,0.054656,0.704665,0.467881,0.528776,0.135951,0.051605,0.790803,0.267036,0.21635,0.087932,0.034668,0.281023,0.354746,0.11359,0.104709,0.044212,4.205503,0.380127,0.318083,0.073068,0.071476,1.718042,0.558532,0.681108,0.167783,0.083534,1.964843,0.613824,0.643759,0.189923,0.056877,2.712339,0.883684,0.701343,0.185794,0.060026,3.399136,1.169407,1.102262,0.272216,0.140376,2.689478,1.132508,1.373914,0.281955,0.126744,4.009861,1.940932,0.987974,0.350582,0.135601,2.088704,0.983195,0.778752,0.279734,0.093127
1725716022.678128,1725716022.679822,21.0,0.0,4230.0,4287.820313,4279.615234,4359.615234,4257.820313,4220.512695,4360.384766,4245.897461,4235.256348,4234.230957,4461.922852,4504.743652,4343.974121,4398.846191,3820.0,1.0,15.0,,,,0.0,4.0,4.0,4.0,4.0,4.0,4.0,4.0,4.0,4.0,4.0,4.0,4.0,4.0,4.0,100.0,,,,,,,,,,,,,,,,,,,,,,,,,,,,,,,,,,,,,,,,,,,,,,,,,,,,,,,,,,,,,,,,,,,,,,,,,,,,,,,,,,,,,,,,,,,,,,,,,,,,,,,,,,,,,,,,,,,,,,,,,,,,,,,,,,,
1725716022.682032,1725716022.683826,22.0,0.0,4241.538574,4288.589844,4277.94873,4357.692383,4258.205078,4219.871582,4352.563965,4246.153809,4233.717773,4232.94873,4461.538574,4501.922852,4340.897461,4394.230957,2882.0,1.0,15.0,,,,0.0,4.0,4.0,4.0,4.0,4.0,4.0,4.0,4.0,4.0,4.0,4.0,4.0,4.0,4.0,100.0,,,,,,,,,,,,,,,,,,,,,,,,,,,,,,,,,,,,,,,,,,,,,,,,,,,,,,,,,,,,,,,,,,,,,,,,,,,,,,,,,,,,,,,,,,,,,,,,,,,,,,,,,,,,,,,,,,,,,,,,,,,,,,,,,,,
1725716022.685936,1725716022.68773,23.0,0.0,4252.94873,4287.692383,4277.179688,4357.307617,4259.230957,4217.692383,4345.384766,4247.179688,4233.974121,4232.820313,4461.410156,4501.153809,4338.077148,4388.974121,3119.0,1.0,15.0,,,,0.0,4.0,4.0,4.0,4.0,4.0,4.0,4.0,4.0,4.0,4.0,4.0,4.0,4.0,4.0,100.0,,,,,,,,,,,,,,,,,,,,,,,,,,,,,,,,,,,,,,,,,,,,,,,,,,,,,,,,,,,,,,,,,,,,,,,,,,,,,,,,,,,,,,,,,,,,,,,,,,,,,,,,,,,,,,,,,,,,,,,,,,,,,,,,,,,
1725716022.68984,1725716022.691634,24.0,0.0,4264.487305,4286.410156,4277.820313,4358.205078,4260.897461,4215.641113,4338.333496,4248.461426,4236.666504,4234.871582,4461.025879,4503.205078,4336.922852,4386.666504,3411.0,1.0,15.0,,,,0.0,4.0,4.0,4.0,4.0,4.0,4.0,4.0,4.0,4.0,4.0,4.0,4.0,4.0,4.0,100.0,,,,,,,,,,,,,,,,,,,,,,,,,,,,,,,,,,,,,,,,,,,,,,,,,,,,,,,,,,,,,,,,,,,,,,,,,,,,,,,,,,,,,,,,,,,,,,,,,,,,,,,,,,,,,,,,,,,,,,,,,,,,,,,,,,,
1725716022.693744,1725716022.695539,25.0,0.0,4275.0,4285.769043,4279.102539,4359.615234,4262.692383,4215.128418,4330.897461,4249.102539,4240.769043,4239.102539,4460.641113,4506.410156,4336.794922,4388.589844,3820.0,1.0,15.0,,,,0.0,4.0,4.0,4.0,4.0,4.0,4.0,4.0,4.0,4.0,4.0,4.0,4.0,4.0,4.0,100.0,,,,,,,,,,,,,,,,,,,,,,,,,,,,,,,,,,,,,,,,,,,,,,,,,,,,,,,,,,,,,,,,,,,,,,,,,,,,,,,,,,,,,,,,,,,,,,,,,,,,,,,,,,,,,,,,,,,,,,,,,,,,,,,,,,,
1725716022.697648,1725716022.699443,26.0,0.0,4282.179688,4286.153809,4279.615234,4360.256348,4263.589844,4216.025879,4323.205078,4248.461426,4244.230957,4243.461426,4460.897461,4508.461426,4336.410156,4392.820313,2882.0,1.0,15.0,,,,0.0,4.0,4.0,4.0,4.0,4.0,4.0,4.0,4.0,4.0,4.0,4.0,4.0,4.0,4.0,100.0,,,,,,,,,,,,,,,,,,,,,,,,,,,,,,,,,,,,,,,,,,,,,,,,,,,,,,,,,,,,,,,,,,,,,,,,,,,,,,,,,,,,,,,,,,,,,,,,,,,,,,,,,,,,,,,,,,,,,,,,,,,,,,,,,,,
1725716022.701552,1725716022.703247,27.0,0.0,4284.615234,4286.794922,4278.461426,4358.974121,4261.922852,4216.666504,4315.256348,4246.794922,4245.512695,4246.025879,4461.922852,4507.563965,4335.128418,4395.641113,3119.0,1.0,15.0,,,,0.0,4.0,4.0,4.0,4.0,4.0,4.0,4.0,4.0,4.0,4.0,4.0,4.0,4.0,4.0,100.0,,,,,,,,,,,,,,,,,,,,,,,,,,,,,,,,,,,,,,,,,,,,,,,,,,,,,,,,,,,,,,,,,,,,,,,,,,,,,,,,,,,,,,,,,,,,,,,,,,,,,,,,,,,,,,,,,,,,,,,,,,,,,,,,,,,
1725716022.705456,1725716022.707151,28.0,0.0,4282.692383,4286.153809,4275.128418,4355.128418,4257.563965,4215.384766,4307.692383,4244.615234,4244.871582,4245.897461,4462.563965,4503.333496,4333.846191,4394.102539,3411.0,1.0,15.0,,,,0.0,4.0,4.0,4.0,4.0,4.0,4.0,4.0,4.0,4.0,4.0,4.0,4.0,4.0,4.0,100.0,,,,,,,,,,,,,,,,,,,,,,,,,,,,,,,,,,,,,,,,,,,,,,,,,,,,,,,,0.0,0.0,64.0,0.185967,1.0,0.0,,,,,,,,,,,,,,,,,,,,,,,,,,,,,,,,,,,,,,,,,,,,,,,,,,,,,,,,,,,,,,,,,,,,,,
1725716022.70936,1725716022.711055,29.0,0.0,4280.0,4283.333496,4270.641113,4349.487305,4252.436035,4211.794922,4301.153809,4242.05127,4243.461426,4243.974121,4461.794922,4497.179688,4333.589844,4388.589844,3820.0,1.0,15.0,,,,0.0,4.0,4.0,4.0,4.0,4.0,4.0,4.0,4.0,4.0,4.0,4.0,4.0,4.0,4.0,100.0,,,,,,,,,,,,,,,,,,,,,,,,,,,,,,,,,,,,,,,,,,,,,,,,,,,,,,,,,,,,,,,,,,,,,,,,,,,,,,,,,,,,,,,,,,,,,,,,,,,,,,,,,,,,,,,,,,,,,,,,,,,,,,,,,,,
1725716022.713264,1725716022.714959,30.0,0.0,4280.769043,4279.487305,4266.922852,4344.230957,4248.846191,4207.436035,4295.641113,4238.846191,4242.692383,4242.179688,4459.358887,4491.794922,4334.743652,4382.820313,2882.0,1.0,15.0,,,,0.0,4.0,4.0,4.0,4.0,4.0,4.0,4.0,4.0,4.0,4.0,4.0,4.0,4.0,4.0,100.0,,,,,,,,,,,,,,,,,,,,,,,,,,,,,,,,,,,,,,,,,,,,,,,,,,,,,,,,,,,,,,,,,,,,,,,,,,,,,,,,,,,,,,,,,,,,,,,,,,,,,,,,,,,,,,,,,,,,,,,,,,,,,,,,,,,
1725716022.717168,1725716022.718763,31.0,0.0,4287.563965,4276.922852,4265.256348,4341.538574,4248.205078,4203.974121,4291.025879,4235.512695,4243.077148,4242.307617,4456.538574,4489.102539,4336.922852,4381.025879,3119.0,1.0,15.0,,,,0.0,4.0,4.0,4.0,4.0,4.0,4.0,4.0,4.0,4.0,4.0,4.0,4.0,4.0,4.0,100.0,,,,,,,,,,,,,,,,,,,,,,,,,,,,,,,,,,,,,,,,,,,,,,,,,,,,,,,,,,,,,,,,,,,,,,,,,,,,,,,,,,,,,,,,,,,,,,,,,,,,,,,,,,,,,,,,,,,,,,,,,,,,,,,,,,,
1725716022.721073,1725716022.722668,32.0,0.0,4299.487305,4277.179688,4265.256348,4342.436035,4249.615234,4202.436035,4286.666504,4233.205078,4244.230957,4244.615234,4455.897461,4489.743652,4340.384766,4385.256348,0.0,1.0,15.0,,,,0.0,4.0,4.0,4.0,4.0,4.0,4.0,4.0,4.0,4.0,4.0,4.0,4.0,4.0,4.0,100.0,,,,,,,,,,,,,,,,,,,,,,,,,,,,,,,,,,,,,,,,,,,,,,,,,,,,,,,,,,,,,,,,,,,,,,,,,,,,,,,,,,,,,,,,,,,,,,,,,,,,,,,,,,,,,,,,,,,,,,,,,,,,,,,,,,,
1725716022.724977,1725716022.726572,33.0,0.0,4313.205078,4279.358887,4265.897461,4346.153809,4251.538574,4202.179688,4282.307617,4233.333496,4244.615234,4247.692383,4458.461426,4493.077148,4344.487305,4393.333496,0.0,1.0,15.0,,,,0.0,4.0,4.0,4.0,4.0,4.0,4.0,4.0,4.0,4.0,4.0,4.0,4.0,4.0,4.0,100.0,,,,,,,,,,,,,,,,,,,,,,,,,,,,,,,,,,,,,,,,,,,,,,,,,,,,,,,,,,,,,,,,,,,,,,,,,,,,,,,,,,,,,,,,,,,,,,,,,,,,,,,,,,,,,,,,,,,,,,,,,,,,,,,,,,,
1725716022.728881,1725716022.730476,34.0,0.0,4325.128418,4281.282227,4266.410156,4350.0,4252.436035,4202.05127,4277.307617,4236.025879,4243.461426,4249.871582,4462.307617,4496.666504,4347.692383,4400.384766,0.0,1.0,15.0,,,,0.0,4.0,4.0,4.0,4.0,4.0,4.0,4.0,4.0,4.0,4.0,4.0,4.0,4.0,4.0,100.0,,,,,,,,,,,,,,,,,,,,,,,,,,,,,,,,,,,,,,,,,,,,,,,,,,,,,,,,,,,,,,,,,,,,,,,,,,,,,,,,,,,,,,,,,,,,,,,,,,,,,,,,,,,,,,,,,,,,,,,,,,,,,,,,,,,
1725716022.732785,1725716022.73428,35.0,0.0,4333.205078,4281.153809,4266.025879,4351.410156,4251.794922,4201.666504,4271.666504,4239.743652,4241.794922,4249.871582,4464.487305,4498.589844,4347.692383,4401.666504,0.0,1.0,15.0,,,,0.0,4.0,4.0,4.0,4.0,4.0,4.0,4.0,4.0,4.0,4.0,4.0,4.0,4.0,4.0,100.0,,,,,,,,,,,,,,,,,,,,,,,,,,,,,,,,,,,,,,,,,,,,,,,,,,,,,,,,,,,,,,,,,,,,,,,,,,,,,,,,,,,,,,,,,,,,,,,,,,,,,,,,,,,,,,,,,,,,,,,,,,,,,,,,,,,
1725716022.736689,1725716022.738184,36.0,0.0,4337.692383,4279.230957,4264.615234,4349.102539,4250.384766,4201.410156,4265.128418,4243.077148,4241.410156,4248.333496,4463.205078,4497.692383,4343.589844,4396.666504,0.0,1.0,15.0,,,,0.0,4.0,4.0,4.0,4.0,4.0,4.0,4.0,4.0,4.0,4.0,4.0,4.0,4.0,4.0,100.0,,,,,,,,,,,,,,,,,,,,,,,,,,,,,,,,,,,,,,,,,,,,,,,,,,,,,,,,0.0,0.0,64.0,0.185967,1.0,0.0,,,,,,,,,,,,,,,,,,,,,,,,,,,,,,,,,,,,,,,,,,,,,,,,,,,,,,,,,,,,,,,,,,,,,,
1725716022.740593,1725716022.742088,37.0,0.0,4340.641113,4277.179688,4262.307617,4343.846191,4249.102539,4201.794922,4257.692383,4245.897461,4242.94873,4246.538574,4459.871582,4494.358887,4337.820313,4388.974121,0.0,1.0,15.0,,,,0.0,4.0,4.0,4.0,4.0,4.0,4.0,4.0,4.0,4.0,4.0,4.0,4.0,4.0,4.0,100.0,,,,,,,,,,,,,,,,,,,,,,,,,,,,,,,,,,,,,,,,,,,,,,,,,,,,,,,,,,,,,,,,,,,,,,,,,,,,,,,,,,,,,,,,,,,,,,,,,,,,,,,,,,,,,,,,,,,,,,,,,,,,,,,,,,,
1725716022.744497,1725716022.745892,38.0,0.0,4345.0,4276.153809,4259.487305,4338.205078,4248.974121,4202.436035,4249.230957,4249.230957,4245.641113,4245.897461,4457.563965,4490.641113,4334.743652,4383.461426,0.0,1.0,15.0,,,,0.0,4.0,4.0,4.0,4.0,4.0,4.0,4.0,4.0,4.0,4.0,4.0,4.0,4.0,4.0,100.0,,,,,,,,,,,,,,,,,,,,,,,,,,,,,,,,,,,,,,,,,,,,,,,,,,,,,,,,,,,,,,,,,,,,,,,,,,,,,,,,,,,,,,,,,,,,,,,,,,,,,,,,,,,,,,,,,,,,,,,,,,,,,,,,,,,
1725716022.748401,1725716022.749796,39.0,0.0,4353.205078,4275.256348,4256.153809,4334.615234,4249.743652,4202.692383,4240.128418,4253.461426,4247.94873,4246.538574,4458.717773,4488.974121,4337.436035,4382.94873,0.0,1.0,15.0,,,,0.0,4.0,4.0,4.0,4.0,4.0,4.0,4.0,4.0,4.0,4.0,4.0,4.0,4.0,4.0,100.0,,,,,,,,,,,,,,,,,,,,,,,,,,,,,,,,,,,,,,,,,,,,,,,,,,,,,,,,,,,,,,,,,,,,,,,,,,,,,,,,,,,,,,,,,,,,,,,,,,,,,,,,,,,,,,,,,,,,,,,,,,,,,,,,,,,
1725716022.752305,1725716022.753701,40.0,0.0,4365.641113,4273.077148,4252.179688,4333.589844,4250.256348,4201.794922,4231.282227,4258.077148,4248.974121,4248.333496,4463.461426,4490.641113,4345.512695,4387.05127,0.0,1.0,15.0,,,,0.0,4.0,4.0,4.0,4.0,4.0,4.0,4.0,4.0,4.0,4.0,4.0,4.0,4.0,4.0,100.0,,,,,,,,,,,,,,,,,,,,,,,,,,,,,,,,,,,,,,,,,,,,,,,,,,,,,,,,,,,,,,,,,,,,,,,,,,,,,,,,,,,,,,,,,,,,,,,,,,,,,,,,,,,,,,,,,,,,,,,,,,,,,,,,,,,
1725716022.756209,1725716022.757705,41.0,0.0,4380.641113,4269.358887,4248.333496,4334.487305,4249.743652,4200.256348,4223.461426,4262.179688,4249.102539,4250.384766,4470.384766,4495.769043,4355.384766,4393.077148,0.0,1.0,15.0,,,,0.0,4.0,4.0,4.0,4.0,4.0,4.0,4.0,4.0,4.0,4.0,4.0,4.0,4.0,4.0,100.0,,,,,,,,,,,,,,,,,,,,,,,,,,,,,,,,,,,,,,,,,,,,,,,,,,,,,,,,,,,,,,,,,,,,,,,,,,,,,,,,,,,,,,,,,,,,,,,,,,,,,,,,,,,,,,,,,,,,,,,,,,,,,,,,,,,
1725716022.760114,1725716022.761609,42.0,0.0,4395.128418,4265.769043,4246.153809,4335.512695,4248.589844,4199.358887,4217.563965,4265.0,4249.615234,4252.05127,4476.666504,4502.563965,4362.692383,4398.333496,0.0,1.0,15.0,,,,0.0,4.0,4.0,4.0,4.0,4.0,4.0,4.0,4.0,4.0,4.0,4.0,4.0,4.0,4.0,100.0,,,,,,,,,,,,,,,,,,,,,,,,,,,,,,,,,,,,,,,,,,,,,,,,,,,,,,,,,,,,,,,,,,,,,,,,,,,,,,,,,,,,,,,,,,,,,,,,,,,,,,,,,,,,,,,,,,,,,,,,,,,,,,,,,,,
1725716022.764018,1725716022.765513,43.0,0.0,4406.794922,4263.846191,4246.666504,4335.128418,4247.563965,4199.743652,4213.717773,4265.641113,4250.897461,4252.692383,4479.230957,4508.461426,4364.743652,4400.769043,0.0,1.0,15.0,,,,0.0,4.0,4.0,4.0,4.0,4.0,4.0,4.0,4.0,4.0,4.0,4.0,4.0,4.0,4.0,100.0,,,,,,,,,,,,,,,,,,,,,,,,,,,,,,,,,,,,,,,,,,,,,,,,,,,,,,,,,,,,,,,,,,,,,,,,,,,,,,,,,,,,,,,,,,,,,,,,,,,,,,,,,,,,,,,,,,,,,,,,,,,,,,,,,,,
1725716022.767922,1725716022.769417,44.0,0.0,4415.0,4263.717773,4249.487305,4332.692383,4246.922852,4201.282227,4211.025879,4263.717773,4251.666504,4251.666504,4476.025879,4510.512695,4362.05127,4399.487305,0.0,1.0,15.0,,,,0.0,4.0,4.0,4.0,4.0,4.0,4.0,4.0,4.0,4.0,4.0,4.0,4.0,4.0,4.0,100.0,,,,,,,,,,,,,,,,,,,,,,,,,,,,,,,,,,,,,,,,,,,,,,,,,,,,,,,,0.0,0.0,64.0,0.185967,1.0,0.0,,,,,,,,,,,,,,,,,,,,,,,,,,,,,,,,,,,,,,,,,,,,,,,,,,,,,,,,,,,,,,,,,,,,,,
1725716022.771826,1725716022.773321,45.0,0.0,4421.666504,4264.487305,4253.333496,4328.974121,4246.794922,4201.922852,4207.820313,4259.615234,4251.538574,4249.615234,4468.077148,4507.94873,4357.563965,4395.897461,0.0,1.0,15.0,,,,0.0,4.0,4.0,4.0,4.0,4.0,4.0,4.0,4.0,4.0,4.0,4.0,4.0,4.0,4.0,100.0,,,,,,,,,,,,,,,,,,,,,,,,,,,,,,,,,,,,,,,,,,,,,,,,,,,,,,,,,,,,,,,,,,,,,,,,,,,,,,,,,,,,,,,,,,,,,,,,,,,,,,,,,,,,,,,,,,,,,,,,,,,,,,,,,,,
1725716022.77573,1725716022.777125,46.0,0.0,4429.230957,4265.512695,4256.922852,4325.769043,4246.922852,4199.358887,4203.077148,4255.512695,4250.641113,4248.205078,4460.0,4504.102539,4354.487305,4393.077148,0.0,1.0,15.0,,,,0.0,4.0,4.0,4.0,4.0,4.0,4.0,4.0,4.0,4.0,4.0,4.0,4.0,4.0,4.0,100.0,,,,,,,,,,,,,,,,,,,,,,,,,,,,,,,,,,,,,,,,,,,,,,,,,,,,,,,,,,,,,,,,,,,,,,,,,,,,,,,,,,,,,,,,,,,,,,,,,,,,,,,,,,,,,,,,,,,,,,,,,,,,,,,,,,,
1725716022.779634,1725716022.781029,47.0,0.0,4439.358887,4266.794922,4259.871582,4325.128418,4247.563965,4192.692383,4197.05127,4253.846191,4249.871582,4248.461426,4456.538574,4503.589844,4354.358887,4394.102539,0.0,1.0,15.0,,,,0.0,4.0,4.0,4.0,4.0,4.0,4.0,4.0,4.0,4.0,4.0,4.0,4.0,4.0,4.0,100.0,,,,,,,,,,,,,,,,,,,,,,,,,,,,,,,,,,,,,,,,,,,,,,,,,,,,,,,,,,,,,,,,,,,,,,,,,,,,,,,,,,,,,,,,,,,,,,,,,,,,,,,,,,,,,,,,,,,,,,,,,,,,,,,,,,,
1725716022.783538,1725716022.784933,48.0,0.0,4451.666504,4268.461426,4262.307617,4327.563965,4248.461426,4183.589844,4191.282227,4255.512695,4249.743652,4250.0,4459.743652,4508.333496,4356.666504,4399.358887,0.0,1.0,15.0,,,,0.0,4.0,4.0,4.0,4.0,4.0,4.0,4.0,4.0,4.0,4.0,4.0,4.0,4.0,4.0,100.0,,,,,,,,,,,,,,,,,,,,,,,,,,,,,,,,,,,,,,,,,,,,,,,,,,,,,,,,,,,,,,,,,,,,,,,,,,,,,,,,,,,,,,,,,,,,,,,,,,,,,,,,,,,,,,,,,,,,,,,,,,,,,,,,,,,
1725716022.787442,1725716022.788937,49.0,0.0,4464.102539,4270.512695,4263.846191,4331.666504,4249.230957,4174.615234,4187.436035,4258.461426,4250.128418,4251.153809,4466.922852,4515.512695,4359.615234,4405.897461,0.0,1.0,15.0,,,,0.0,4.0,4.0,4.0,4.0,4.0,4.0,4.0,4.0,4.0,4.0,4.0,4.0,4.0,4.0,100.0,,,,,,,,,,,,,,,,,,,,,,,,,,,,,,,,,,,,,,,,,,,,,,,,,,,,,,,,,,,,,,,,,,,,,,,,,,,,,,,,,,,,,,,,,,,,,,,,,,,,,,,,,,,,,,,,,,,,,,,,,,,,,,,,,,,
1725716022.791346,1725716022.792841,50.0,0.0,4474.615234,4272.692383,4264.743652,4335.128418,4249.358887,4168.205078,4186.025879,4259.615234,4250.384766,4250.641113,4472.692383,4520.256348,4361.922852,4410.512695,0.0,1.0,15.0,,,,0.0,4.0,4.0,4.0,4.0,4.0,4.0,4.0,4.0,4.0,4.0,4.0,4.0,4.0,4.0,100.0,,,,,,,,,,,,,,,,,,,,,,,,,,,,,,,,,,,,,,,,,,,,,,,,,,,,,,,,,,,,,,,,,,,,,,,,,,,,,,,,,,,,,,,,,,,,,,,,,,,,,,,,,,,,,,,,,,,,,,,,,,,,,,,,,,,
1725716022.795251,1725716022.796746,51.0,0.0,4482.436035,4274.615234,4265.256348,4335.512695,4248.333496,4164.871582,4186.153809,4256.922852,4250.384766,4249.102539,4473.333496,4519.615234,4363.589844,4411.410156,0.0,1.0,15.0,,,,0.0,4.0,4.0,4.0,4.0,4.0,4.0,4.0,4.0,4.0,4.0,4.0,4.0,4.0,4.0,100.0,,,,,,,,,,,,,,,,,,,,,,,,,,,,,,,,,,,,,,,,,,,,,,,,,,,,,,,,,,,,,,,,,,,,,,,,,,,,,,,,,,,,,,,,,,,,,,,,,,,,,,,,,,,,,,,,,,,,,,,,,,,,,,,,,,,
1725716022.799155,1725716022.80065,52.0,0.0,4488.333496,4275.769043,4265.641113,4332.05127,4246.153809,4163.077148,4185.769043,4251.794922,4250.128418,4247.563965,4468.589844,4514.743652,4364.615234,4409.487305,0.0,1.0,15.0,,,,0.0,4.0,4.0,4.0,4.0,4.0,4.0,4.0,4.0,4.0,4.0,4.0,4.0,4.0,4.0,100.0,1.0,8.333333,0.0,4.0,4.0,4.0,4.0,1.0,0.0,4.0,4.0,4.0,4.0,4.0,4.0,4.0,1.0,0.0,0.0,,,,,,,,,,,,,,,,,,,,,,,,,,,,,,,,,,,,,0.0,0.0,64.0,0.214246,1.0,0.0,24.284306,2.940791,1.26981,0.198665,0.123331,0.7986,0.50299,0.579214,0.216929,0.086765,0.503094,0.440591,0.409449,0.15755,0.054761,0.5098,0.369397,0.457532,0.147383,0.051534,0.67815,0.300863,0.216967,0.085139,0.03451,0.306633,0.334236,0.09241,0.094642,0.041236,3.639633,0.346603,0.299686,0.065819,0.076978,1.622681,0.481273,0.678255,0.160112,0.081987,1.734093,0.589675,0.61193,0.192905,0.055081,2.722152,0.735519,0.614668,0.193976,0.070833,3.302958,0.846306,0.787831,0.271751,0.155369,2.569068,0.932585,1.193144,0.312773,0.149686,3.878133,1.680459,0.730381,0.420832,0.151522,1.97097,0.798333,0.668405,0.26801,0.102769
1725716022.803059,1725716022.804554,53.0,0.0,4493.974121,4276.282227,4266.025879,4326.922852,4244.102539,4161.153809,4183.974121,4247.563965,4249.743652,4247.179688,4461.922852,4509.871582,4363.846191,4407.307617,0.0,1.0,15.0,,,,0.0,4.0,4.0,4.0,4.0,4.0,4.0,4.0,4.0,4.0,4.0,4.0,4.0,4.0,4.0,100.0,,,,,,,,,,,,,,,,,,,,,,,,,,,,,,,,,,,,,,,,,,,,,,,,,,,,,,,,,,,,,,,,,,,,,,,,,,,,,,,,,,,,,,,,,,,,,,,,,,,,,,,,,,,,,,,,,,,,,,,,,,,,,,,,,,,
1725716022.806963,1725716022.808358,54.0,0.0,4500.769043,4276.794922,4266.538574,4322.94873,4243.333496,4158.205078,4180.512695,4247.179688,4249.358887,4247.94873,4457.307617,4508.717773,4360.512695,4406.666504,0.0,1.0,15.0,,,,0.0,4.0,4.0,4.0,4.0,4.0,4.0,4.0,4.0,4.0,4.0,4.0,4.0,4.0,4.0,100.0,,,,,,,,,,,,,,,,,,,,,,,,,,,,,,,,,,,,,,,,,,,,,,,,,,,,,,,,,,,,,,,,,,,,,,,,,,,,,,,,,,,,,,,,,,,,,,,,,,,,,,,,,,,,,,,,,,,,,,,,,,,,,,,,,,,
1725716022.810867,1725716022.812262,55.0,0.0,4508.461426,4277.820313,4266.922852,4322.179688,4243.589844,4155.384766,4176.153809,4251.538574,4249.615234,4248.717773,4457.05127,4512.307617,4356.025879,4408.205078,0.0,1.0,15.0,,,,0.0,4.0,4.0,4.0,4.0,4.0,4.0,4.0,4.0,4.0,4.0,4.0,4.0,4.0,4.0,100.0,,,,,,,,,,,,,,,,,,,,,,,,,,,,,,,,,,,,,,,,,,,,,,,,,,,,,,,,,,,,,,,,,,,,,,,,,,,,,,,,,,,,,,,,,,,,,,,,,,,,,,,,,,,,,,,,,,,,,,,,,,,,,,,,,,,
1725716022.814771,1725716022.816166,56.0,0.0,4516.666504,4278.717773,4267.05127,4324.102539,4243.589844,4153.846191,4171.538574,4258.461426,4250.512695,4248.717773,4460.256348,4518.461426,4353.846191,4411.282227,0.0,1.0,15.0,,,,0.0,4.0,4.0,4.0,4.0,4.0,4.0,4.0,4.0,4.0,4.0,4.0,4.0,4.0,4.0,100.0,,,,,,,,,,,,,,,,,,,,,,,,,,,,,,,,,,,,,,,,,,,,,,,,,,,,,,,,,,,,,,,,,,,,,,,,,,,,,,,,,,,,,,,,,,,,,,,,,,,,,,,,,,,,,,,,,,,,,,,,,,,,,,,,,,,
1725716022.818675,1725716022.82007,57.0,0.0,4525.0,4278.461426,4267.307617,4326.025879,4242.563965,4153.974121,4166.410156,4263.974121,4251.666504,4248.205078,4463.974121,4523.717773,4356.025879,4413.846191,0.0,1.0,15.0,,,,0.0,4.0,4.0,4.0,4.0,4.0,4.0,4.0,4.0,4.0,4.0,4.0,4.0,4.0,4.0,100.0,,,,,,,,,,,,,,,,,,,,,,,,,,,,,,,,,,,,,,,,,,,,,,,,,,,,,,,,,,,,,,,,,,,,,,,,,,,,,,,,,,,,,,,,,,,,,,,,,,,,,,,,,,,,,,,,,,,,,,,,,,,,,,,,,,,
1725716022.822579,1725716022.823875,58.0,0.0,4533.077148,4276.794922,4267.436035,4325.0,4240.641113,4154.743652,4160.512695,4265.128418,4252.179688,4247.94873,4465.256348,4525.512695,4361.025879,4414.358887,0.0,1.0,15.0,,,,0.0,4.0,4.0,4.0,4.0,4.0,4.0,4.0,4.0,4.0,4.0,4.0,4.0,4.0,4.0,100.0,,,,,,,,,,,,,,,,,,,,,,,,,,,,,,,,,,,,,,,,,,,,,,,,,,,,,,,,,,,,,,,,,,,,,,,,,,,,,,,,,,,,,,,,,,,,,,,,,,,,,,,,,,,,,,,,,,,,,,,,,,,,,,,,,,,
1725716022.826483,1725716022.827779,59.0,0.0,4540.641113,4274.871582,4266.922852,4320.641113,4238.974121,4155.128418,4153.846191,4262.307617,4251.666504,4248.333496,4463.333496,4523.846191,4364.743652,4412.692383,0.0,1.0,15.0,,,,0.0,4.0,4.0,4.0,4.0,4.0,4.0,4.0,4.0,4.0,4.0,4.0,4.0,4.0,4.0,100.0,,,,,,,,,,,,,,,,,,,,,,,,,,,,,,,,,,,,,,,,,,,,,,,,,,,,,,,,,,,,,,,,,,,,,,,,,,,,,,,,,,,,,,,,,,,,,,,,,,,,,,,,,,,,,,,,,,,,,,,,,,,,,,,,,,,
1725716022.830387,1725716022.831683,60.0,0.0,4546.794922,4273.717773,4265.128418,4314.743652,4237.692383,4154.487305,4147.179688,4258.846191,4250.769043,4248.974121,4459.743652,4520.641113,4364.102539,4410.512695,0.0,1.0,15.0,,,,0.0,4.0,4.0,4.0,4.0,4.0,4.0,4.0,4.0,4.0,4.0,4.0,4.0,4.0,4.0,100.0,,,,,,,,,,,,,,,,,,,,,,,,,,,,,,,,,,,,,,,,,,,,,,,,,,,,,,,,0.0,0.0,64.0,0.214246,1.0,0.0,,,,,,,,,,,,,,,,,,,,,,,,,,,,,,,,,,,,,,,,,,,,,,,,,,,,,,,,,,,,,,,,,,,,,,
1725716022.834292,1725716022.835687,61.0,0.0,4551.025879,4274.230957,4262.820313,4310.384766,4236.794922,4153.589844,4141.282227,4258.205078,4251.153809,4248.846191,4456.922852,4518.846191,4360.128418,4409.615234,0.0,1.0,15.0,,,,0.0,4.0,4.0,4.0,4.0,4.0,4.0,4.0,4.0,4.0,4.0,4.0,4.0,4.0,4.0,100.0,,,,,,,,,,,,,,,,,,,,,,,,,,,,,,,,,,,,,,,,,,,,,,,,,,,,,,,,,,,,,,,,,,,,,,,,,,,,,,,,,,,,,,,,,,,,,,,,,,,,,,,,,,,,,,,,,,,,,,,,,,,,,,,,,,,
1725716022.838196,1725716022.839591,62.0,0.0,4553.974121,4275.384766,4261.153809,4309.871582,4235.897461,4153.205078,4137.563965,4261.538574,4253.974121,4248.077148,4456.794922,4520.0,4356.794922,4410.256348,0.0,1.0,15.0,,,,0.0,4.0,4.0,4.0,4.0,4.0,4.0,4.0,4.0,4.0,4.0,4.0,4.0,4.0,4.0,100.0,,,,,,,,,,,,,,,,,,,,,,,,,,,,,,,,,,,,,,,,,,,,,,,,,,,,,,,,,,,,,,,,,,,,,,,,,,,,,,,,,,,,,,,,,,,,,,,,,,,,,,,,,,,,,,,,,,,,,,,,,,,,,,,,,,,
1725716022.8421,1725716022.843495,63.0,0.0,4557.563965,4276.153809,4261.025879,4312.436035,4235.769043,4153.589844,4136.153809,4266.282227,4259.102539,4247.94873,4459.358887,4522.94873,4356.922852,4411.282227,0.0,1.0,15.0,,,,0.0,4.0,4.0,4.0,4.0,4.0,4.0,4.0,4.0,4.0,4.0,4.0,4.0,4.0,4.0,100.0,,,,,,,,,,,,,,,,,,,,,,,,,,,,,,,,,,,,,,,,,,,,,,,,,,,,,,,,,,,,,,,,,,,,,,,,,,,,,,,,,,,,,,,,,,,,,,,,,,,,,,,,,,,,,,,,,,,,,,,,,,,,,,,,,,,
1725716022.846004,1725716022.847399,64.0,0.0,4563.461426,4276.282227,4262.05127,4315.256348,4237.05127,4154.230957,4135.384766,4268.846191,4264.487305,4250.128418,4462.820313,4525.384766,4360.256348,4411.538574,0.0,1.0,15.0,,,,0.0,4.0,4.0,4.0,4.0,4.0,4.0,4.0,4.0,4.0,4.0,4.0,4.0,4.0,4.0,100.0,,,,,,,,,,,,,,,,,,,,,,,,,,,,,,,,,,,,,,,,,,,,,,,,,,,,,,,,,,,,,,,,,,,,,,,,,,,,,,,,,,,,,,,,,,,,,,,,,,,,,,,,,,,,,,,,,,,,,,,,,,,,,,,,,,,
1725716022.849908,1725716022.851203,65.0,0.0,4571.794922,4275.897461,4262.820313,4316.282227,4239.871582,4154.358887,4132.692383,4268.205078,4267.563965,4254.615234,4464.871582,4526.282227,4364.230957,4411.153809,0.0,1.0,15.0,,,,0.0,4.0,4.0,4.0,4.0,4.0,4.0,4.0,4.0,4.0,4.0,4.0,4.0,4.0,4.0,100.0,,,,,,,,,,,,,,,,,,,,,,,,,,,,,,,,,,,,,,,,,,,,,,,,,,,,,,,,,,,,,,,,,,,,,,,,,,,,,,,,,,,,,,,,,,,,,,,,,,,,,,,,,,,,,,,,,,,,,,,,,,,,,,,,,,,
1725716022.853812,1725716022.855107,66.0,0.0,4581.025879,4275.512695,4261.794922,4314.615234,4242.94873,4153.589844,4127.05127,4265.384766,4267.05127,4259.743652,4465.256348,4526.153809,4366.282227,4410.897461,0.0,1.0,15.0,,,,0.0,4.0,4.0,4.0,4.0,4.0,4.0,4.0,4.0,4.0,4.0,4.0,4.0,4.0,4.0,100.0,,,,,,,,,,,,,,,,,,,,,,,,,,,,,,,,,,,,,,,,,,,,,,,,,,,,,,,,,,,,,,,,,,,,,,,,,,,,,,,,,,,,,,,,,,,,,,,,,,,,,,,,,,,,,,,,,,,,,,,,,,,,,,,,,,,
1725716022.857716,1725716022.859011,67.0,0.0,4589.230957,4274.871582,4258.717773,4311.538574,4245.128418,4151.794922,4119.358887,4262.436035,4263.589844,4263.205078,4464.102539,4525.128418,4366.410156,4410.769043,0.0,1.0,15.0,,,,0.0,4.0,4.0,4.0,4.0,4.0,4.0,4.0,4.0,4.0,4.0,4.0,4.0,4.0,4.0,100.0,,,,,,,,,,,,,,,,,,,,,,,,,,,,,,,,,,,,,,,,,,,,,,,,,,,,,,,,,,,,,,,,,,,,,,,,,,,,,,,,,,,,,,,,,,,,,,,,,,,,,,,,,,,,,,,,,,,,,,,,,,,,,,,,,,,
1725716022.86162,1725716022.863015,68.0,0.0,4595.384766,4274.487305,4255.128418,4308.846191,4245.256348,4150.128418,4111.794922,4260.512695,4259.615234,4263.461426,4463.077148,4523.461426,4366.282227,4410.384766,0.0,1.0,15.0,,,,0.0,4.0,4.0,4.0,4.0,4.0,4.0,4.0,4.0,4.0,4.0,4.0,4.0,4.0,4.0,100.0,,,,,,,,,,,,,,,,,,,,,,,,,,,,,,,,,,,,,,,,,,,,,,,,,,,,,,,,0.0,0.0,64.0,0.214246,1.0,0.0,,,,,,,,,,,,,,,,,,,,,,,,,,,,,,,,,,,,,,,,,,,,,,,,,,,,,,,,,,,,,,,,,,,,,,
1725716022.865524,1725716022.86692,69.0,0.0,4600.769043,4274.615234,4252.692383,4307.94873,4244.487305,4149.743652,4106.538574,4260.256348,4257.563965,4261.666504,4463.461426,4521.282227,4367.563965,4409.871582,0.0,1.0,15.0,,,,0.0,4.0,4.0,4.0,4.0,4.0,4.0,4.0,4.0,4.0,4.0,4.0,4.0,4.0,4.0,100.0,,,,,,,,,,,,,,,,,,,,,,,,,,,,,,,,,,,,,,,,,,,,,,,,,,,,,,,,,,,,,,,,,,,,,,,,,,,,,,,,,,,,,,,,,,,,,,,,,,,,,,,,,,,,,,,,,,,,,,,,,,,,,,,,,,,
1725716022.869429,1725716022.870824,70.0,0.0,4607.563965,4275.897461,4252.94873,4308.717773,4244.358887,4151.282227,4103.461426,4261.666504,4258.205078,4260.0,4466.153809,4520.256348,4370.256348,4410.769043,0.0,1.0,15.0,,,,0.0,4.0,4.0,4.0,4.0,4.0,4.0,4.0,4.0,4.0,4.0,4.0,4.0,4.0,4.0,100.0,,,,,,,,,,,,,,,,,,,,,,,,,,,,,,,,,,,,,,,,,,,,,,,,,,,,,,,,,,,,,,,,,,,,,,,,,,,,,,,,,,,,,,,,,,,,,,,,,,,,,,,,,,,,,,,,,,,,,,,,,,,,,,,,,,,
