Timestamp,OriginalTimestamp,EEG.Counter,EEG.Interpolated,EEG.AF3,EEG.F7,EEG.F3,EEG.FC5,EEG.T7,EEG.P7,EEG.O1,EEG.O2,EEG.P8,EEG.T8,EEG.FC6,EEG.F4,EEG.F8,EEG.AF4,EEG.RawCq,EEG.Battery,EEG.BatteryPercent,MarkerIndex,MarkerType,MarkerValueInt,EEG.MarkerHardware,CQ.AF3,CQ.F7,CQ.F3,CQ.FC5,CQ.T7,CQ.P7,CQ.O1,CQ.O2,CQ.P8,CQ.T8,CQ.FC6,CQ.F4,CQ.F8,CQ.AF4,CQ.Overall,EQ.SampleRateQuality,EQ.OVERALL,EQ.AF3,EQ.F7,EQ.F3,EQ.FC5,EQ.T7,EQ.P7,EQ.O1,EQ.O2,EQ.P8,EQ.T8,EQ.FC6,EQ.F4,EQ.F8,EQ.AF4,MC.Action,MC.ActionPower,MC.IsActive,PM.Attention.IsActive,PM.Attention.Scaled,PM.Attention.Raw,PM.Attention.Min,PM.Attention.Max,PM.Engagement.IsActive,PM.Engagement.Scaled,PM.Engagement.Raw,PM.Engagement.Min,PM.Engagement.Max,PM.Excitement.IsActive,PM.Excitement.Scaled,PM.Excitement.Raw,PM.Excitement.Min,PM.Excitement.Max,PM.LongTermExcitement,PM.Stress.IsActive,PM.Stress.Scaled,PM.Stress.Raw,PM.Stress.Min,PM.Stress.Max,PM.Relaxation.IsActive,PM.Relaxation.Scaled,PM.Relaxation.Raw,PM.Relaxation.Min,PM.Relaxation.Max,PM.Interest.IsActive,PM.Interest.Scaled,PM.Interest.Raw,PM.Interest.Min,PM.Interest.Max,PM.Focus.IsActive,PM.Focus.Scaled,PM.Focus.Raw,PM.Focus.Min,PM.Focus.Max,FE.BlinkWink,FE.HorizontalEyesDirection,FE.UpperFaceAction,FE.UpperFaceActionPower,FE.LowerFaceAction,FE.LowerFaceActionPower,POW.AF3.Theta,POW.AF3.Alpha,POW.AF3.BetaL,POW.AF3.BetaH,POW.AF3.Gamma,POW.F7.Theta,POW.F7.Alpha,POW.F7.BetaL,POW.F7.BetaH,POW.F7.Gamma,POW.F3.Theta,POW.F3.Alpha,POW.F3.BetaL,POW.F3.BetaH,POW.F3.Gamma,POW.FC5.Theta,POW.FC5.Alpha,POW.FC5.BetaL,POW.FC5.BetaH,POW.FC5.Gamma,POW.T7.Theta,POW.T7.Alpha,POW.T7.BetaL,POW.T7.BetaH,POW.T7.Gamma,POW.P7.Theta,POW.P7.Alpha,POW.P7.BetaL,POW.P7.BetaH,POW.P7.Gamma,POW.O1.Theta,POW.O1.Alpha,POW.O1.BetaL,POW.O1.BetaH,POW.O1.Gamma,POW.O2.Theta,POW.O2.Alpha,POW.O2.BetaL,POW.O2.BetaH,POW.O2.Gamma,POW.P8.Theta,POW.P8.Alpha,POW.P8.BetaL,POW.P8.BetaH,POW.P8.Gamma,POW.T8.Theta,POW.T8.Alpha,POW.T8.BetaL,POW.T8.BetaH,POW.T8.Gamma,POW.FC6.Theta,POW.FC6.Alpha,POW.FC6.BetaL,POW.FC6.BetaH,POW.FC6.Gamma,POW.F4.Theta,POW.F4.Alpha,POW.F4.BetaL,POW.F4.BetaH,POW.F4.Gamma,POW.F8.Theta,POW.F8.Alpha,POW.F8.BetaL,POW.F8.BetaH,POW.F8.Gamma,POW.AF4.Theta,POW.AF4.Alpha,POW.AF4.BetaL,POW.AF4.BetaH,POW.AF4.Gamma
1725710386.141179,1725710386.142818,230.0,0.0,4245.384766,4249.615234,4245.641113,4292.820313,4200.0,4235.128418,4388.846191,4204.230957,4283.077148,4160.897461,4514.487305,4490.128418,4372.307617,4431.794922,2905.0,1.0,15.0,7.0,1.0,1.0,0.0,4.0,4.0,4.0,4.0,4.0,4.0,4.0,4.0,4.0,4.0,4.0,4.0,4.0,4.0,100.0,,,,,,,,,,,,,,,,,,,,,,,,,,,,,,,,,,,,,,,,,,,,,,,,,,,,,,,,,,,,,,,,,,,,,,,,,,,,,,,,,,,,,,,,,,,,,,,,,,,,,,,,,,,,,,,,,,,,,,,,,,,,,,,,,,,
1725710386.145083,1725710386.146722,231.0,0.0,4247.436035,4251.410156,4246.794922,4293.461426,4199.743652,4233.589844,4393.589844,4207.563965,4286.025879,4165.512695,4523.205078,4491.538574,4376.538574,4436.538574,3142.0,1.0,15.0,,,,0.0,4.0,4.0,4.0,4.0,4.0,4.0,4.0,4.0,4.0,4.0,4.0,4.0,4.0,4.0,100.0,,,,,,,,,,,,,,,,,,,,,,,,,,,,,,,,,,,,,,,,,,,,,,,,,,,,,,,,,,,,,,,,,,,,,,,,,,,,,,,,,,,,,,,,,,,,,,,,,,,,,,,,,,,,,,,,,,,,,,,,,,,,,,,,,,,
1725710386.148987,1725710386.150626,232.0,0.0,4247.307617,4252.563965,4246.922852,4293.717773,4199.102539,4234.871582,4398.717773,4210.769043,4290.256348,4168.077148,4529.615234,4492.436035,4380.128418,4439.743652,3431.0,1.0,15.0,,,,0.0,4.0,4.0,4.0,4.0,4.0,4.0,4.0,4.0,4.0,4.0,4.0,4.0,4.0,4.0,100.0,,,,,,,,,,,,,,,,,,,,,,,,,,,,,,,,,,,,,,,,,,,,,,,,,,,,,,,,0.0,0.0,1.0,0.0,1024.0,0.049271,,,,,,,,,,,,,,,,,,,,,,,,,,,,,,,,,,,,,,,,,,,,,,,,,,,,,,,,,,,,,,,,,,,,,,
1725710386.152891,1725710386.15443,233.0,0.0,4245.641113,4252.179688,4246.666504,4293.461426,4199.230957,4238.205078,4402.05127,4214.230957,4294.743652,4168.974121,4534.358887,4495.641113,4383.077148,4442.436035,3929.0,1.0,15.0,,,,0.0,4.0,4.0,4.0,4.0,4.0,4.0,4.0,4.0,4.0,4.0,4.0,4.0,4.0,4.0,100.0,,,,,,,,,,,,,,,,,,,,,,,,,,,,,,,,,,,,,,,,,,,,,,,,,,,,,,,,,,,,,,,,,,,,,,,,,,,,,,,,,,,,,,,,,,,,,,,,,,,,,,,,,,,,,,,,,,,,,,,,,,,,,,,,,,,
1725710386.156795,1725710386.158334,234.0,0.0,4243.974121,4250.512695,4247.05127,4293.077148,4200.256348,4241.666504,4402.436035,4218.461426,4297.563965,4170.0,4537.563965,4502.563965,4385.128418,4444.871582,2905.0,1.0,15.0,,,,0.0,4.0,4.0,4.0,4.0,4.0,4.0,4.0,4.0,4.0,4.0,4.0,4.0,4.0,4.0,100.0,,,,,,,,,,,,,,,,,,,,,,,,,,,,,,,,,,,,,,,,,,,,,,,,,,,,,,,,,,,,,,,,,,,,,,,,,,,,,,,,,,,,,,,,,,,,,,,,,,,,,,,,,,,,,,,,,,,,,,,,,,,,,,,,,,,
1725710386.160699,1725710386.162338,235.0,0.0,4243.717773,4249.102539,4249.487305,4293.846191,4202.05127,4244.102539,4400.897461,4223.717773,4298.333496,4173.461426,4539.487305,4511.538574,4386.410156,4446.410156,3142.0,1.0,15.0,,,,0.0,4.0,4.0,4.0,4.0,4.0,4.0,4.0,4.0,4.0,4.0,4.0,4.0,4.0,4.0,100.0,,,,,,,,,,,,,,,,,,,,,,,,,,,,,,,,,,,,,,,,,,,,,,,,,,,,,,,,,,,,,,,,,,,,,,,,,,,,,,,,,,,,,,,,,,,,,,,,,,,,,,,,,,,,,,,,,,,,,,,,,,,,,,,,,,,
1725710386.164603,1725710386.166242,236.0,0.0,4245.512695,4249.615234,4254.358887,4296.922852,4203.461426,4245.384766,4400.128418,4228.974121,4298.717773,4179.230957,4540.0,4519.487305,4386.282227,4446.794922,3431.0,1.0,15.0,,,,0.0,4.0,4.0,4.0,4.0,4.0,4.0,4.0,4.0,4.0,4.0,4.0,4.0,4.0,4.0,100.0,,,,,,,,,,,,,,,,,,,,,,,,,,,,,,,,,,,,,,,,,,,,,,,,,,,,,,,,,,,,,,,,,,,,,,,,,,,,,,,,,,,,,,,,,,,,,,,,,,,,,,,,,,,,,,,,,,,,,,,,,,,,,,,,,,,
1725710386.168507,1725710386.170147,237.0,0.0,4248.333496,4252.692383,4260.384766,4301.922852,4203.846191,4245.897461,4402.05127,4232.307617,4300.384766,4185.0,4539.230957,4524.230957,4385.128418,4446.794922,3929.0,1.0,15.0,,,,0.0,4.0,4.0,4.0,4.0,4.0,4.0,4.0,4.0,4.0,4.0,4.0,4.0,4.0,4.0,100.0,,,,,,,,,,,,,,,,,,,,,,,,,,,,,,,,,,,,,,,,,,,,,,,,,,,,,,,,,,,,,,,,,,,,,,,,,,,,,,,,,,,,,,,,,,,,,,,,,,,,,,,,,,,,,,,,,,,,,,,,,,,,,,,,,,,
1725710386.172411,1725710386.174051,238.0,0.0,4250.769043,4257.179688,4265.128418,4307.436035,4202.94873,4246.282227,4406.282227,4232.820313,4303.717773,4187.820313,4537.563965,4525.512695,4383.717773,4447.563965,2905.0,1.0,15.0,,,,0.0,4.0,4.0,4.0,4.0,4.0,4.0,4.0,4.0,4.0,4.0,4.0,4.0,4.0,4.0,100.0,,,,,,,,,,,,,,,,,,,,,,,,,,,,,,,,,,,,,,,,,,,,,,,,,,,,,,,,,,,,,,,,,,,,,,,,,,,,,,,,,,,,,,,,,,,,,,,,,,,,,,,,,,,,,,,,,,,,,,,,,,,,,,,,,,,
1725710386.176315,1725710386.177955,239.0,0.0,4251.410156,4260.512695,4266.666504,4311.025879,4201.794922,4246.410156,4410.897461,4231.666504,4307.94873,4187.563965,4536.282227,4524.487305,4383.205078,4449.358887,3142.0,1.0,15.0,,,,0.0,4.0,4.0,4.0,4.0,4.0,4.0,4.0,4.0,4.0,4.0,4.0,4.0,4.0,4.0,100.0,,,,,,,,,,,,,,,,,,,,,,,,,,,,,,,,,,,,,,,,,,,,,,,,,,,,,,,,,,,,,,,,,,,,,,,,,,,,,,,,,,,,,,,,,,,,,,,,,,,,,,,,,,,,,,,,,,,,,,,,,,,,,,,,,,,
1725710386.18022,1725710386.181759,240.0,0.0,4250.512695,4261.153809,4264.871582,4311.666504,4201.410156,4246.538574,4413.974121,4231.538574,4311.666504,4185.897461,4536.410156,4523.461426,4384.358887,4451.153809,3431.0,1.0,15.0,,,,0.0,4.0,4.0,4.0,4.0,4.0,4.0,4.0,4.0,4.0,4.0,4.0,4.0,4.0,4.0,100.0,,,,,,,,,,,,,,,,,1.0,0.0,0.0,,,,,,,,,,,,,,,,,,,,,,,,,,,,,,,,,,,,,0.0,0.0,1.0,0.0,1024.0,0.029598,1.687486,0.95832,0.318279,0.182399,0.083212,1.341987,0.839357,0.354876,0.188218,0.095306,1.301418,0.581367,0.300123,0.088731,0.075573,1.864185,0.835011,1.241113,0.282446,0.099049,0.567922,0.541908,0.236558,0.126144,0.062588,0.184181,0.276877,0.196754,0.027121,0.030106,5.215765,1.422403,0.93736,0.169477,0.089738,0.847527,1.651181,0.140092,0.198392,0.155523,0.693632,0.614273,0.449691,0.204465,0.099148,1.727863,0.977943,1.051075,0.276835,0.123566,2.916437,1.068994,1.159982,0.823835,0.337252,3.573587,1.781237,1.015676,0.385423,0.131332,2.166932,1.076781,0.818548,0.404522,0.158906,3.191598,1.13793,0.634978,0.298394,0.118973
1725710386.184124,1725710386.185663,241.0,0.0,4249.230957,4259.743652,4262.05127,4310.128418,4202.179688,4246.794922,4414.358887,4234.358887,4313.717773,4184.615234,4538.333496,4523.717773,4386.666504,4451.410156,3929.0,1.0,15.0,,,,0.0,4.0,4.0,4.0,4.0,4.0,4.0,4.0,4.0,4.0,4.0,4.0,4.0,4.0,4.0,100.0,,,,,,,,,,,,,,,,,,,,,,,,,,,,,,,,,,,,,,,,,,,,,,,,,,,,,,,,,,,,,,,,,,,,,,,,,,,,,,,,,,,,,,,,,,,,,,,,,,,,,,,,,,,,,,,,,,,,,,,,,,,,,,,,,,,
1725710386.188028,1725710386.189567,242.0,0.0,4249.102539,4258.333496,4260.897461,4308.077148,4203.589844,4247.563965,4412.94873,4239.487305,4313.846191,4184.358887,4540.512695,4525.512695,4388.846191,4449.743652,2905.0,1.0,15.0,,,,0.0,4.0,4.0,4.0,4.0,4.0,4.0,4.0,4.0,4.0,4.0,4.0,4.0,4.0,4.0,100.0,,,,,,,,,,,,,,,,,,,,,,,,,,,,,,,,,,,,,,,,,,,,,,,,,,,,,,,,,,,,,,,,,,,,,,,,,,,,,,,,,,,,,,,,,,,,,,,,,,,,,,,,,,,,,,,,,,,,,,,,,,,,,,,,,,,
1725710386.191932,1725710386.193471,243.0,0.0,4250.256348,4258.205078,4262.307617,4307.307617,4204.743652,4248.846191,4411.538574,4244.102539,4312.179688,4183.846191,4541.282227,4527.692383,4388.589844,4446.922852,3142.0,1.0,15.0,,,,0.0,4.0,4.0,4.0,4.0,4.0,4.0,4.0,4.0,4.0,4.0,4.0,4.0,4.0,4.0,100.0,,,,,,,,,,,,,,,,,,,,,,,,,,,,,,,,,,,,,,,,,,,,,,,,,,,,,,,,,,,,,,,,,,,,,,,,,,,,,,,,,,,,,,,,,,,,,,,,,,,,,,,,,,,,,,,,,,,,,,,,,,,,,,,,,,,
1725710386.195836,1725710386.197275,244.0,0.0,4251.538574,4259.358887,4265.0,4308.333496,4204.615234,4250.0,4411.538574,4245.769043,4309.230957,4181.025879,4539.615234,4528.333496,4384.358887,4444.743652,3431.0,1.0,15.0,,,,0.0,4.0,4.0,4.0,4.0,4.0,4.0,4.0,4.0,4.0,4.0,4.0,4.0,4.0,4.0,100.0,,,,,,,,,,,,,,,,,,,,,,,,,,,,,,,,,,,,,,,,,,,,,,,,,,,,,,,,,,,,,,,,,,,,,,,,,,,,,,,,,,,,,,,,,,,,,,,,,,,,,,,,,,,,,,,,,,,,,,,,,,,,,,,,,,,
1725710386.19974,1725710386.20118,245.0,0.0,4251.282227,4259.615234,4265.897461,4308.974121,4204.102539,4250.256348,4413.205078,4243.589844,4305.256348,4175.128418,4535.897461,4526.153809,4376.922852,4443.589844,3929.0,1.0,15.0,,,,0.0,4.0,4.0,4.0,4.0,4.0,4.0,4.0,4.0,4.0,4.0,4.0,4.0,4.0,4.0,100.0,,,,,,,,,,,,,,,,,,,,,,,,,,,,,,,,,,,,,,,,,,,,,,,,,,,,,,,,,,,,,,,,,,,,,,,,,,,,,,,,,,,,,,,,,,,,,,,,,,,,,,,,,,,,,,,,,,,,,,,,,,,,,,,,,,,
1725710386.203644,1725710386.205084,246.0,0.0,4248.846191,4256.922852,4262.94873,4306.794922,4203.974121,4249.615234,4416.025879,4238.974121,4300.256348,4168.077148,4530.384766,4521.025879,4368.974121,4442.179688,2905.0,1.0,15.0,,,,0.0,4.0,4.0,4.0,4.0,4.0,4.0,4.0,4.0,4.0,4.0,4.0,4.0,4.0,4.0,100.0,,,,,,,,,,,,,,,,,,,,,,,,,,,,,,,,,,,,,,,,,,,,,,,,,,,,,,,,,,,,,,,,,,,,,,,,,,,,,,,,,,,,,,,,,,,,,,,,,,,,,,,,,,,,,,,,,,,,,,,,,,,,,,,,,,,
1725710386.207548,1725710386.209088,247.0,0.0,4245.0,4251.153809,4256.282227,4301.282227,4205.0,4248.333496,4419.487305,4234.487305,4294.743652,4162.179688,4523.974121,4513.974121,4363.589844,4439.487305,3142.0,1.0,15.0,,,,0.0,4.0,4.0,4.0,4.0,4.0,4.0,4.0,4.0,4.0,4.0,4.0,4.0,4.0,4.0,100.0,,,,,,,,,,,,,,,,,,,,,,,,,,,,,,,,,,,,,,,,,,,,,,,,,,,,,,,,,,,,,,,,,,,,,,,,,,,,,,,,,,,,,,,,,,,,,,,,,,,,,,,,,,,,,,,,,,,,,,,,,,,,,,,,,,,
1725710386.211452,1725710386.212992,248.0,0.0,4241.666504,4245.128418,4249.230957,4294.743652,4205.769043,4247.179688,4423.717773,4231.025879,4289.487305,4158.333496,4518.589844,4507.179688,4362.692383,4435.769043,3431.0,1.0,15.0,,,,0.0,4.0,4.0,4.0,4.0,4.0,4.0,4.0,4.0,4.0,4.0,4.0,4.0,4.0,4.0,100.0,,,,,,,,,,,,,,,,,,,,,,,,,,,,,,,,,,,,,,,,,,,,,,,,,,,,,,,,0.0,0.0,1.0,0.0,1024.0,0.029598,,,,,,,,,,,,,,,,,,,,,,,,,,,,,,,,,,,,,,,,,,,,,,,,,,,,,,,,,,,,,,,,,,,,,,
1725710386.215356,1725710386.216896,249.0,0.0,4241.025879,4242.436035,4245.512695,4290.769043,4205.0,4246.538574,4429.102539,4227.94873,4285.0,4155.256348,4516.538574,4503.461426,4365.512695,4432.692383,3929.0,1.0,15.0,,,,0.0,4.0,4.0,4.0,4.0,4.0,4.0,4.0,4.0,4.0,4.0,4.0,4.0,4.0,4.0,100.0,,,,,,,,,,,,,,,,,,,,,,,,,,,,,,,,,,,,,,,,,,,,,,,,,,,,,,,,,,,,,,,,,,,,,,,,,,,,,,,,,,,,,,,,,,,,,,,,,,,,,,,,,,,,,,,,,,,,,,,,,,,,,,,,,,,
1725710386.219261,1725710386.2208,250.0,0.0,4243.205078,4245.384766,4246.538574,4291.794922,4202.820313,4246.922852,4435.128418,4224.102539,4281.410156,4151.538574,4517.820313,4503.461426,4369.871582,4432.179688,2905.0,1.0,15.0,,,,0.0,4.0,4.0,4.0,4.0,4.0,4.0,4.0,4.0,4.0,4.0,4.0,4.0,4.0,4.0,100.0,,,,,,,,,,,,,,,,,,,,,,,,,,,,,,,,,,,,,,,,,,,,,,,,,,,,,,,,,,,,,,,,,,,,,,,,,,,,,,,,,,,,,,,,,,,,,,,,,,,,,,,,,,,,,,,,,,,,,,,,,,,,,,,,,,,
1725710386.223165,1725710386.224804,251.0,0.0,4247.307617,4252.94873,4251.410156,4297.179688,4201.410156,4248.077148,4440.641113,4219.358887,4279.102539,4148.205078,4519.743652,4505.897461,4373.717773,4435.128418,3142.0,1.0,15.0,,,,0.0,4.0,4.0,4.0,4.0,4.0,4.0,4.0,4.0,4.0,4.0,4.0,4.0,4.0,4.0,100.0,,,,,,,,,,,,,,,,,,,,,,,,,,,,,,,,,,,,,,,,,,,,,,,,,,,,,,,,,,,,,,,,,,,,,,,,,,,,,,,,,,,,,,,,,,,,,,,,,,,,,,,,,,,,,,,,,,,,,,,,,,,,,,,,,,,
1725710386.227069,1725710386.228708,252.0,0.0,4251.025879,4261.025879,4257.179688,4303.846191,4203.589844,4249.615234,4444.487305,4214.743652,4278.461426,4147.692383,4519.358887,4508.077148,4376.282227,4440.897461,3431.0,1.0,15.0,,,,0.0,4.0,4.0,4.0,4.0,4.0,4.0,4.0,4.0,4.0,4.0,4.0,4.0,4.0,4.0,100.0,,,,,,,,,,,,,,,,,,,,,,,,,,,,,,,,,,,,,,,,,,,,,,,,,,,,,,,,,,,,,,,,,,,,,,,,,,,,,,,,,,,,,,,,,,,,,,,,,,,,,,,,,,,,,,,,,,,,,,,,,,,,,,,,,,,
1725710386.230973,1725710386.232612,253.0,0.0,4252.692383,4265.769043,4261.282227,4308.461426,4209.487305,4251.025879,4446.025879,4211.794922,4279.743652,4151.538574,4516.410156,4508.205078,4377.436035,4446.153809,3929.0,1.0,15.0,,,,0.0,4.0,4.0,4.0,4.0,4.0,4.0,4.0,4.0,4.0,4.0,4.0,4.0,4.0,4.0,100.0,,,,,,,,,,,,,,,,,,,,,,,,,,,,,,,,,,,,,,,,,,,,,,,,,,,,,,,,,,,,,,,,,,,,,,,,,,,,,,,,,,,,,,,,,,,,,,,,,,,,,,,,,,,,,,,,,,,,,,,,,,,,,,,,,,,
1725710386.234877,1725710386.236616,254.0,0.0,4252.05127,4264.743652,4262.179688,4309.743652,4215.641113,4251.410156,4445.897461,4211.410156,4282.692383,4158.461426,4513.077148,4506.794922,4376.922852,4447.307617,2905.0,1.0,15.0,,,,0.0,4.0,4.0,4.0,4.0,4.0,4.0,4.0,4.0,4.0,4.0,4.0,4.0,4.0,4.0,100.0,,,,,,,,,,,,,,,,,,,,,,,,,,,,,,,,,,,,,,,,,,,,,,,,,,,,,,,,,,,,,,,,,,,,,,,,,,,,,,,,,,,,,,,,,,,,,,,,,,,,,,,,,,,,,,,,,,,,,,,,,,,,,,,,,,,
1725710386.238781,1725710386.24052,255.0,0.0,4249.615234,4258.974121,4260.512695,4308.717773,4217.307617,4250.256348,4445.512695,4213.205078,4286.794922,4165.128418,4512.307617,4505.0,4374.230957,4443.077148,15.0,1.0,15.0,,,,0.0,4.0,4.0,4.0,4.0,4.0,4.0,4.0,4.0,4.0,4.0,4.0,4.0,4.0,4.0,100.0,,,,,,,,,,,,,,,,,,,,,,,,,,,,,,,,,,,,,,,,,,,,,,,,,,,,,,,,,,,,,,,,,,,,,,,,,,,,,,,,,,,,,,,,,,,,,,,,,,,,,,,,,,,,,,,,,,,,,,,,,,,,,,,,,,,
1725710386.242685,1725710386.244424,0.0,0.0,4246.666504,4251.538574,4257.820313,4307.820313,4213.077148,4248.333496,4446.153809,4215.384766,4290.641113,4168.717773,4515.0,4504.102539,4369.615234,4435.384766,2705.0,1.0,15.0,,,,0.0,4.0,4.0,4.0,4.0,4.0,4.0,4.0,4.0,4.0,4.0,4.0,4.0,4.0,4.0,100.0,,,,,,,,,,,,,,,,,,,,,,,,,,,,,,,,,,,,,,,,,,,,,,,,,,,,,,,,0.0,0.0,1.0,0.0,1024.0,0.029598,,,,,,,,,,,,,,,,,,,,,,,,,,,,,,,,,,,,,,,,,,,,,,,,,,,,,,,,,,,,,,,,,,,,,,
1725710386.246589,1725710386.248328,1.0,0.0,4244.743652,4246.538574,4255.384766,4308.333496,4206.153809,4247.436035,4448.461426,4216.410156,4293.461426,4169.230957,4519.230957,4503.974121,4364.871582,4428.717773,2583.0,1.0,15.0,,,,0.0,4.0,4.0,4.0,4.0,4.0,4.0,4.0,4.0,4.0,4.0,4.0,4.0,4.0,4.0,100.0,,,,,,,,,,,,,,,,,,,,,,,,,,,,,,,,,,,,,,,,,,,,,,,,,,,,,,,,,,,,,,,,,,,,,,,,,,,,,,,,,,,,,,,,,,,,,,,,,,,,,,,,,,,,,,,,,,,,,,,,,,,,,,,,,,,
1725710386.250493,1725710386.252233,2.0,0.0,4244.487305,4245.897461,4253.205078,4309.743652,4201.922852,4249.230957,4452.179688,4216.282227,4295.128418,4168.974121,4521.922852,4504.871582,4363.077148,4427.05127,2513.0,1.0,15.0,,,,0.0,4.0,4.0,4.0,4.0,4.0,4.0,4.0,4.0,4.0,4.0,4.0,4.0,4.0,4.0,100.0,,,,,,,,,,,,,,,,,,,,,,,,,,,,,,,,,,,,,,,,,,,,,,,,,,,,,,,,,,,,,,,,,,,,,,,,,,,,,,,,,,,,,,,,,,,,,,,,,,,,,,,,,,,,,,,,,,,,,,,,,,,,,,,,,,,
1725710386.254398,1725710386.256137,3.0,0.0,4245.512695,4248.589844,4251.282227,4310.256348,4203.461426,4253.205078,4456.538574,4216.538574,4296.794922,4170.897461,4522.307617,4506.538574,4365.769043,4430.897461,2479.0,1.0,15.0,,,,0.0,4.0,4.0,4.0,4.0,4.0,4.0,4.0,4.0,4.0,4.0,4.0,4.0,4.0,4.0,100.0,,,,,,,,,,,,,,,,,,,,,,,,,,,,,,,,,,,,,,,,,,,,,,,,,,,,,,,,,,,,,,,,,,,,,,,,,,,,,,,,,,,,,,,,,,,,,,,,,,,,,,,,,,,,,,,,,,,,,,,,,,,,,,,,,,,
1725710386.258302,1725710386.259941,4.0,0.0,4247.307617,4251.922852,4249.871582,4309.102539,4209.102539,4256.922852,4460.256348,4218.846191,4299.487305,4175.897461,4523.077148,4509.230957,4371.794922,4438.205078,2446.0,1.0,15.0,,,,0.0,4.0,4.0,4.0,4.0,4.0,4.0,4.0,4.0,4.0,4.0,4.0,4.0,4.0,4.0,100.0,,,,,,,,,,,,,,,,,,,,,,,,,,,,,,,,,,,,,,,,,,,,,,,,,,,,,,,,,,,,,,,,,,,,,,,,,,,,,,,,,,,,,,,,,,,,,,,,,,,,,,,,,,,,,,,,,,,,,,,,,,,,,,,,,,,
1725710386.262206,1725710386.263845,5.0,0.0,4248.717773,4253.333496,4250.384766,4307.436035,4214.102539,4258.205078,4462.05127,4222.94873,4303.589844,4181.922852,4527.436035,4513.205078,4378.461426,4445.256348,2406.0,1.0,15.0,,,,0.0,4.0,4.0,4.0,4.0,4.0,4.0,4.0,4.0,4.0,4.0,4.0,4.0,4.0,4.0,100.0,,,,,,,,,,,,,,,,,,,,,,,,,,,,,,,,,,,,,,,,,,,,,,,,,,,,,,,,,,,,,,,,,,,,,,,,,,,,,,,,,,,,,,,,,,,,,,,,,,,,,,,,,,,,,,,,,,,,,,,,,,,,,,,,,,,
1725710386.26611,1725710386.267849,6.0,0.0,4249.358887,4252.563965,4253.205078,4306.538574,4214.358887,4256.153809,4461.794922,4227.563965,4308.205078,4186.282227,4535.769043,4517.436035,4382.94873,4449.102539,2454.0,1.0,15.0,,,,0.0,4.0,4.0,4.0,4.0,4.0,4.0,4.0,4.0,4.0,4.0,4.0,4.0,4.0,4.0,100.0,,,,,,,,,,,,,,,,,,,,,,,,,,,,,,,,,,,,,,,,,,,,,,,,,,,,,,,,,,,,,,,,,,,,,,,,,,,,,,,,,,,,,,,,,,,,,,,,,,,,,,,,,,,,,,,,,,,,,,,,,,,,,,,,,,,
1725710386.270014,1725710386.271753,7.0,0.0,4249.230957,4250.512695,4257.05127,4307.179688,4210.384766,4252.692383,4460.512695,4231.538574,4312.05127,4187.563965,4543.589844,4520.512695,4383.846191,4448.846191,2488.0,1.0,15.0,,,,0.0,4.0,4.0,4.0,4.0,4.0,4.0,4.0,4.0,4.0,4.0,4.0,4.0,4.0,4.0,100.0,,,,,,,,,,,,,,,,,,,,,,,,,,,,,,,,,,,,,,,,,,,,,,,,,,,,,,,,,,,,,,,,,,,,,,,,,,,,,,,,,,,,,,,,,,,,,,,,,,,,,,,,,,,,,,,,,,,,,,,,,,,,,,,,,,,
1725710386.273918,1725710386.275657,8.0,0.0,4248.461426,4249.487305,4259.615234,4308.717773,4206.025879,4250.897461,4459.615234,4233.846191,4313.461426,4186.922852,4545.512695,4521.666504,4381.794922,4445.641113,2481.0,1.0,15.0,,,,0.0,4.0,4.0,4.0,4.0,4.0,4.0,4.0,4.0,4.0,4.0,4.0,4.0,4.0,4.0,100.0,,,,,,,,,,,,,,,,,,,,,,,,,,,,,,,,,,,,,,,,,,,,,,,,,,,,,,,,0.0,0.0,1.0,0.0,1024.0,0.029598,,,,,,,,,,,,,,,,,,,,,,,,,,,,,,,,,,,,,,,,,,,,,,,,,,,,,,,,,,,,,,,,,,,,,,
1725710386.277822,1725710386.279561,9.0,0.0,4248.077148,4250.512695,4258.974121,4310.256348,4205.769043,4252.436035,4459.487305,4234.358887,4312.820313,4186.538574,4539.615234,4521.282227,4379.358887,4442.692383,2560.0,1.0,15.0,,,,0.0,4.0,4.0,4.0,4.0,4.0,4.0,4.0,4.0,4.0,4.0,4.0,4.0,4.0,4.0,100.0,,,,,,,,,,,,,,,,,,,,,,,,,,,,,,,,,,,,,,,,,,,,,,,,,,,,,,,,,,,,,,,,,,,,,,,,,,,,,,,,,,,,,,,,,,,,,,,,,,,,,,,,,,,,,,,,,,,,,,,,,,,,,,,,,,,
1725710386.281726,1725710386.283465,10.0,0.0,4248.461426,4253.461426,4255.128418,4311.153809,4210.256348,4256.794922,4459.871582,4233.589844,4311.666504,4187.179688,4529.358887,4520.769043,4378.205078,4442.692383,2905.0,1.0,15.0,,,,0.0,4.0,4.0,4.0,4.0,4.0,4.0,4.0,4.0,4.0,4.0,4.0,4.0,4.0,4.0,100.0,,,,,,,,,,,,,,,,,,,,,,,,,,,,,,,,,,,,,,,,,,,,,,,,,,,,,,,,,,,,,,,,,,,,,,,,,,,,,,,,,,,,,,,,,,,,,,,,,,,,,,,,,,,,,,,,,,,,,,,,,,,,,,,,,,,
1725710386.28563,1725710386.28727,11.0,0.0,4249.487305,4257.179688,4250.769043,4312.05127,4216.153809,4261.025879,4459.743652,4232.563965,4311.282227,4187.692383,4522.179688,4521.282227,4378.974121,4445.897461,3142.0,1.0,15.0,,,,0.0,4.0,4.0,4.0,4.0,4.0,4.0,4.0,4.0,4.0,4.0,4.0,4.0,4.0,4.0,100.0,,,,,,,,,,,,,,,,,,,,,,,,,,,,,,,,,,,,,,,,,,,,,,,,,,,,,,,,,,,,,,,,,,,,,,,,,,,,,,,,,,,,,,,,,,,,,,,,,,,,,,,,,,,,,,,,,,,,,,,,,,,,,,,,,,,
1725710386.289534,1725710386.291174,12.0,0.0,4250.512695,4260.897461,4248.974121,4313.846191,4218.974121,4262.05127,4458.461426,4232.436035,4311.666504,4186.153809,4523.333496,4522.436035,4380.769043,4449.615234,3423.0,1.0,15.0,,,,0.0,4.0,4.0,4.0,4.0,4.0,4.0,4.0,4.0,4.0,4.0,4.0,4.0,4.0,4.0,100.0,,,,,,,,,,,,,,,,,,,,,,,,,,,,,,,,,,,,,,,,,,,,,,,,,,,,,,,,,,,,,,,,,,,,,,,,,,,,,,,,,,,,,,,,,,,,,,,,,,,,,,,,,,,,,,,,,,,,,,,,,,,,,,,,,,,
1725710386.293439,1725710386.295078,13.0,0.0,4251.025879,4264.358887,4250.897461,4316.538574,4216.666504,4258.846191,4455.512695,4234.358887,4311.153809,4182.692383,4532.05127,4523.589844,4382.94873,4451.538574,3929.0,1.0,15.0,,,,0.0,4.0,4.0,4.0,4.0,4.0,4.0,4.0,4.0,4.0,4.0,4.0,4.0,4.0,4.0,100.0,,,,,,,,,,,,,,,,,,,,,,,,,,,,,,,,,,,,,,,,,,,,,,,,,,,,,,,,,,,,,,,,,,,,,,,,,,,,,,,,,,,,,,,,,,,,,,,,,,,,,,,,,,,,,,,,,,,,,,,,,,,,,,,,,,,
1725710386.297343,1725710386.298982,14.0,0.0,4251.025879,4266.666504,4255.128418,4319.487305,4210.641113,4253.461426,4451.794922,4237.307617,4308.333496,4179.871582,4542.692383,4524.358887,4385.0,4451.153809,2905.0,1.0,15.0,,,,0.0,4.0,4.0,4.0,4.0,4.0,4.0,4.0,4.0,4.0,4.0,4.0,4.0,4.0,4.0,100.0,,,,,,,,,,,,,,,,,,,,,,,,,,,,,,,,,,,,,,,,,,,,,,,,,,,,,,,,,,,,,,,,,,,,,,,,,,,,,,,,,,,,,,,,,,,,,,,,,,,,,,,,,,,,,,,,,,,,,,,,,,,,,,,,,,,
1725710386.301247,1725710386.302786,15.0,0.0,4250.256348,4266.794922,4259.102539,4321.153809,4204.102539,4248.974121,4448.333496,4239.102539,4303.461426,4179.102539,4548.846191,4525.256348,4386.282227,4449.743652,3142.0,1.0,15.0,,,,0.0,4.0,4.0,4.0,4.0,4.0,4.0,4.0,4.0,4.0,4.0,4.0,4.0,4.0,4.0,100.0,,,,,,,,,,,,,,,,,,,,,,,,,,,,,,,,,,,,,,,,,,,,,,,,,,,,,,,,,,,,,,,,,,,,,,,,,,,,,,,,,,,,,,,,,,,,,,,,,,,,,,,,,,,,,,,,,,,,,,,,,,,,,,,,,,,
1725710386.305151,1725710386.30669,16.0,0.0,4248.974121,4264.615234,4261.025879,4320.641113,4200.384766,4247.94873,4446.025879,4237.94873,4298.461426,4180.256348,4547.820313,4527.05127,4386.282227,4449.358887,3423.0,1.0,15.0,,,,0.0,4.0,4.0,4.0,4.0,4.0,4.0,4.0,4.0,4.0,4.0,4.0,4.0,4.0,4.0,100.0,1.0,75.0,4.0,4.0,4.0,4.0,4.0,4.0,1.0,4.0,4.0,4.0,4.0,4.0,4.0,4.0,1.0,0.0,0.0,,,,,,,,,,,,,,,,,,,,,,,,,,,,,,,,,,,,,0.0,0.0,1.0,0.0,1024.0,0.013886,1.81089,1.163646,0.359041,0.188795,0.078881,1.585716,1.027167,0.404833,0.24309,0.119966,1.317749,0.597006,0.292368,0.092662,0.077142,2.192119,0.980029,1.291161,0.329276,0.105165,0.628861,0.615035,0.26348,0.135062,0.073877,0.25849,0.316506,0.172518,0.030115,0.026694,4.60774,1.646714,0.907243,0.185365,0.088212,0.850414,2.442336,0.180072,0.198029,0.160632,0.760683,0.909573,0.40787,0.207423,0.094248,1.757385,1.249577,1.047943,0.308197,0.124951,2.950719,1.3716,1.159576,0.821738,0.341941,3.680161,2.393311,0.958346,0.432091,0.127957,2.084711,1.388723,0.867133,0.435864,0.143178,3.117144,1.4137,0.605617,0.338722,0.111361
1725710386.309055,1725710386.310594,17.0,0.0,4247.94873,4261.025879,4260.897461,4318.589844,4200.128418,4250.512695,4445.0,4234.871582,4295.512695,4180.641113,4541.538574,4529.743652,4384.871582,4450.897461,3929.0,1.0,15.0,,,,0.0,4.0,4.0,4.0,4.0,4.0,4.0,4.0,4.0,4.0,4.0,4.0,4.0,4.0,4.0,100.0,,,,,,,,,,,,,,,,,,,,,,,,,,,,,,,,,,,,,,,,,,,,,,,,,,,,,,,,,,,,,,,,,,,,,,,,,,,,,,,,,,,,,,,,,,,,,,,,,,,,,,,,,,,,,,,,,,,,,,,,,,,,,,,,,,,
1725710386.312959,1725710386.314598,18.0,0.0,4248.205078,4257.692383,4259.743652,4316.922852,4202.563965,4254.871582,4445.256348,4232.820313,4295.384766,4178.333496,4534.743652,4533.333496,4382.307617,4454.230957,2905.0,1.0,15.0,,,,0.0,4.0,4.0,4.0,4.0,4.0,4.0,4.0,4.0,4.0,4.0,4.0,4.0,4.0,4.0,100.0,,,,,,,,,,,,,,,,,,,,,,,,,,,,,,,,,,,,,,,,,,,,,,,,,,,,,,,,,,,,,,,,,,,,,,,,,,,,,,,,,,,,,,,,,,,,,,,,,,,,,,,,,,,,,,,,,,,,,,,,,,,,,,,,,,,
1725710386.316863,1725710386.318502,19.0,0.0,4250.512695,4255.641113,4259.487305,4316.666504,4206.282227,4259.102539,4446.025879,4234.230957,4297.05127,4173.717773,4531.794922,4537.179688,4380.0,4458.461426,3142.0,1.0,15.0,,,,0.0,4.0,4.0,4.0,4.0,4.0,4.0,4.0,4.0,4.0,4.0,4.0,4.0,4.0,4.0,100.0,,,,,,,,,,,,,,,,,,,,,,,,,,,,,,,,,,,,,,,,,,,,,,,,,,,,,,,,,,,,,,,,,,,,,,,,,,,,,,,,,,,,,,,,,,,,,,,,,,,,,,,,,,,,,,,,,,,,,,,,,,,,,,,,,,,
1725710386.320767,1725710386.322407,20.0,0.0,4254.358887,4255.0,4261.153809,4318.077148,4210.384766,4261.922852,4446.538574,4238.717773,4298.205078,4169.743652,4534.358887,4540.256348,4379.487305,4462.05127,3423.0,1.0,15.0,,,,0.0,4.0,4.0,4.0,4.0,4.0,4.0,4.0,4.0,4.0,4.0,4.0,4.0,4.0,4.0,100.0,,,,,,,,,,,,,,,,,,,,,,,,,,,,,,,,,,,,,,,,,,,,,,,,,,,,,,,,,,,,,,,,,,,,,,,,,,,,,,,,,,,,,,,,,,,,,,,,,,,,,,,,,,,,,,,,,,,,,,,,,,,,,,,,,,,
1725710386.324671,1725710386.326311,21.0,0.0,4257.692383,4254.743652,4264.230957,4319.871582,4213.717773,4262.94873,4446.410156,4243.077148,4297.436035,4168.717773,4540.0,4541.410156,4380.641113,4463.205078,3929.0,1.0,15.0,,,,0.0,4.0,4.0,4.0,4.0,4.0,4.0,4.0,4.0,4.0,4.0,4.0,4.0,4.0,4.0,100.0,,,,,,,,,,,,,,,,,,,,,,,,,,,,,,,,,,,,,,,,,,,,,,,,,,,,,,,,,,,,,,,,,,,,,,,,,,,,,,,,,,,,,,,,,,,,,,,,,,,,,,,,,,,,,,,,,,,,,,,,,,,,,,,,,,,
1725710386.328575,1725710386.330315,22.0,0.0,4258.717773,4253.717773,4266.282227,4320.512695,4215.384766,4262.820313,4445.256348,4243.974121,4295.256348,4170.384766,4544.487305,4539.487305,4382.05127,4460.897461,2905.0,1.0,15.0,,,,0.0,4.0,4.0,4.0,4.0,4.0,4.0,4.0,4.0,4.0,4.0,4.0,4.0,4.0,4.0,100.0,,,,,,,,,,,,,,,,,,,,,,,,,,,,,,,,,,,,,,,,,,,,,,,,,,,,,,,,,,,,,,,,,,,,,,,,,,,,,,,,,,,,,,,,,,,,,,,,,,,,,,,,,,,,,,,,,,,,,,,,,,,,,,,,,,,
1725710386.33248,1725710386.334219,23.0,0.0,4256.282227,4251.410156,4265.384766,4318.974121,4215.0,4261.922852,4442.692383,4239.615234,4293.333496,4172.692383,4544.358887,4534.358887,4381.794922,4456.025879,3142.0,1.0,15.0,,,,0.0,4.0,4.0,4.0,4.0,4.0,4.0,4.0,4.0,4.0,4.0,4.0,4.0,4.0,4.0,100.0,,,,,,,,,,,,,,,,,,,,,,,,,,,,,,,,,,,,,,,,,,,,,,,,,,,,,,,,,,,,,,,,,,,,,,,,,,,,,,,,,,,,,,,,,,,,,,,,,,,,,,,,,,,,,,,,,,,,,,,,,,,,,,,,,,,
1725710386.336384,1725710386.338123,24.0,0.0,4251.794922,4248.717773,4261.025879,4315.128418,4213.589844,4261.538574,4439.230957,4231.794922,4292.820313,4173.205078,4538.846191,4527.179688,4378.974121,4450.128418,3423.0,1.0,15.0,,,,0.0,4.0,4.0,4.0,4.0,4.0,4.0,4.0,4.0,4.0,4.0,4.0,4.0,4.0,4.0,100.0,,,,,,,,,,,,,,,,,,,,,,,,,,,,,,,,,,,,,,,,,,,,,,,,,,,,,,,,0.0,0.0,1.0,0.0,1024.0,0.013886,,,,,,,,,,,,,,,,,,,,,,,,,,,,,,,,,,,,,,,,,,,,,,,,,,,,,,,,,,,,,,,,,,,,,,
1725710386.340288,1725710386.342027,25.0,0.0,4247.820313,4247.05127,4255.512695,4310.512695,4212.563965,4262.05127,4435.256348,4224.871582,4293.205078,4171.794922,4530.384766,4520.128418,4374.487305,4445.0,3929.0,1.0,15.0,,,,0.0,4.0,4.0,4.0,4.0,4.0,4.0,4.0,4.0,4.0,4.0,4.0,4.0,4.0,4.0,100.0,,,,,,,,,,,,,,,,,,,,,,,,,,,,,,,,,,,,,,,,,,,,,,,,,,,,,,,,,,,,,,,,,,,,,,,,,,,,,,,,,,,,,,,,,,,,,,,,,,,,,,,,,,,,,,,,,,,,,,,,,,,,,,,,,,,
1725710386.344192,1725710386.345831,26.0,0.0,4246.025879,4247.05127,4251.410156,4307.179688,4212.563965,4263.717773,4432.307617,4222.436035,4293.205078,4170.128418,4522.05127,4515.384766,4369.871582,4441.282227,2905.0,1.0,15.0,,,,0.0,4.0,4.0,4.0,4.0,4.0,4.0,4.0,4.0,4.0,4.0,4.0,4.0,4.0,4.0,100.0,,,,,,,,,,,,,,,,,,,,,,,,,,,,,,,,,,,,,,,,,,,,,,,,,,,,,,,,,,,,,,,,,,,,,,,,,,,,,,,,,,,,,,,,,,,,,,,,,,,,,,,,,,,,,,,,,,,,,,,,,,,,,,,,,,,
1725710386.348096,1725710386.349735,27.0,0.0,4246.153809,4248.461426,4250.769043,4306.922852,4213.333496,4265.769043,4430.897461,4225.384766,4292.820313,4171.025879,4517.05127,4513.974121,4366.410156,4439.230957,3142.0,1.0,15.0,,,,0.0,4.0,4.0,4.0,4.0,4.0,4.0,4.0,4.0,4.0,4.0,4.0,4.0,4.0,4.0,100.0,,,,,,,,,,,,,,,,,,,,,,,,,,,,,,,,,,,,,,,,,,,,,,,,,,,,,,,,,,,,,,,,,,,,,,,,,,,,,,,,,,,,,,,,,,,,,,,,,,,,,,,,,,,,,,,,,,,,,,,,,,,,,,,,,,,
1725710386.352,1725710386.353639,28.0,0.0,4246.666504,4249.358887,4252.94873,4309.230957,4214.358887,4267.436035,4430.897461,4230.897461,4293.205078,4175.384766,4517.307617,4515.641113,4365.128418,4438.717773,3423.0,1.0,15.0,,,,0.0,4.0,4.0,4.0,4.0,4.0,4.0,4.0,4.0,4.0,4.0,4.0,4.0,4.0,4.0,100.0,,,,,,,,,,,,,,,,,,,,,,,,,,,,,,,,,,,,,,,,,,,,,,,,,,,,,,,,,,,,,,,,,,,,,,,,,,,,,,,,,,,,,,,,,,,,,,,,,,,,,,,,,,,,,,,,,,,,,,,,,,,,,,,,,,,
1725710386.355904,1725710386.357643,29.0,0.0,4246.025879,4248.589844,4255.897461,4311.794922,4215.256348,4267.94873,4430.0,4235.256348,4295.384766,4181.282227,4521.922852,4518.589844,4366.025879,4439.358887,3929.0,1.0,15.0,,,,0.0,4.0,4.0,4.0,4.0,4.0,4.0,4.0,4.0,4.0,4.0,4.0,4.0,4.0,4.0,100.0,,,,,,,,,,,,,,,,,,,,,,,,,,,,,,,,,,,,,,,,,,,,,,,,,,,,,,,,,,,,,,,,,,,,,,,,,,,,,,,,,,,,,,,,,,,,,,,,,,,,,,,,,,,,,,,,,,,,,,,,,,,,,,,,,,,
1725710386.359808,1725710386.361548,30.0,0.0,4244.358887,4245.897461,4257.563965,4311.922852,4215.897461,4267.436035,4426.538574,4236.410156,4298.974121,4186.025879,4526.922852,4521.025879,4368.333496,4440.641113,2905.0,1.0,15.0,,,,0.0,4.0,4.0,4.0,4.0,4.0,4.0,4.0,4.0,4.0,4.0,4.0,4.0,4.0,4.0,100.0,,,,,,,,,,,,,,,,,,,,,,,,,,,,,,,,,,,,,,,,,,,,,,,,,,,,,,,,,,,,,,,,,,,,,,,,,,,,,,,,,,,,,,,,,,,,,,,,,,,,,,,,,,,,,,,,,,,,,,,,,,,,,,,,,,,
1725710386.363712,1725710386.365452,31.0,0.0,4242.820313,4243.077148,4257.692383,4308.717773,4215.641113,4266.153809,4421.025879,4234.871582,4302.179688,4187.820313,4528.077148,4522.307617,4370.641113,4441.666504,3142.0,1.0,15.0,,,,0.0,4.0,4.0,4.0,4.0,4.0,4.0,4.0,4.0,4.0,4.0,4.0,4.0,4.0,4.0,100.0,,,,,,,,,,,,,,,,,,,,,,,,,,,,,,,,,,,,,,,,,,,,,,,,,,,,,,,,,,,,,,,,,,,,,,,,,,,,,,,,,,,,,,,,,,,,,,,,,,,,,,,,,,,,,,,,,,,,,,,,,,,,,,,,,,,
1725710386.367617,1725710386.369356,32.0,0.0,4242.94873,4242.436035,4257.436035,4304.743652,4214.871582,4264.615234,4415.384766,4232.692383,4304.102539,4187.692383,4525.128418,4522.563965,4372.05127,4442.436035,0.0,1.0,15.0,,,,0.0,4.0,4.0,4.0,4.0,4.0,4.0,4.0,4.0,4.0,4.0,4.0,4.0,4.0,4.0,100.0,,,,,,,,,,,,,,,,,,,,,,,,,,,,,,,,,,,,,,,,,,,,,,,,,,,,,,,,0.0,0.0,1.0,0.0,1024.0,0.013886,,,,,,,,,,,,,,,,,,,,,,,,,,,,,,,,,,,,,,,,,,,,,,,,,,,,,,,,,,,,,,,,,,,,,,
1725710386.371521,1725710386.37336,33.0,0.0,4245.384766,4244.871582,4258.333496,4303.333496,4214.358887,4263.461426,4412.307617,4232.05127,4305.128418,4187.307617,4521.410156,4522.692383,4373.077148,4443.205078,0.0,1.0,15.0,,,,0.0,4.0,4.0,4.0,4.0,4.0,4.0,4.0,4.0,4.0,4.0,4.0,4.0,4.0,4.0,100.0,,,,,,,,,,,,,,,,,,,,,,,,,,,,,,,,,,,,,,,,,,,,,,,,,,,,,,,,,,,,,,,,,,,,,,,,,,,,,,,,,,,,,,,,,,,,,,,,,,,,,,,,,,,,,,,,,,,,,,,,,,,,,,,,,,,
1725710386.375425,1725710386.377264,34.0,0.0,4248.589844,4249.230957,4260.512695,4306.666504,4214.487305,4263.077148,4412.692383,4233.205078,4306.153809,4187.692383,4521.410156,4523.333496,4374.487305,4444.487305,0.0,1.0,15.0,,,,0.0,4.0,4.0,4.0,4.0,4.0,4.0,4.0,4.0,4.0,4.0,4.0,4.0,4.0,4.0,100.0,,,,,,,,,,,,,,,,,,,,,,,,,,,,,,,,,,,,,,,,,,,,,,,,,,,,,,,,,,,,,,,,,,,,,,,,,,,,,,,,,,,,,,,,,,,,,,,,,,,,,,,,,,,,,,,,,,,,,,,,,,,,,,,,,,,
1725710386.379329,1725710386.381168,35.0,0.0,4251.025879,4253.205078,4263.333496,4313.461426,4215.128418,4263.717773,4415.0,4234.615234,4307.307617,4188.589844,4526.153809,4524.487305,4376.410156,4445.897461,0.0,1.0,15.0,,,,0.0,4.0,4.0,4.0,4.0,4.0,4.0,4.0,4.0,4.0,4.0,4.0,4.0,4.0,4.0,100.0,,,,,,,,,,,,,,,,,,,,,,,,,,,,,,,,,,,,,,,,,,,,,,,,,,,,,,,,,,,,,,,,,,,,,,,,,,,,,,,,,,,,,,,,,,,,,,,,,,,,,,,,,,,,,,,,,,,,,,,,,,,,,,,,,,,
1725710386.383233,1725710386.385072,36.0,0.0,4251.794922,4255.128418,4265.0,4320.384766,4214.871582,4264.743652,4417.05127,4234.871582,4308.077148,4189.102539,4533.333496,4525.128418,4377.179688,4446.794922,0.0,1.0,15.0,,,,0.0,4.0,4.0,4.0,4.0,4.0,4.0,4.0,4.0,4.0,4.0,4.0,4.0,4.0,4.0,100.0,,,,,,,,,,,,,,,,,,,,,,,,,,,,,,,,,,,,,,,,,,,,,,,,,,,,,,,,,,,,,,,,,,,,,,,,,,,,,,,,,,,,,,,,,,,,,,,,,,,,,,,,,,,,,,,,,,,,,,,,,,,,,,,,,,,
1725710386.387137,1725710386.389076,37.0,0.0,4251.282227,4254.743652,4264.871582,4323.846191,4213.205078,4264.615234,4416.410156,4234.230957,4307.94873,4188.333496,4538.846191,4525.0,4375.256348,4446.794922,0.0,1.0,15.0,,,,0.0,4.0,4.0,4.0,4.0,4.0,4.0,4.0,4.0,4.0,4.0,4.0,4.0,4.0,4.0,100.0,,,,,,,,,,,,,,,,,,,,,,,,,,,,,,,,,,,,,,,,,,,,,,,,,,,,,,,,,,,,,,,,,,,,,,,,,,,,,,,,,,,,,,,,,,,,,,,,,,,,,,,,,,,,,,,,,,,,,,,,,,,,,,,,,,,
1725710386.391041,1725710386.39298,38.0,0.0,4250.512695,4252.94873,4263.589844,4323.077148,4210.0,4262.179688,4412.820313,4233.717773,4306.922852,4186.410156,4540.256348,4524.358887,4370.897461,4446.025879,0.0,1.0,15.0,,,,0.0,4.0,4.0,4.0,4.0,4.0,4.0,4.0,4.0,4.0,4.0,4.0,4.0,4.0,4.0,100.0,,,,,,,,,,,,,,,,,,,,,,,,,,,,,,,,,,,,,,,,,,,,,,,,,,,,,,,,,,,,,,,,,,,,,,,,,,,,,,,,,,,,,,,,,,,,,,,,,,,,,,,,,,,,,,,,,,,,,,,,,,,,,,,,,,,
1725710386.394945,1725710386.396884,39.0,0.0,4249.871582,4250.897461,4262.307617,4320.256348,4206.153809,4257.692383,4407.307617,4233.846191,4305.641113,4184.230957,4538.077148,4523.846191,4366.922852,4445.0,0.0,1.0,15.0,,,,0.0,4.0,4.0,4.0,4.0,4.0,4.0,4.0,4.0,4.0,4.0,4.0,4.0,4.0,4.0,100.0,,,,,,,,,,,,,,,,,,,,,,,,,,,,,,,,,,,,,,,,,,,,,,,,,,,,,,,,,,,,,,,,,,,,,,,,,,,,,,,,,,,,,,,,,,,,,,,,,,,,,,,,,,,,,,,,,,,,,,,,,,,,,,,,,,,
1725710386.398849,1725710386.400788,40.0,0.0,4249.743652,4249.743652,4261.794922,4318.589844,4203.333496,4253.461426,4402.436035,4234.615234,4304.102539,4182.94873,4534.871582,4523.974121,4366.282227,4444.358887,0.0,1.0,15.0,,,,0.0,4.0,4.0,4.0,4.0,4.0,4.0,4.0,4.0,4.0,4.0,4.0,4.0,4.0,4.0,100.0,,,,,,,,,,,,,,,,,,,,,,,,,,,,,,,,,,,,,,,,,,,,,,,,,,,,,,,,0.0,0.0,1.0,0.0,1024.0,0.013886,,,,,,,,,,,,,,,,,,,,,,,,,,,,,,,,,,,,,,,,,,,,,,,,,,,,,,,,,,,,,,,,,,,,,,
1725710386.402753,1725710386.404692,41.0,0.0,4250.0,4250.0,4262.05127,4319.230957,4202.179688,4251.794922,4400.641113,4235.769043,4302.820313,4183.333496,4533.589844,4524.615234,4370.0,4444.615234,0.0,1.0,15.0,,,,0.0,4.0,4.0,4.0,4.0,4.0,4.0,4.0,4.0,4.0,4.0,4.0,4.0,4.0,4.0,100.0,,,,,,,,,,,,,,,,,,,,,,,,,,,,,,,,,,,,,,,,,,,,,,,,,,,,,,,,,,,,,,,,,,,,,,,,,,,,,,,,,,,,,,,,,,,,,,,,,,,,,,,,,,,,,,,,,,,,,,,,,,,,,,,,,,,
1725710386.406657,1725710386.408497,42.0,0.0,4250.641113,4251.282227,4262.179688,4321.025879,4202.563965,4253.846191,4402.820313,4236.794922,4302.05127,4184.358887,4535.897461,4525.897461,4375.769043,4445.769043,0.0,1.0,15.0,,,,0.0,4.0,4.0,4.0,4.0,4.0,4.0,4.0,4.0,4.0,4.0,4.0,4.0,4.0,4.0,100.0,,,,,,,,,,,,,,,,,,,,,,,,,,,,,,,,,,,,,,,,,,,,,,,,,,,,,,,,,,,,,,,,,,,,,,,,,,,,,,,,,,,,,,,,,,,,,,,,,,,,,,,,,,,,,,,,,,,,,,,,,,,,,,,,,,,
1725710386.410561,1725710386.412401,43.0,0.0,4251.153809,4252.05127,4261.666504,4321.666504,4203.461426,4258.333496,4407.307617,4237.307617,4301.538574,4184.358887,4539.743652,4527.307617,4380.0,4446.794922,0.0,1.0,15.0,,,,0.0,4.0,4.0,4.0,4.0,4.0,4.0,4.0,4.0,4.0,4.0,4.0,4.0,4.0,4.0,100.0,,,,,,,,,,,,,,,,,,,,,,,,,,,,,,,,,,,,,,,,,,,,,,,,,,,,,,,,,,,,,,,,,,,,,,,,,,,,,,,,,,,,,,,,,,,,,,,,,,,,,,,,,,,,,,,,,,,,,,,,,,,,,,,,,,,
1725710386.414466,1725710386.416305,44.0,0.0,4251.282227,4251.666504,4261.025879,4320.0,4203.974121,4262.692383,4411.538574,4237.179688,4300.128418,4181.922852,4540.769043,4527.436035,4379.871582,4446.410156,0.0,1.0,15.0,,,,0.0,4.0,4.0,4.0,4.0,4.0,4.0,4.0,4.0,4.0,4.0,4.0,4.0,4.0,4.0,100.0,,,,,,,,,,,,,,,,,,,,,,,,,,,,,,,,,,,,,,,,,,,,,,,,,,,,,,,,,,,,,,,,,,,,,,,,,,,,,,,,,,,,,,,,,,,,,,,,,,,,,,,,,,,,,,,,,,,,,,,,,,,,,,,,,,,
1725710386.41837,1725710386.420309,45.0,0.0,4250.512695,4249.743652,4260.897461,4316.538574,4203.461426,4264.615234,4413.333496,4236.282227,4297.179688,4177.436035,4536.538574,4525.769043,4375.769043,4444.615234,0.0,1.0,15.0,,,,0.0,4.0,4.0,4.0,4.0,4.0,4.0,4.0,4.0,4.0,4.0,4.0,4.0,4.0,4.0,100.0,,,,,,,,,,,,,,,,,,,,,,,,,,,,,,,,,,,,,,,,,,,,,,,,,,,,,,,,,,,,,,,,,,,,,,,,,,,,,,,,,,,,,,,,,,,,,,,,,,,,,,,,,,,,,,,,,,,,,,,,,,,,,,,,,,,
1725710386.422274,1725710386.424213,46.0,0.0,4249.358887,4247.436035,4261.922852,4313.077148,4202.436035,4264.230957,4412.563965,4234.743652,4293.846191,4172.436035,4528.846191,4523.205078,4371.410156,4442.436035,0.0,1.0,15.0,,,,0.0,4.0,4.0,4.0,4.0,4.0,4.0,4.0,4.0,4.0,4.0,4.0,4.0,4.0,4.0,100.0,,,,,,,,,,,,,,,,,,,,,,,,,,,,,,,,,,,,,,,,,,,,,,,,,,,,,,,,,,,,,,,,,,,,,,,,,,,,,,,,,,,,,,,,,,,,,,,,,,,,,,,,,,,,,,,,,,,,,,,,,,,,,,,,,,,
1725710386.426178,1725710386.428117,47.0,0.0,4248.205078,4246.153809,4263.333496,4310.256348,4201.666504,4262.94873,4410.0,4233.333496,4292.436035,4170.256348,4522.692383,4521.666504,4371.153809,4441.282227,0.0,1.0,15.0,,,,0.0,4.0,4.0,4.0,4.0,4.0,4.0,4.0,4.0,4.0,4.0,4.0,4.0,4.0,4.0,100.0,,,,,,,,,,,,,,,,,,,,,,,,,,,,,,,,,,,,,,,,,,,,,,,,,,,,,,,,,,,,,,,,,,,,,,,,,,,,,,,,,,,,,,,,,,,,,,,,,,,,,,,,,,,,,,,,,,,,,,,,,,,,,,,,,,,
1725710386.430082,1725710386.432021,48.0,0.0,4247.820313,4246.666504,4263.974121,4308.333496,4201.794922,4262.692383,4406.922852,4232.563965,4294.102539,4172.563965,4521.666504,4522.436035,4376.025879,4441.922852,0.0,1.0,15.0,,,,0.0,4.0,4.0,4.0,4.0,4.0,4.0,4.0,4.0,4.0,4.0,4.0,4.0,4.0,4.0,100.0,,,,,,,,,,,,,,,,,1.0,0.0,0.0,,,,,,,,,,,,,,,,,,,,,,,,,,,,,,,,,,,,,0.0,0.0,1.0,0.0,1024.0,0.049725,1.736524,1.254366,0.367929,0.179233,0.07222,1.654431,1.118466,0.410662,0.284777,0.146541,1.253919,0.589188,0.261801,0.090264,0.075051,2.356122,1.057958,1.229584,0.360927,0.114655,0.66042,0.62551,0.274891,0.138663,0.088129,0.369462,0.359277,0.158652,0.039869,0.02587,3.774168,1.785913,0.921724,0.195947,0.08681,0.802012,3.398065,0.26241,0.186808,0.153072,0.801859,1.381556,0.364411,0.211097,0.088808,1.622041,1.537555,0.95646,0.326948,0.125264,2.714056,1.726862,1.053414,0.784061,0.342176,3.490659,3.105508,0.850207,0.45069,0.124415,1.831293,1.651372,0.82146,0.433159,0.127219,2.76088,1.606012,0.549783,0.354597,0.105604
1725710386.433986,1725710386.435825,49.0,0.0,4248.205078,4248.589844,4262.692383,4307.563965,4202.692383,4263.974121,4404.358887,4232.563965,4297.820313,4178.205078,4524.487305,4523.974121,4383.077148,4443.846191,0.0,1.0,15.0,,,,0.0,4.0,4.0,4.0,4.0,4.0,4.0,4.0,4.0,4.0,4.0,4.0,4.0,4.0,4.0,100.0,,,,,,,,,,,,,,,,,,,,,,,,,,,,,,,,,,,,,,,,,,,,,,,,,,,,,,,,,,,,,,,,,,,,,,,,,,,,,,,,,,,,,,,,,,,,,,,,,,,,,,,,,,,,,,,,,,,,,,,,,,,,,,,,,,,
1725710386.43789,1725710386.43973,50.0,0.0,4248.846191,4250.384766,4259.358887,4308.205078,4203.846191,4266.025879,4402.05127,4232.692383,4300.897461,4183.974121,4527.820313,4523.974121,4387.436035,4446.025879,0.0,1.0,15.0,,,,0.0,4.0,4.0,4.0,4.0,4.0,4.0,4.0,4.0,4.0,4.0,4.0,4.0,4.0,4.0,100.0,,,,,,,,,,,,,,,,,,,,,,,,,,,,,,,,,,,,,,,,,,,,,,,,,,,,,,,,,,,,,,,,,,,,,,,,,,,,,,,,,,,,,,,,,,,,,,,,,,,,,,,,,,,,,,,,,,,,,,,,,,,,,,,,,,,
1725710386.441794,1725710386.443634,51.0,0.0,4249.102539,4250.641113,4254.871582,4309.743652,4204.743652,4267.179688,4399.102539,4232.692383,4301.153809,4186.922852,4529.230957,4520.641113,4386.025879,4447.05127,0.0,1.0,15.0,,,,0.0,4.0,4.0,4.0,4.0,4.0,4.0,4.0,4.0,4.0,4.0,4.0,4.0,4.0,4.0,100.0,,,,,,,,,,,,,,,,,,,,,,,,,,,,,,,,,,,,,,,,,,,,,,,,,,,,,,,,,,,,,,,,,,,,,,,,,,,,,,,,,,,,,,,,,,,,,,,,,,,,,,,,,,,,,,,,,,,,,,,,,,,,,,,,,,,
1725710386.445698,1725710386.447538,52.0,0.0,4248.333496,4248.974121,4251.025879,4310.512695,4205.256348,4266.666504,4394.358887,4232.307617,4298.589844,4186.410156,4529.487305,4514.358887,4380.0,4445.769043,0.0,1.0,15.0,,,,0.0,4.0,4.0,4.0,4.0,4.0,4.0,4.0,4.0,4.0,4.0,4.0,4.0,4.0,4.0,100.0,,,,,,,,,,,,,,,,,,,,,,,,,,,,,,,,,,,,,,,,,,,,,,,,,,,,,,,,,,,,,,,,,,,,,,,,,,,,,,,,,,,,,,,,,,,,,,,,,,,,,,,,,,,,,,,,,,,,,,,,,,,,,,,,,,,
1725710386.449602,1725710386.451342,53.0,0.0,4246.794922,4246.538574,4249.230957,4309.102539,4205.128418,4265.512695,4387.94873,4231.794922,4295.641113,4184.230957,4530.512695,4507.692383,4373.717773,4441.538574,0.0,1.0,15.0,,,,0.0,4.0,4.0,4.0,4.0,4.0,4.0,4.0,4.0,4.0,4.0,4.0,4.0,4.0,4.0,100.0,,,,,,,,,,,,,,,,,,,,,,,,,,,,,,,,,,,,,,,,,,,,,,,,,,,,,,,,,,,,,,,,,,,,,,,,,,,,,,,,,,,,,,,,,,,,,,,,,,,,,,,,,,,,,,,,,,,,,,,,,,,,,,,,,,,
1725710386.453507,1725710386.455246,54.0,0.0,4245.128418,4244.743652,4249.615234,4305.512695,4204.358887,4265.128418,4380.897461,4231.153809,4294.743652,4183.077148,4533.077148,4504.102539,4370.769043,4435.641113,0.0,1.0,15.0,,,,0.0,4.0,4.0,4.0,4.0,4.0,4.0,4.0,4.0,4.0,4.0,4.0,4.0,4.0,4.0,100.0,,,,,,,,,,,,,,,,,,,,,,,,,,,,,,,,,,,,,,,,,,,,,,,,,,,,,,,,,,,,,,,,,,,,,,,,,,,,,,,,,,,,,,,,,,,,,,,,,,,,,,,,,,,,,,,,,,,,,,,,,,,,,,,,,,,
1725710386.457411,1725710386.45915,55.0,0.0,4244.102539,4244.615234,4251.025879,4301.025879,4203.205078,4265.897461,4374.743652,4230.769043,4297.436035,4184.230957,4535.512695,4504.358887,4371.666504,4430.512695,0.0,1.0,15.0,,,,0.0,4.0,4.0,4.0,4.0,4.0,4.0,4.0,4.0,4.0,4.0,4.0,4.0,4.0,4.0,100.0,,,,,,,,,,,,,,,,,,,,,,,,,,,,,,,,,,,,,,,,,,,,,,,,,,,,,,,,,,,,,,,,,,,,,,,,,,,,,,,,,,,,,,,,,,,,,,,,,,,,,,,,,,,,,,,,,,,,,,,,,,,,,,,,,,,
1725710386.461315,1725710386.463154,56.0,0.0,4243.974121,4245.256348,4251.410156,4296.794922,4202.307617,4266.666504,4370.128418,4230.512695,4302.05127,4187.05127,4535.384766,4506.794922,4374.102539,4428.846191,0.0,1.0,15.0,,,,0.0,4.0,4.0,4.0,4.0,4.0,4.0,4.0,4.0,4.0,4.0,4.0,4.0,4.0,4.0,100.0,,,,,,,,,,,,,,,,,,,,,,,,,,,,,,,,,,,,,,,,,,,,,,,,,,,,,,,,0.0,0.0,1.0,0.0,1024.0,0.049725,,,,,,,,,,,,,,,,,,,,,,,,,,,,,,,,,,,,,,,,,,,,,,,,,,,,,,,,,,,,,,,,,,,,,,
1725710386.465219,1725710386.467058,57.0,0.0,4244.487305,4245.128418,4250.256348,4293.846191,4202.179688,4266.153809,4366.538574,4230.512695,4305.512695,4189.230957,4531.025879,4508.461426,4375.384766,4431.025879,0.0,1.0,15.0,,,,0.0,4.0,4.0,4.0,4.0,4.0,4.0,4.0,4.0,4.0,4.0,4.0,4.0,4.0,4.0,100.0,,,,,,,,,,,,,,,,,,,,,,,,,,,,,,,,,,,,,,,,,,,,,,,,,,,,,,,,,,,,,,,,,,,,,,,,,,,,,,,,,,,,,,,,,,,,,,,,,,,,,,,,,,,,,,,,,,,,,,,,,,,,,,,,,,,
1725710386.469123,1725710386.470962,58.0,0.0,4244.871582,4243.205078,4248.589844,4293.205078,4203.077148,4264.358887,4363.077148,4230.512695,4305.256348,4189.487305,4524.102539,4507.820313,4374.871582,4435.256348,0.0,1.0,15.0,,,,0.0,4.0,4.0,4.0,4.0,4.0,4.0,4.0,4.0,4.0,4.0,4.0,4.0,4.0,4.0,100.0,,,,,,,,,,,,,,,,,,,,,,,,,,,,,,,,,,,,,,,,,,,,,,,,,,,,,,,,,,,,,,,,,,,,,,,,,,,,,,,,,,,,,,,,,,,,,,,,,,,,,,,,,,,,,,,,,,,,,,,,,,,,,,,,,,,
1725710386.473027,1725710386.474866,59.0,0.0,4244.743652,4240.641113,4248.846191,4295.384766,4203.974121,4262.692383,4359.487305,4230.641113,4301.666504,4188.077148,4518.333496,4506.666504,4373.589844,4439.102539,0.0,1.0,15.0,,,,0.0,4.0,4.0,4.0,4.0,4.0,4.0,4.0,4.0,4.0,4.0,4.0,4.0,4.0,4.0,100.0,,,,,,,,,,,,,,,,,,,,,,,,,,,,,,,,,,,,,,,,,,,,,,,,,,,,,,,,,,,,,,,,,,,,,,,,,,,,,,,,,,,,,,,,,,,,,,,,,,,,,,,,,,,,,,,,,,,,,,,,,,,,,,,,,,,
1725710386.476931,1725710386.47887,60.0,0.0,4244.487305,4240.256348,4252.436035,4299.487305,4204.230957,4262.307617,4355.769043,4230.769043,4297.692383,4186.794922,4518.461426,4507.820313,4373.333496,4441.410156,0.0,1.0,15.0,,,,0.0,4.0,4.0,4.0,4.0,4.0,4.0,4.0,4.0,4.0,4.0,4.0,4.0,4.0,4.0,100.0,,,,,,,,,,,,,,,,,,,,,,,,,,,,,,,,,,,,,,,,,,,,,,,,,,,,,,,,,,,,,,,,,,,,,,,,,,,,,,,,,,,,,,,,,,,,,,,,,,,,,,,,,,,,,,,,,,,,,,,,,,,,,,,,,,,
1725710386.480835,1725710386.482775,61.0,0.0,4244.615234,4243.077148,4258.461426,4303.974121,4204.102539,4262.94873,4352.436035,4231.153809,4297.05127,4186.666504,4525.256348,4512.94873,4375.256348,4442.94873,0.0,1.0,15.0,,,,0.0,4.0,4.0,4.0,4.0,4.0,4.0,4.0,4.0,4.0,4.0,4.0,4.0,4.0,4.0,100.0,,,,,,,,,,,,,,,,,,,,,,,,,,,,,,,,,,,,,,,,,,,,,,,,,,,,,,,,,,,,,,,,,,,,,,,,,,,,,,,,,,,,,,,,,,,,,,,,,,,,,,,,,,,,,,,,,,,,,,,,,,,,,,,,,,,
1725710386.484739,1725710386.486679,62.0,0.0,4246.025879,4247.692383,4264.358887,4307.436035,4203.846191,4262.94873,4349.230957,4232.179688,4300.512695,4187.94873,4535.0,4520.384766,4379.487305,4445.897461,0.0,1.0,15.0,,,,0.0,4.0,4.0,4.0,4.0,4.0,4.0,4.0,4.0,4.0,4.0,4.0,4.0,4.0,4.0,100.0,,,,,,,,,,,,,,,,,,,,,,,,,,,,,,,,,,,,,,,,,,,,,,,,,,,,,,,,,,,,,,,,,,,,,,,,,,,,,,,,,,,,,,,,,,,,,,,,,,,,,,,,,,,,,,,,,,,,,,,,,,,,,,,,,,,
1725710386.488644,1725710386.490583,63.0,0.0,4248.717773,4251.538574,4268.077148,4309.871582,4203.589844,4260.769043,4346.025879,4233.717773,4306.153809,4189.487305,4541.922852,4526.538574,4385.384766,4451.410156,0.0,1.0,15.0,,,,0.0,4.0,4.0,4.0,4.0,4.0,4.0,4.0,4.0,4.0,4.0,4.0,4.0,4.0,4.0,100.0,,,,,,,,,,,,,,,,,,,,,,,,,,,,,,,,,,,,,,,,,,,,,,,,,,,,,,,,,,,,,,,,,,,,,,,,,,,,,,,,,,,,,,,,,,,,,,,,,,,,,,,,,,,,,,,,,,,,,,,,,,,,,,,,,,,
1725710386.492548,1725710386.494587,64.0,0.0,4252.179688,4253.333496,4269.102539,4311.538574,4203.461426,4256.282227,4342.94873,4235.256348,4309.743652,4190.0,4542.94873,4529.102539,4390.897461,4458.333496,0.0,1.0,15.0,,,,0.0,4.0,4.0,4.0,4.0,4.0,4.0,4.0,4.0,4.0,4.0,4.0,4.0,4.0,4.0,100.0,,,,,,,,,,,,,,,,,,,,,,,,,,,,,,,,,,,,,,,,,,,,,,,,,,,,,,,,0.0,0.0,1.0,0.0,1024.0,0.049725,,,,,,,,,,,,,,,,,,,,,,,,,,,,,,,,,,,,,,,,,,,,,,,,,,,,,,,,,,,,,,,,,,,,,,
1725710386.496452,1725710386.498491,65.0,0.0,4255.128418,4253.717773,4268.461426,4312.820313,4202.94873,4251.153809,4340.769043,4235.897461,4309.102539,4189.871582,4540.256348,4528.333496,4393.846191,4463.333496,0.0,1.0,15.0,,,,0.0,4.0,4.0,4.0,4.0,4.0,4.0,4.0,4.0,4.0,4.0,4.0,4.0,4.0,4.0,100.0,,,,,,,,,,,,,,,,,,,,,,,,,,,,,,,,,,,,,,,,,,,,,,,,,,,,,,,,,,,,,,,,,,,,,,,,,,,,,,,,,,,,,,,,,,,,,,,,,,,,,,,,,,,,,,,,,,,,,,,,,,,,,,,,,,,
1725710386.500356,1725710386.502395,66.0,0.0,4256.410156,4255.0,4267.436035,4312.820313,4202.05127,4248.077148,4339.743652,4235.641113,4305.769043,4189.871582,4538.589844,4527.05127,4392.563965,4463.333496,0.0,1.0,15.0,,,,0.0,4.0,4.0,4.0,4.0,4.0,4.0,4.0,4.0,4.0,4.0,4.0,4.0,4.0,4.0,100.0,,,,,,,,,,,,,,,,,,,,,,,,,,,,,,,,,,,,,,,,,,,,,,,,,,,,,,,,,,,,,,,,,,,,,,,,,,,,,,,,,,,,,,,,,,,,,,,,,,,,,,,,,,,,,,,,,,,,,,,,,,,,,,,,,,,
1725710386.50426,1725710386.506299,67.0,0.0,4255.897461,4257.436035,4266.666504,4310.641113,4200.641113,4248.846191,4339.871582,4234.871582,4302.692383,4190.256348,4539.743652,4527.05127,4387.563965,4457.94873,0.0,1.0,15.0,,,,0.0,4.0,4.0,4.0,4.0,4.0,4.0,4.0,4.0,4.0,4.0,4.0,4.0,4.0,4.0,100.0,,,,,,,,,,,,,,,,,,,,,,,,,,,,,,,,,,,,,,,,,,,,,,,,,,,,,,,,,,,,,,,,,,,,,,,,,,,,,,,,,,,,,,,,,,,,,,,,,,,,,,,,,,,,,,,,,,,,,,,,,,,,,,,,,,,
1725710386.508164,1725710386.510203,68.0,0.0,4254.102539,4259.871582,4266.538574,4306.153809,4199.230957,4253.205078,4340.512695,4234.230957,4301.538574,4190.128418,4541.922852,4527.307617,4380.384766,4450.512695,0.0,1.0,15.0,,,,0.0,4.0,4.0,4.0,4.0,4.0,4.0,4.0,4.0,4.0,4.0,4.0,4.0,4.0,4.0,100.0,,,,,,,,,,,,,,,,,,,,,,,,,,,,,,,,,,,,,,,,,,,,,,,,,,,,,,,,,,,,,,,,,,,,,,,,,,,,,,,,,,,,,,,,,,,,,,,,,,,,,,,,,,,,,,,,,,,,,,,,,,,,,,,,,,,
1725710386.512068,1725710386.514007,69.0,0.0,4251.794922,4259.743652,4266.922852,4300.512695,4198.846191,4259.102539,4341.410156,4233.846191,4300.769043,4187.94873,4541.922852,4525.512695,4373.333496,4444.743652,0.0,1.0,15.0,,,,0.0,4.0,4.0,4.0,4.0,4.0,4.0,4.0,4.0,4.0,4.0,4.0,4.0,4.0,4.0,100.0,,,,,,,,,,,,,,,,,,,,,,,,,,,,,,,,,,,,,,,,,,,,,,,,,,,,,,,,,,,,,,,,,,,,,,,,,,,,,,,,,,,,,,,,,,,,,,,,,,,,,,,,,,,,,,,,,,,,,,,,,,,,,,,,,,,
1725710386.515972,1725710386.517911,70.0,0.0,4249.743652,4255.384766,4267.05127,4295.897461,4199.615234,4263.589844,4342.05127,4233.205078,4298.077148,4183.589844,4537.692383,4520.256348,4367.692383,4441.282227,0.0,1.0,15.0,,,,0.0,4.0,4.0,4.0,4.0,4.0,4.0,4.0,4.0,4.0,4.0,4.0,4.0,4.0,4.0,100.0,,,,,,,,,,,,,,,,,,,,,,,,,,,,,,,,,,,,,,,,,,,,,,,,,,,,,,,,,,,,,,,,,,,,,,,,,,,,,,,,,,,,,,,,,,,,,,,,,,,,,,,,,,,,,,,,,,,,,,,,,,,,,,,,,,,
1725710386.519876,1725710386.521816,71.0,0.0,4247.307617,4247.563965,4265.512695,4293.717773,4200.897461,4265.256348,4342.05127,4231.410156,4291.666504,4177.05127,4529.102539,4511.794922,4363.461426,4437.94873,0.0,1.0,15.0,,,,0.0,4.0,4.0,4.0,4.0,4.0,4.0,4.0,4.0,4.0,4.0,4.0,4.0,4.0,4.0,100.0,,,,,,,,,,,,,,,,,,,,,,,,,,,,,,,,,,,,,,,,,,,,,,,,,,,,,,,,,,,,,,,,,,,,,,,,,,,,,,,,,,,,,,,,,,,,,,,,,,,,,,,,,,,,,,,,,,,,,,,,,,,,,,,,,,,
1725710386.52378,1725710386.52572,72.0,0.0,4243.205078,4238.717773,4261.538574,4293.974121,4201.153809,4264.358887,4341.153809,4227.692383,4282.179688,4168.846191,4517.179688,4500.641113,4358.974121,4431.538574,0.0,1.0,15.0,,,,0.0,4.0,4.0,4.0,4.0,4.0,4.0,4.0,4.0,4.0,4.0,4.0,4.0,4.0,4.0,100.0,,,,,,,,,,,,,,,,,,,,,,,,,,,,,,,,,,,,,,,,,,,,,,,,,,,,,,,,0.0,0.0,1.0,0.0,1024.0,0.049725,,,,,,,,,,,,,,,,,,,,,,,,,,,,,,,,,,,,,,,,,,,,,,,,,,,,,,,,,,,,,,,,,,,,,,
1725710386.527685,1725710386.529624,73.0,0.0,4236.538574,4231.153809,4255.512695,4294.102539,4198.846191,4262.820313,4339.487305,4222.307617,4271.410156,4158.589844,4503.205078,4487.94873,4351.410156,4420.128418,0.0,1.0,15.0,,,,0.0,4.0,4.0,4.0,4.0,4.0,4.0,4.0,4.0,4.0,4.0,4.0,4.0,4.0,4.0,100.0,,,,,,,,,,,,,,,,,,,,,,,,,,,,,,,,,,,,,,,,,,,,,,,,,,,,,,,,,,,,,,,,,,,,,,,,,,,,,,,,,,,,,,,,,,,,,,,,,,,,,,,,,,,,,,,,,,,,,,,,,,,,,,,,,,,
1725710386.531589,1725710386.533528,74.0,0.0,4227.692383,4225.769043,4249.230957,4291.666504,4193.589844,4262.563965,4338.077148,4216.794922,4262.307617,4147.307617,4488.974121,4475.384766,4339.871582,4405.641113,0.0,1.0,15.0,,,,0.0,4.0,4.0,4.0,4.0,4.0,4.0,4.0,4.0,4.0,4.0,4.0,4.0,4.0,4.0,100.0,,,,,,,,,,,,,,,,,,,,,,,,,,,,,,,,,,,,,,,,,,,,,,,,,,,,,,,,,,,,,,,,,,,,,,,,,,,,,,,,,,,,,,,,,,,,,,,,,,,,,,,,,,,,,,,,,,,,,,,,,,,,,,,,,,,
1725710386.535493,1725710386.537432,75.0,0.0,4218.717773,4221.538574,4244.230957,4285.512695,4187.179688,4263.717773,4337.307617,4212.94873,4257.307617,4137.563965,4476.794922,4464.230957,4326.410156,4392.820313,0.0,1.0,15.0,,,,0.0,4.0,4.0,4.0,4.0,4.0,4.0,4.0,4.0,4.0,4.0,4.0,4.0,4.0,4.0,100.0,,,,,,,,,,,,,,,,,,,,,,,,,,,,,,,,,,,,,,,,,,,,,,,,,,,,,,,,,,,,,,,,,,,,,,,,,,,,,,,,,,,,,,,,,,,,,,,,,,,,,,,,,,,,,,,,,,,,,,,,,,,,,,,,,,,
1725710386.539397,1725710386.541236,76.0,0.0,4212.05127,4217.436035,4241.538574,4277.94873,4182.563965,4264.871582,4337.307617,4211.794922,4257.179688,4132.563965,4468.589844,4456.666504,4316.153809,4385.897461,0.0,1.0,15.0,,,,0.0,4.0,4.0,4.0,4.0,4.0,4.0,4.0,4.0,4.0,4.0,4.0,4.0,4.0,4.0,100.0,,,,,,,,,,,,,,,,,,,,,,,,,,,,,,,,,,,,,,,,,,,,,,,,,,,,,,,,,,,,,,,,,,,,,,,,,,,,,,,,,,,,,,,,,,,,,,,,,,,,,,,,,,,,,,,,,,,,,,,,,,,,,,,,,,,
1725710386.543301,1725710386.54514,77.0,0.0,4209.487305,4213.461426,4240.512695,4272.94873,4182.05127,4265.128418,4338.077148,4213.205078,4261.538574,4134.615234,4466.538574,4454.871582,4314.358887,4387.05127,0.0,1.0,15.0,,,,0.0,4.0,4.0,4.0,4.0,4.0,4.0,4.0,4.0,4.0,4.0,4.0,4.0,4.0,4.0,100.0,,,,,,,,,,,,,,,,,,,,,,,,,,,,,,,,,,,,,,,,,,,,,,,,,,,,,,,,,,,,,,,,,,,,,,,,,,,,,,,,,,,,,,,,,,,,,,,,,,,,,,,,,,,,,,,,,,,,,,,,,,,,,,,,,,,
1725710386.547205,1725710386.549044,78.0,0.0,4212.307617,4211.538574,4240.897461,4273.205078,4185.769043,4264.102539,4339.487305,4215.769043,4268.461426,4143.846191,4472.436035,4460.512695,4322.692383,4395.0,0.0,1.0,15.0,,,,0.0,4.0,4.0,4.0,4.0,4.0,4.0,4.0,4.0,4.0,4.0,4.0,4.0,4.0,4.0,100.0,,,,,,,,,,,,,,,,,,,,,,,,,,,,,,,,,,,,,,,,,,,,,,,,,,,,,,,,,,,,,,,,,,,,,,,,,,,,,,,,,,,,,,,,,,,,,,,,,,,,,,,,,,,,,,,,,,,,,,,,,,,,,,,,,,,
1725710386.551109,1725710386.552949,79.0,0.0,4219.615234,4214.487305,4242.436035,4278.333496,4191.922852,4262.436035,4341.410156,4217.692383,4276.410156,4157.436035,4486.153809,4472.179688,4337.436035,4406.282227,0.0,1.0,15.0,,,,0.0,4.0,4.0,4.0,4.0,4.0,4.0,4.0,4.0,4.0,4.0,4.0,4.0,4.0,4.0,100.0,,,,,,,,,,,,,,,,,,,,,,,,,,,,,,,,,,,,,,,,,,,,,,,,,,,,,,,,,,,,,,,,,,,,,,,,,,,,,,,,,,,,,,,,,,,,,,,,,,,,,,,,,,,,,,,,,,,,,,,,,,,,,,,,,,,
1725710386.555013,1725710386.556753,80.0,0.0,4229.615234,4223.333496,4245.769043,4285.384766,4197.820313,4261.153809,4343.846191,4218.333496,4283.717773,4171.025879,4504.358887,4486.282227,4352.563965,4417.179688,0.0,1.0,15.0,,,,0.0,4.0,4.0,4.0,4.0,4.0,4.0,4.0,4.0,4.0,4.0,4.0,4.0,4.0,4.0,100.0,,,,,,,,,,,,,,,,,1.0,0.0,0.0,,,,,,,,,,,,,,,,,,,,,,,,,,,,,,,,,,,,,0.0,0.0,1.0,0.0,1.0,0.0,1.474575,1.190731,0.34056,0.156847,0.065016,1.509332,1.081192,0.374874,0.304257,0.169441,1.128678,0.55157,0.221774,0.084263,0.071266,2.287359,1.037274,1.069127,0.374039,0.126218,0.656571,0.568995,0.26442,0.138142,0.102688,0.499831,0.402288,0.151386,0.0569,0.028428,2.828746,1.770252,0.936718,0.196342,0.085812,0.734558,4.40272,0.388506,0.171555,0.135678,0.798452,2.024023,0.330828,0.210966,0.082875,1.35389,1.874319,0.80798,0.325943,0.122408,2.30749,2.13278,0.869279,0.718117,0.337895,3.100472,3.854688,0.721906,0.434084,0.121723,1.468198,1.816061,0.698747,0.399452,0.119635,2.223812,1.692084,0.493953,0.341164,0.102554
1725710386.558917,1725710386.560657,81.0,0.0,4238.974121,4235.897461,4251.153809,4291.666504,4201.410156,4261.282227,4346.538574,4218.589844,4289.615234,4180.769043,4521.025879,4498.077148,4363.717773,4425.897461,0.0,1.0,15.0,,,,0.0,4.0,4.0,4.0,4.0,4.0,4.0,4.0,4.0,4.0,4.0,4.0,4.0,4.0,4.0,100.0,,,,,,,,,,,,,,,,,,,,,,,,,,,,,,,,,,,,,,,,,,,,,,,,,,,,,,,,,,,,,,,,,,,,,,,,,,,,,,,,,,,,,,,,,,,,,,,,,,,,,,,,,,,,,,,,,,,,,,,,,,,,,,,,,,,
1725710386.562822,1725710386.564561,82.0,0.0,4245.384766,4247.692383,4257.563965,4296.666504,4202.692383,4262.94873,4348.846191,4219.102539,4293.589844,4185.769043,4531.282227,4505.0,4371.025879,4432.94873,0.0,1.0,15.0,,,,0.0,4.0,4.0,4.0,4.0,4.0,4.0,4.0,4.0,4.0,4.0,4.0,4.0,4.0,4.0,100.0,,,,,,,,,,,,,,,,,,,,,,,,,,,,,,,,,,,,,,,,,,,,,,,,,,,,,,,,,,,,,,,,,,,,,,,,,,,,,,,,,,,,,,,,,,,,,,,,,,,,,,,,,,,,,,,,,,,,,,,,,,,,,,,,,,,
1725710386.566726,1725710386.568565,83.0,0.0,4248.461426,4254.615234,4263.205078,4300.769043,4202.94873,4265.128418,4350.384766,4220.128418,4295.512695,4187.05127,4534.487305,4507.692383,4377.05127,4439.358887,0.0,1.0,15.0,,,,0.0,4.0,4.0,4.0,4.0,4.0,4.0,4.0,4.0,4.0,4.0,4.0,4.0,4.0,4.0,100.0,,,,,,,,,,,,,,,,,,,,,,,,,,,,,,,,,,,,,,,,,,,,,,,,,,,,,,,,,,,,,,,,,,,,,,,,,,,,,,,,,,,,,,,,,,,,,,,,,,,,,,,,,,,,,,,,,,,,,,,,,,,,,,,,,,,
1725710386.57063,1725710386.572469,84.0,0.0,4249.230957,4256.025879,4265.769043,4304.358887,4202.820313,4265.384766,4351.666504,4220.384766,4295.512695,4186.922852,4534.102539,4508.717773,4384.102539,4445.897461,0.0,1.0,15.0,,,,0.0,4.0,4.0,4.0,4.0,4.0,4.0,4.0,4.0,4.0,4.0,4.0,4.0,4.0,4.0,100.0,,,,,,,,,,,,,,,,,,,,,,,,,,,,,,,,,,,,,,,,,,,,,,,,,,,,,,,,,,,,,,,,,,,,,,,,,,,,,,,,,,,,,,,,,,,,,,,,,,,,,,,,,,,,,,,,,,,,,,,,,,,,,,,,,,,
1725710386.574534,1725710386.576373,85.0,0.0,4249.743652,4254.102539,4264.871582,4306.794922,4202.94873,4262.307617,4352.692383,4219.871582,4294.743652,4187.05127,4534.358887,4510.256348,4391.666504,4452.307617,0.0,1.0,15.0,,,,0.0,4.0,4.0,4.0,4.0,4.0,4.0,4.0,4.0,4.0,4.0,4.0,4.0,4.0,4.0,100.0,,,,,,,,,,,,,,,,,,,,,,,,,,,,,,,,,,,,,,,,,,,,,,,,,,,,,,,,,,,,,,,,,,,,,,,,,,,,,,,,,,,,,,,,,,,,,,,,,,,,,,,,,,,,,,,,,,,,,,,,,,,,,,,,,,,
1725710386.578438,1725710386.580277,86.0,0.0,4252.05127,4252.563965,4262.563965,4307.692383,4202.94873,4256.922852,4352.820313,4219.487305,4294.230957,4187.94873,4536.538574,4512.820313,4397.692383,4457.94873,0.0,1.0,15.0,,,,0.0,4.0,4.0,4.0,4.0,4.0,4.0,4.0,4.0,4.0,4.0,4.0,4.0,4.0,4.0,100.0,,,,,,,,,,,,,,,,,,,,,,,,,,,,,,,,,,,,,,,,,,,,,,,,,,,,,,,,,,,,,,,,,,,,,,,,,,,,,,,,,,,,,,,,,,,,,,,,,,,,,,,,,,,,,,,,,,,,,,,,,,,,,,,,,,,
1725710386.582342,1725710386.584281,87.0,0.0,4256.410156,4253.974121,4262.307617,4307.436035,4202.436035,4251.666504,4351.410156,4220.256348,4294.230957,4189.615234,4539.102539,4516.666504,4400.256348,4461.410156,0.0,1.0,15.0,,,,0.0,4.0,4.0,4.0,4.0,4.0,4.0,4.0,4.0,4.0,4.0,4.0,4.0,4.0,4.0,100.0,,,,,,,,,,,,,,,,,,,,,,,,,,,,,,,,,,,,,,,,,,,,,,,,,,,,,,,,,,,,,,,,,,,,,,,,,,,,,,,,,,,,,,,,,,,,,,,,,,,,,,,,,,,,,,,,,,,,,,,,,,,,,,,,,,,
1725710386.586246,1725710386.588185,88.0,0.0,4261.282227,4258.077148,4265.769043,4307.692383,4201.666504,4249.230957,4348.589844,4222.692383,4294.358887,4191.922852,4539.871582,4521.538574,4399.487305,4462.563965,0.0,1.0,15.0,,,,0.0,4.0,4.0,4.0,4.0,4.0,4.0,4.0,4.0,4.0,4.0,4.0,4.0,4.0,4.0,100.0,,,,,,,,,,,,,,,,,,,,,,,,,,,,,,,,,,,,,,,,,,,,,,,,,,,,,,,,0.0,0.0,1.0,0.0,1.0,0.0,,,,,,,,,,,,,,,,,,,,,,,,,,,,,,,,,,,,,,,,,,,,,,,,,,,,,,,,,,,,,,,,,,,,,,
1725710386.59015,1725710386.592089,89.0,0.0,4265.128418,4263.077148,4271.922852,4309.230957,4201.153809,4250.256348,4345.769043,4226.153809,4294.102539,4194.487305,4539.102539,4527.436035,4396.922852,4462.05127,0.0,1.0,15.0,,,,0.0,4.0,4.0,4.0,4.0,4.0,4.0,4.0,4.0,4.0,4.0,4.0,4.0,4.0,4.0,100.0,,,,,,,,,,,,,,,,,,,,,,,,,,,,,,,,,,,,,,,,,,,,,,,,,,,,,,,,,,,,,,,,,,,,,,,,,,,,,,,,,,,,,,,,,,,,,,,,,,,,,,,,,,,,,,,,,,,,,,,,,,,,,,,,,,,
1725710386.594054,1725710386.595994,90.0,0.0,4266.666504,4266.282227,4277.692383,4312.179688,4201.025879,4253.846191,4344.743652,4230.512695,4293.717773,4196.666504,4539.743652,4533.589844,4394.615234,4461.666504,0.0,1.0,15.0,,,,0.0,4.0,4.0,4.0,4.0,4.0,4.0,4.0,4.0,4.0,4.0,4.0,4.0,4.0,4.0,100.0,,,,,,,,,,,,,,,,,,,,,,,,,,,,,,,,,,,,,,,,,,,,,,,,,,,,,,,,,,,,,,,,,,,,,,,,,,,,,,,,,,,,,,,,,,,,,,,,,,,,,,,,,,,,,,,,,,,,,,,,,,,,,,,,,,,
1725710386.597958,1725710386.599998,91.0,0.0,4266.410156,4267.179688,4280.641113,4315.769043,4201.410156,4257.307617,4346.153809,4235.512695,4294.230957,4198.205078,4545.0,4539.230957,4393.974121,4463.461426,0.0,1.0,15.0,,,,0.0,4.0,4.0,4.0,4.0,4.0,4.0,4.0,4.0,4.0,4.0,4.0,4.0,4.0,4.0,100.0,,,,,,,,,,,,,,,,,,,,,,,,,,,,,,,,,,,,,,,,,,,,,,,,,,,,,,,,,,,,,,,,,,,,,,,,,,,,,,,,,,,,,,,,,,,,,,,,,,,,,,,,,,,,,,,,,,,,,,,,,,,,,,,,,,,
1725710386.601862,1725710386.603902,92.0,0.0,4265.897461,4266.410156,4280.641113,4319.615234,4201.922852,4258.846191,4348.846191,4240.641113,4295.641113,4198.589844,4554.743652,4543.717773,4395.128418,4467.563965,0.0,1.0,15.0,,,,0.0,4.0,4.0,4.0,4.0,4.0,4.0,4.0,4.0,4.0,4.0,4.0,4.0,4.0,4.0,100.0,,,,,,,,,,,,,,,,,,,,,,,,,,,,,,,,,,,,,,,,,,,,,,,,,,,,,,,,,,,,,,,,,,,,,,,,,,,,,,,,,,,,,,,,,,,,,,,,,,,,,,,,,,,,,,,,,,,,,,,,,,,,,,,,,,,
1725710386.605766,1725710386.607806,93.0,0.0,4266.538574,4265.641113,4279.615234,4323.717773,4202.05127,4258.461426,4350.769043,4244.615234,4297.692383,4198.077148,4565.384766,4546.794922,4396.794922,4472.307617,0.0,1.0,15.0,,,,0.0,4.0,4.0,4.0,4.0,4.0,4.0,4.0,4.0,4.0,4.0,4.0,4.0,4.0,4.0,100.0,,,,,,,,,,,,,,,,,,,,,,,,,,,,,,,,,,,,,,,,,,,,,,,,,,,,,,,,,,,,,,,,,,,,,,,,,,,,,,,,,,,,,,,,,,,,,,,,,,,,,,,,,,,,,,,,,,,,,,,,,,,,,,,,,,,
1725710386.609671,1725710386.61171,94.0,0.0,4268.717773,4265.769043,4279.871582,4327.563965,4202.179688,4257.692383,4350.512695,4246.025879,4299.615234,4197.05127,4571.410156,4547.820313,4397.563965,4474.743652,0.0,1.0,15.0,,,,0.0,4.0,4.0,4.0,4.0,4.0,4.0,4.0,4.0,4.0,4.0,4.0,4.0,4.0,4.0,100.0,,,,,,,,,,,,,,,,,,,,,,,,,,,,,,,,,,,,,,,,,,,,,,,,,,,,,,,,,,,,,,,,,,,,,,,,,,,,,,,,,,,,,,,,,,,,,,,,,,,,,,,,,,,,,,,,,,,,,,,,,,,,,,,,,,,
1725710386.613575,1725710386.615614,95.0,0.0,4270.769043,4266.410156,4280.897461,4329.487305,4202.94873,4258.333496,4347.94873,4243.461426,4300.128418,4195.512695,4568.974121,4545.512695,4396.922852,4473.589844,0.0,1.0,15.0,,,,0.0,4.0,4.0,4.0,4.0,4.0,4.0,4.0,4.0,4.0,4.0,4.0,4.0,4.0,4.0,100.0,,,,,,,,,,,,,,,,,,,,,,,,,,,,,,,,,,,,,,,,,,,,,,,,,,,,,,,,,,,,,,,,,,,,,,,,,,,,,,,,,,,,,,,,,,,,,,,,,,,,,,,,,,,,,,,,,,,,,,,,,,,,,,,,,,,
1725710386.617479,1725710386.619418,96.0,0.0,4270.128418,4267.307617,4281.153809,4327.820313,4204.358887,4260.256348,4344.615234,4237.179688,4298.077148,4192.94873,4558.589844,4538.846191,4395.0,4468.205078,0.0,1.0,15.0,,,,0.0,4.0,4.0,4.0,4.0,4.0,4.0,4.0,4.0,4.0,4.0,4.0,4.0,4.0,4.0,100.0,,,,,,,,,,,,,,,,,,,,,,,,,,,,,,,,,,,,,,,,,,,,,,,,,,,,,,,,0.0,0.0,1.0,0.0,1.0,0.0,,,,,,,,,,,,,,,,,,,,,,,,,,,,,,,,,,,,,,,,,,,,,,,,,,,,,,,,,,,,,,,,,,,,,,
1725710386.621383,1725710386.623322,97.0,0.0,4265.897461,4267.307617,4278.846191,4322.563965,4205.128418,4262.820313,4342.05127,4229.102539,4293.461426,4189.487305,4544.871582,4528.717773,4392.05127,4459.487305,0.0,1.0,15.0,,,,0.0,4.0,4.0,4.0,4.0,4.0,4.0,4.0,4.0,4.0,4.0,4.0,4.0,4.0,4.0,100.0,,,,,,,,,,,,,,,,,,,,,,,,,,,,,,,,,,,,,,,,,,,,,,,,,,,,,,,,,,,,,,,,,,,,,,,,,,,,,,,,,,,,,,,,,,,,,,,,,,,,,,,,,,,,,,,,,,,,,,,,,,,,,,,,,,,
1725710386.625287,1725710386.627226,98.0,0.0,4259.230957,4265.769043,4273.846191,4316.153809,4204.230957,4264.487305,4340.897461,4221.794922,4287.563965,4185.897461,4533.461426,4517.563965,4388.589844,4449.230957,0.0,1.0,15.0,,,,0.0,4.0,4.0,4.0,4.0,4.0,4.0,4.0,4.0,4.0,4.0,4.0,4.0,4.0,4.0,100.0,,,,,,,,,,,,,,,,,,,,,,,,,,,,,,,,,,,,,,,,,,,,,,,,,,,,,,,,,,,,,,,,,,,,,,,,,,,,,,,,,,,,,,,,,,,,,,,,,,,,,,,,,,,,,,,,,,,,,,,,,,,,,,,,,,,
1725710386.629191,1725710386.631031,99.0,0.0,4252.692383,4262.307617,4267.563965,4311.538574,4202.307617,4264.743652,4340.256348,4217.436035,4282.692383,4183.846191,4527.692383,4507.94873,4385.256348,4440.384766,0.0,1.0,15.0,,,,0.0,4.0,4.0,4.0,4.0,4.0,4.0,4.0,4.0,4.0,4.0,4.0,4.0,4.0,4.0,100.0,,,,,,,,,,,,,,,,,,,,,,,,,,,,,,,,,,,,,,,,,,,,,,,,,,,,,,,,,,,,,,,,,,,,,,,,,,,,,,,,,,,,,,,,,,,,,,,,,,,,,,,,,,,,,,,,,,,,,,,,,,,,,,,,,,,
1725710386.633095,1725710386.634935,100.0,0.0,4248.077148,4257.307617,4262.436035,4309.615234,4201.153809,4263.846191,4339.230957,4216.025879,4280.384766,4183.717773,4526.025879,4501.410156,4381.922852,4434.615234,0.0,1.0,15.0,,,,0.0,4.0,4.0,4.0,4.0,4.0,4.0,4.0,4.0,4.0,4.0,4.0,4.0,4.0,4.0,100.0,,,,,,,,,,,,,,,,,,,,,,,,,,,,,,,,,,,,,,,,,,,,,,,,,,,,,,,,,,,,,,,,,,,,,,,,,,,,,,,,,,,,,,,,,,,,,,,,,,,,,,,,,,,,,,,,,,,,,,,,,,,,,,,,,,,
1725710386.636999,1725710386.638839,101.0,0.0,4245.769043,4252.307617,4260.256348,4308.717773,4202.436035,4263.461426,4337.692383,4216.153809,4280.641113,4184.102539,4524.743652,4496.666504,4378.077148,4431.794922,0.0,1.0,15.0,,,,0.0,4.0,4.0,4.0,4.0,4.0,4.0,4.0,4.0,4.0,4.0,4.0,4.0,4.0,4.0,100.0,,,,,,,,,,,,,,,,,,,,,,,,,,,,,,,,,,,,,,,,,,,,,,,,,,,,,,,,,,,,,,,,,,,,,,,,,,,,,,,,,,,,,,,,,,,,,,,,,,,,,,,,,,,,,,,,,,,,,,,,,,,,,,,,,,,
1725710386.640903,1725710386.642843,102.0,0.0,4244.743652,4249.358887,4260.641113,4306.538574,4205.769043,4264.230957,4335.897461,4215.769043,4282.05127,4182.94873,4520.641113,4491.538574,4373.205078,4429.743652,0.0,1.0,15.0,,,,0.0,4.0,4.0,4.0,4.0,4.0,4.0,4.0,4.0,4.0,4.0,4.0,4.0,4.0,4.0,100.0,,,,,,,,,,,,,,,,,,,,,,,,,,,,,,,,,,,,,,,,,,,,,,,,,,,,,,,,,,,,,,,,,,,,,,,,,,,,,,,,,,,,,,,,,,,,,,,,,,,,,,,,,,,,,,,,,,,,,,,,,,,,,,,,,,,
1725710386.644807,1725710386.646747,103.0,0.0,4243.077148,4249.230957,4262.05127,4302.179688,4208.974121,4265.256348,4334.358887,4213.846191,4282.307617,4179.487305,4513.717773,4484.358887,4367.05127,4426.666504,0.0,1.0,15.0,,,,0.0,4.0,4.0,4.0,4.0,4.0,4.0,4.0,4.0,4.0,4.0,4.0,4.0,4.0,4.0,100.0,,,,,,,,,,,,,,,,,,,,,,,,,,,,,,,,,,,,,,,,,,,,,,,,,,,,,,,,,,,,,,,,,,,,,,,,,,,,,,,,,,,,,,,,,,,,,,,,,,,,,,,,,,,,,,,,,,,,,,,,,,,,,,,,,,,
1725710386.648712,1725710386.650651,104.0,0.0,4239.487305,4250.769043,4262.307617,4297.307617,4209.615234,4265.769043,4332.05127,4211.666504,4280.769043,4175.256348,4506.025879,4476.282227,4360.641113,4422.563965,0.0,1.0,15.0,,,,0.0,4.0,4.0,4.0,4.0,4.0,4.0,4.0,4.0,4.0,4.0,4.0,4.0,4.0,4.0,100.0,,,,,,,,,,,,,,,,,,,,,,,,,,,,,,,,,,,,,,,,,,,,,,,,,,,,,,,,0.0,0.0,1.0,0.0,1.0,0.0,,,,,,,,,,,,,,,,,,,,,,,,,,,,,,,,,,,,,,,,,,,,,,,,,,,,,,,,,,,,,,,,,,,,,,
1725710386.652616,1725710386.654555,105.0,0.0,4234.743652,4251.794922,4261.025879,4294.743652,4207.307617,4265.512695,4328.205078,4210.897461,4278.717773,4172.820313,4500.256348,4470.769043,4355.897461,4419.358887,0.0,1.0,15.0,,,,0.0,4.0,4.0,4.0,4.0,4.0,4.0,4.0,4.0,4.0,4.0,4.0,4.0,4.0,4.0,100.0,,,,,,,,,,,,,,,,,,,,,,,,,,,,,,,,,,,,,,,,,,,,,,,,,,,,,,,,,,,,,,,,,,,,,,,,,,,,,,,,,,,,,,,,,,,,,,,,,,,,,,,,,,,,,,,,,,,,,,,,,,,,,,,,,,,
1725710386.65652,1725710386.658559,106.0,0.0,4231.153809,4251.282227,4259.487305,4296.282227,4203.461426,4264.743652,4322.94873,4212.563965,4278.589844,4173.589844,4498.846191,4471.025879,4355.256348,4418.717773,0.0,1.0,15.0,,,,0.0,4.0,4.0,4.0,4.0,4.0,4.0,4.0,4.0,4.0,4.0,4.0,4.0,4.0,4.0,100.0,,,,,,,,,,,,,,,,,,,,,,,,,,,,,,,,,,,,,,,,,,,,,,,,,,,,,,,,,,,,,,,,,,,,,,,,,,,,,,,,,,,,,,,,,,,,,,,,,,,,,,,,,,,,,,,,,,,,,,,,,,,,,,,,,,,
1725710386.660424,1725710386.662463,107.0,0.0,4231.153809,4250.512695,4258.717773,4301.153809,4200.641113,4263.589844,4318.077148,4215.0,4280.769043,4175.769043,4502.692383,4476.794922,4359.743652,4420.897461,0.0,1.0,15.0,,,,0.0,4.0,4.0,4.0,4.0,4.0,4.0,4.0,4.0,4.0,4.0,4.0,4.0,4.0,4.0,100.0,,,,,,,,,,,,,,,,,,,,,,,,,,,,,,,,,,,,,,,,,,,,,,,,,,,,,,,,,,,,,,,,,,,,,,,,,,,,,,,,,,,,,,,,,,,,,,,,,,,,,,,,,,,,,,,,,,,,,,,,,,,,,,,,,,,
1725710386.664328,1725710386.666367,108.0,0.0,4234.871582,4251.410156,4259.358887,4306.794922,4200.0,4261.666504,4316.410156,4216.025879,4283.077148,4176.794922,4510.384766,4484.358887,4367.436035,4425.0,0.0,1.0,15.0,,,,0.0,4.0,4.0,4.0,4.0,4.0,4.0,4.0,4.0,4.0,4.0,4.0,4.0,4.0,4.0,100.0,,,,,,,,,,,,,,,,,,,,,,,,,,,,,,,,,,,,,,,,,,,,,,,,,,,,,,,,,,,,,,,,,,,,,,,,,,,,,,,,,,,,,,,,,,,,,,,,,,,,,,,,,,,,,,,,,,,,,,,,,,,,,,,,,,,
1725710386.668232,1725710386.670371,109.0,0.0,4240.641113,4254.871582,4260.641113,4310.512695,4201.153809,4258.717773,4318.974121,4214.871582,4282.436035,4174.743652,4518.333496,4489.615234,4375.0,4430.0,0.0,1.0,15.0,,,,0.0,4.0,4.0,4.0,4.0,4.0,4.0,4.0,4.0,4.0,4.0,4.0,4.0,4.0,4.0,100.0,,,,,,,,,,,,,,,,,,,,,,,,,,,,,,,,,,,,,,,,,,,,,,,,,,,,,,,,,,,,,,,,,,,,,,,,,,,,,,,,,,,,,,,,,,,,,,,,,,,,,,,,,,,,,,,,,,,,,,,,,,,,,,,,,,,
1725710386.672136,1725710386.674275,110.0,0.0,4245.897461,4259.615234,4261.153809,4311.153809,4202.307617,4255.0,4324.230957,4212.692383,4277.820313,4170.769043,4523.205078,4491.538574,4380.256348,4434.743652,0.0,1.0,15.0,,,,0.0,4.0,4.0,4.0,4.0,4.0,4.0,4.0,4.0,4.0,4.0,4.0,4.0,4.0,4.0,100.0,,,,,,,,,,,,,,,,,,,,,,,,,,,,,,,,,,,,,,,,,,,,,,,,,,,,,,,,,,,,,,,,,,,,,,,,,,,,,,,,,,,,,,,,,,,,,,,,,,,,,,,,,,,,,,,,,,,,,,,,,,,,,,,,,,,
1725710386.67604,1725710386.67818,111.0,0.0,4248.974121,4263.717773,4260.769043,4309.358887,4202.05127,4251.282227,4329.871582,4211.153809,4271.282227,4168.333496,4524.487305,4492.179688,4382.820313,4438.589844,0.0,1.0,15.0,,,,0.0,4.0,4.0,4.0,4.0,4.0,4.0,4.0,4.0,4.0,4.0,4.0,4.0,4.0,4.0,100.0,,,,,,,,,,,,,,,,,,,,,,,,,,,,,,,,,,,,,,,,,,,,,,,,,,,,,,,,,,,,,,,,,,,,,,,,,,,,,,,,,,,,,,,,,,,,,,,,,,,,,,,,,,,,,,,,,,,,,,,,,,,,,,,,,,,
1725710386.679944,1725710386.682084,112.0,0.0,4249.743652,4265.512695,4260.769043,4307.436035,4200.641113,4248.589844,4334.358887,4211.538574,4267.05127,4170.0,4524.102539,4494.871582,4384.358887,4441.538574,0.0,1.0,15.0,,,,0.0,4.0,4.0,4.0,4.0,4.0,4.0,4.0,4.0,4.0,4.0,4.0,4.0,4.0,4.0,100.0,,,,,,,,,,,,,,,,,1.0,0.0,0.0,,,,,,,,,,,,,,,,,,,,,,,,,,,,,,,,,,,,,0.0,0.0,1.0,0.0,1.0,0.0,1.108401,0.994543,0.284143,0.131146,0.058686,1.200705,0.94235,0.314767,0.300874,0.183911,0.98132,0.4983,0.192542,0.080919,0.068821,1.985471,0.936073,0.859301,0.371048,0.137182,0.616664,0.467184,0.232918,0.135864,0.114405,0.619759,0.445736,0.146154,0.07922,0.034983,2.015358,1.594003,0.918116,0.185441,0.085636,0.700397,5.27328,0.537042,0.160044,0.11463,0.777843,2.781106,0.312208,0.205412,0.07671,1.035773,2.310693,0.6471,0.30549,0.115563,1.896548,2.580857,0.662734,0.642019,0.334803,2.68581,4.563231,0.604003,0.393724,0.119697,1.11763,1.873637,0.539141,0.348018,0.125685,1.675802,1.700011,0.467551,0.3106,0.103003
1725710386.683849,1725710386.685988,113.0,0.0,4249.102539,4265.128418,4262.307617,4307.307617,4199.230957,4247.692383,4337.820313,4213.589844,4268.205078,4175.641113,4525.128418,4500.641113,4386.922852,4444.230957,0.0,1.0,15.0,,,,0.0,4.0,4.0,4.0,4.0,4.0,4.0,4.0,4.0,4.0,4.0,4.0,4.0,4.0,4.0,100.0,,,,,,,,,,,,,,,,,,,,,,,,,,,,,,,,,,,,,,,,,,,,,,,,,,,,,,,,,,,,,,,,,,,,,,,,,,,,,,,,,,,,,,,,,,,,,,,,,,,,,,,,,,,,,,,,,,,,,,,,,,,,,,,,,,,
1725710386.687753,1725710386.689992,114.0,0.0,4248.846191,4264.230957,4265.897461,4309.487305,4198.974121,4248.333496,4341.025879,4216.538574,4273.974121,4182.94873,4529.102539,4506.922852,4391.410156,4446.410156,0.0,1.0,15.0,,,,0.0,4.0,4.0,4.0,4.0,4.0,4.0,4.0,4.0,4.0,4.0,4.0,4.0,4.0,4.0,100.0,,,,,,,,,,,,,,,,,,,,,,,,,,,,,,,,,,,,,,,,,,,,,,,,,,,,,,,,,,,,,,,,,,,,,,,,,,,,,,,,,,,,,,,,,,,,,,,,,,,,,,,,,,,,,,,,,,,,,,,,,,,,,,,,,,,
1725710386.691657,1725710386.693896,115.0,0.0,4250.0,4264.102539,4269.871582,4313.077148,4200.0,4249.230957,4344.743652,4219.487305,4281.025879,4188.077148,4535.0,4511.025879,4396.282227,4447.820313,0.0,1.0,15.0,,,,0.0,4.0,4.0,4.0,4.0,4.0,4.0,4.0,4.0,4.0,4.0,4.0,4.0,4.0,4.0,100.0,,,,,,,,,,,,,,,,,,,,,,,,,,,,,,,,,,,,,,,,,,,,,,,,,,,,,,,,,,,,,,,,,,,,,,,,,,,,,,,,,,,,,,,,,,,,,,,,,,,,,,,,,,,,,,,,,,,,,,,,,,,,,,,,,,,
1725710386.695561,1725710386.6978,116.0,0.0,4252.307617,4265.0,4272.179688,4316.153809,4201.410156,4249.743652,4348.846191,4221.666504,4285.384766,4189.487305,4540.128418,4511.538574,4398.846191,4447.94873,0.0,1.0,15.0,,,,0.0,4.0,4.0,4.0,4.0,4.0,4.0,4.0,4.0,4.0,4.0,4.0,4.0,4.0,4.0,100.0,,,,,,,,,,,,,,,,,,,,,,,,,,,,,,,,,,,,,,,,,,,,,,,,,,,,,,,,,,,,,,,,,,,,,,,,,,,,,,,,,,,,,,,,,,,,,,,,,,,,,,,,,,,,,,,,,,,,,,,,,,,,,,,,,,,
1725710386.699465,1725710386.701704,117.0,0.0,4254.871582,4266.538574,4271.410156,4316.922852,4202.05127,4250.0,4352.05127,4222.94873,4285.256348,4187.94873,4542.563965,4510.128418,4396.410156,4447.692383,0.0,1.0,15.0,,,,0.0,4.0,4.0,4.0,4.0,4.0,4.0,4.0,4.0,4.0,4.0,4.0,4.0,4.0,4.0,100.0,,,,,,,,,,,,,,,,,,,,,,,,,,,,,,,,,,,,,,,,,,,,,,,,,,,,,,,,,,,,,,,,,,,,,,,,,,,,,,,,,,,,,,,,,,,,,,,,,,,,,,,,,,,,,,,,,,,,,,,,,,,,,,,,,,,
1725710386.703369,1725710386.705508,118.0,0.0,4256.410156,4267.692383,4267.820313,4314.871582,4201.538574,4250.769043,4353.461426,4223.974121,4282.436035,4186.282227,4541.794922,4509.358887,4389.358887,4447.820313,0.0,1.0,15.0,,,,0.0,4.0,4.0,4.0,4.0,4.0,4.0,4.0,4.0,4.0,4.0,4.0,4.0,4.0,4.0,100.0,,,,,,,,,,,,,,,,,,,,,,,,,,,,,,,,,,,,,,,,,,,,,,,,,,,,,,,,,,,,,,,,,,,,,,,,,,,,,,,,,,,,,,,,,,,,,,,,,,,,,,,,,,,,,,,,,,,,,,,,,,,,,,,,,,,
1725710386.707273,1725710386.709412,119.0,0.0,4256.025879,4267.692383,4263.846191,4311.410156,4200.641113,4253.077148,4353.333496,4225.0,4279.743652,4185.769043,4538.461426,4509.871582,4381.025879,4448.461426,0.0,1.0,15.0,,,,0.0,4.0,4.0,4.0,4.0,4.0,4.0,4.0,4.0,4.0,4.0,4.0,4.0,4.0,4.0,100.0,,,,,,,,,,,,,,,,,,,,,,,,,,,,,,,,,,,,,,,,,,,,,,,,,,,,,,,,,,,,,,,,,,,,,,,,,,,,,,,,,,,,,,,,,,,,,,,,,,,,,,,,,,,,,,,,,,,,,,,,,,,,,,,,,,,
1725710386.711177,1725710386.713316,120.0,0.0,4253.205078,4265.641113,4261.922852,4308.589844,4200.256348,4256.794922,4352.820313,4225.512695,4278.974121,4185.769043,4533.717773,4509.743652,4374.871582,4447.820313,0.0,1.0,15.0,,,,0.0,4.0,4.0,4.0,4.0,4.0,4.0,4.0,4.0,4.0,4.0,4.0,4.0,4.0,4.0,100.0,,,,,,,,,,,,,,,,,,,,,,,,,,,,,,,,,,,,,,,,,,,,,,,,,,,,,,,,0.0,0.0,1.0,0.0,1.0,0.0,,,,,,,,,,,,,,,,,,,,,,,,,,,,,,,,,,,,,,,,,,,,,,,,,,,,,,,,,,,,,,,,,,,,,,
1725710386.715081,1725710386.717221,121.0,0.0,4249.615234,4261.538574,4262.563965,4307.692383,4201.153809,4261.025879,4352.563965,4224.230957,4279.615234,4184.102539,4528.461426,4506.666504,4372.179688,4443.589844,0.0,1.0,15.0,,,,0.0,4.0,4.0,4.0,4.0,4.0,4.0,4.0,4.0,4.0,4.0,4.0,4.0,4.0,4.0,100.0,,,,,,,,,,,,,,,,,,,,,,,,,,,,,,,,,,,,,,,,,,,,,,,,,,,,,,,,,,,,,,,,,,,,,,,,,,,,,,,,,,,,,,,,,,,,,,,,,,,,,,,,,,,,,,,,,,,,,,,,,,,,,,,,,,,
1725710386.718985,1725710386.721125,122.0,0.0,4246.922852,4256.025879,4264.102539,4308.333496,4203.717773,4264.102539,4352.563965,4220.641113,4280.128418,4180.128418,4523.717773,4499.743652,4371.666504,4436.282227,0.0,1.0,15.0,,,,0.0,4.0,4.0,4.0,4.0,4.0,4.0,4.0,4.0,4.0,4.0,4.0,4.0,4.0,4.0,100.0,,,,,,,,,,,,,,,,,,,,,,,,,,,,,,,,,,,,,,,,,,,,,,,,,,,,,,,,,,,,,,,,,,,,,,,,,,,,,,,,,,,,,,,,,,,,,,,,,,,,,,,,,,,,,,,,,,,,,,,,,,,,,,,,,,,
1725710386.72289,1725710386.724929,123.0,0.0,4246.282227,4250.897461,4263.717773,4308.077148,4207.94873,4265.256348,4352.307617,4215.769043,4278.974121,4175.128418,4520.512695,4491.794922,4370.641113,4428.589844,0.0,1.0,15.0,,,,0.0,4.0,4.0,4.0,4.0,4.0,4.0,4.0,4.0,4.0,4.0,4.0,4.0,4.0,4.0,100.0,,,,,,,,,,,,,,,,,,,,,,,,,,,,,,,,,,,,,,,,,,,,,,,,,,,,,,,,,,,,,,,,,,,,,,,,,,,,,,,,,,,,,,,,,,,,,,,,,,,,,,,,,,,,,,,,,,,,,,,,,,,,,,,,,,,
1725710386.726794,1725710386.728833,124.0,0.0,4247.05127,4248.077148,4260.384766,4305.128418,4212.692383,4264.871582,4350.769043,4211.666504,4276.282227,4171.666504,4518.974121,4486.282227,4368.077148,4423.974121,0.0,1.0,15.0,,,,0.0,4.0,4.0,4.0,4.0,4.0,4.0,4.0,4.0,4.0,4.0,4.0,4.0,4.0,4.0,100.0,,,,,,,,,,,,,,,,,,,,,,,,,,,,,,,,,,,,,,,,,,,,,,,,,,,,,,,,,,,,,,,,,,,,,,,,,,,,,,,,,,,,,,,,,,,,,,,,,,,,,,,,,,,,,,,,,,,,,,,,,,,,,,,,,,,
1725710386.730698,1725710386.732737,125.0,0.0,4247.820313,4248.461426,4255.384766,4299.871582,4216.410156,4264.102539,4347.692383,4209.871582,4273.717773,4171.538574,4518.205078,4485.128418,4365.512695,4424.230957,0.0,1.0,15.0,,,,0.0,4.0,4.0,4.0,4.0,4.0,4.0,4.0,4.0,4.0,4.0,4.0,4.0,4.0,4.0,100.0,,,,,,,,,,,,,,,,,,,,,,,,,,,,,,,,,,,,,,,,,,,,,,,,,,,,,,,,,,,,,,,,,,,,,,,,,,,,,,,,,,,,,,,,,,,,,,,,,,,,,,,,,,,,,,,,,,,,,,,,,,,,,,,,,,,
1725710386.734602,1725710386.736541,126.0,0.0,4247.179688,4251.025879,4251.282227,4295.0,4217.692383,4263.461426,4342.94873,4210.512695,4273.461426,4174.743652,4517.179688,4487.307617,4365.512695,4427.692383,0.0,1.0,15.0,,,,0.0,4.0,4.0,4.0,4.0,4.0,4.0,4.0,4.0,4.0,4.0,4.0,4.0,4.0,4.0,100.0,,,,,,,,,,,,,,,,,,,,,,,,,,,,,,,,,,,,,,,,,,,,,,,,,,,,,,,,,,,,,,,,,,,,,,,,,,,,,,,,,,,,,,,,,,,,,,,,,,,,,,,,,,,,,,,,,,,,,,,,,,,,,,,,,,,
1725710386.738506,1725710386.740445,127.0,0.0,4244.743652,4253.205078,4249.743652,4292.94873,4216.153809,4262.436035,4337.94873,4212.563965,4275.897461,4179.102539,4515.512695,4489.743652,4368.589844,4431.538574,0.0,1.0,15.0,,,,0.0,4.0,4.0,4.0,4.0,4.0,4.0,4.0,4.0,4.0,4.0,4.0,4.0,4.0,4.0,100.0,,,,,,,,,,,,,,,,,,,,,,,,,,,,,,,,,,,,,,,,,,,,,,,,,,,,,,,,,,,,,,,,,,,,,,,,,,,,,,,,,,,,,,,,,,,,,,,,,,,,,,,,,,,,,,,,,,,,,,,,,,,,,,,,,,,
1725710386.74241,1725710386.74435,128.0,0.0,4241.282227,4253.077148,4250.0,4293.974121,4211.922852,4260.384766,4333.846191,4214.102539,4279.615234,4182.436035,4514.102539,4490.384766,4371.538574,4433.077148,2705.0,1.0,15.0,,,,0.0,4.0,4.0,4.0,4.0,4.0,4.0,4.0,4.0,4.0,4.0,4.0,4.0,4.0,4.0,100.0,,,,,,,,,,,,,,,,,,,,,,,,,,,,,,,,,,,,,,,,,,,,,,,,,,,,,,,,0.0,0.0,1.0,0.0,1.0,0.0,,,,,,,,,,,,,,,,,,,,,,,,,,,,,,,,,,,,,,,,,,,,,,,,,,,,,,,,,,,,,,,,,,,,,,
1725710386.746314,1725710386.748354,129.0,0.0,4238.974121,4250.641113,4250.641113,4296.666504,4206.922852,4257.563965,4331.282227,4214.358887,4282.179688,4183.846191,4514.102539,4489.230957,4371.666504,4431.538574,2583.0,1.0,15.0,,,,0.0,4.0,4.0,4.0,4.0,4.0,4.0,4.0,4.0,4.0,4.0,4.0,4.0,4.0,4.0,100.0,,,,,,,,,,,,,,,,,,,,,,,,,,,,,,,,,,,,,,,,,,,,,,,,,,,,,,,,,,,,,,,,,,,,,,,,,,,,,,,,,,,,,,,,,,,,,,,,,,,,,,,,,,,,,,,,,,,,,,,,,,,,,,,,,,,
1725710386.750218,1725710386.752258,130.0,0.0,4239.230957,4248.077148,4250.641113,4298.974121,4203.461426,4254.358887,4329.358887,4213.461426,4281.538574,4183.717773,4516.153809,4487.563965,4368.205078,4427.94873,2513.0,1.0,15.0,,,,0.0,4.0,4.0,4.0,4.0,4.0,4.0,4.0,4.0,4.0,4.0,4.0,4.0,4.0,4.0,100.0,,,,,,,,,,,,,,,,,,,,,,,,,,,,,,,,,,,,,,,,,,,,,,,,,,,,,,,,,,,,,,,,,,,,,,,,,,,,,,,,,,,,,,,,,,,,,,,,,,,,,,,,,,,,,,,,,,,,,,,,,,,,,,,,,,,
1725710386.754122,1725710386.756162,131.0,0.0,4241.922852,4247.436035,4251.153809,4300.256348,4203.333496,4251.922852,4327.05127,4212.307617,4277.692383,4183.333496,4520.0,4487.307617,4363.846191,4425.0,2479.0,1.0,15.0,,,,0.0,4.0,4.0,4.0,4.0,4.0,4.0,4.0,4.0,4.0,4.0,4.0,4.0,4.0,4.0,100.0,,,,,,,,,,,,,,,,,,,,,,,,,,,,,,,,,,,,,,,,,,,,,,,,,,,,,,,,,,,,,,,,,,,,,,,,,,,,,,,,,,,,,,,,,,,,,,,,,,,,,,,,,,,,,,,,,,,,,,,,,,,,,,,,,,,
1725710386.758026,1725710386.760066,132.0,0.0,4245.128418,4248.846191,4253.333496,4300.512695,4206.282227,4250.641113,4323.846191,4211.666504,4272.179688,4182.94873,4524.615234,4488.589844,4362.307617,4424.487305,2446.0,1.0,15.0,,,,0.0,4.0,4.0,4.0,4.0,4.0,4.0,4.0,4.0,4.0,4.0,4.0,4.0,4.0,4.0,100.0,,,,,,,,,,,,,,,,,,,,,,,,,,,,,,,,,,,,,,,,,,,,,,,,,,,,,,,,,,,,,,,,,,,,,,,,,,,,,,,,,,,,,,,,,,,,,,,,,,,,,,,,,,,,,,,,,,,,,,,,,,,,,,,,,,,
1725710386.761931,1725710386.76407,133.0,0.0,4247.563965,4251.153809,4256.794922,4300.641113,4210.128418,4250.384766,4319.615234,4212.179688,4267.820313,4181.282227,4528.589844,4490.769043,4365.512695,4426.794922,2406.0,1.0,15.0,,,,0.0,4.0,4.0,4.0,4.0,4.0,4.0,4.0,4.0,4.0,4.0,4.0,4.0,4.0,4.0,100.0,,,,,,,,,,,,,,,,,,,,,,,,,,,,,,,,,,,,,,,,,,,,,,,,,,,,,,,,,,,,,,,,,,,,,,,,,,,,,,,,,,,,,,,,,,,,,,,,,,,,,,,,,,,,,,,,,,,,,,,,,,,,,,,,,,,
1725710386.765835,1725710386.767974,134.0,0.0,4248.589844,4252.563965,4259.230957,4301.410156,4211.922852,4250.384766,4314.743652,4213.589844,4265.512695,4176.922852,4530.897461,4492.436035,4371.922852,4430.769043,2454.0,1.0,15.0,,,,0.0,4.0,4.0,4.0,4.0,4.0,4.0,4.0,4.0,4.0,4.0,4.0,4.0,4.0,4.0,100.0,,,,,,,,,,,,,,,,,,,,,,,,,,,,,,,,,,,,,,,,,,,,,,,,,,,,,,,,,,,,,,,,,,,,,,,,,,,,,,,,,,,,,,,,,,,,,,,,,,,,,,,,,,,,,,,,,,,,,,,,,,,,,,,,,,,
1725710386.769739,1725710386.771878,135.0,0.0,4248.333496,4252.179688,4258.974121,4302.436035,4210.769043,4250.384766,4310.128418,4215.256348,4265.384766,4170.769043,4530.769043,4492.820313,4377.692383,4434.615234,2488.0,1.0,15.0,,,,0.0,4.0,4.0,4.0,4.0,4.0,4.0,4.0,4.0,4.0,4.0,4.0,4.0,4.0,4.0,100.0,,,,,,,,,,,,,,,,,,,,,,,,,,,,,,,,,,,,,,,,,,,,,,,,,,,,,,,,,,,,,,,,,,,,,,,,,,,,,,,,,,,,,,,,,,,,,,,,,,,,,,,,,,,,,,,,,,,,,,,,,,,,,,,,,,,
1725710386.773643,1725710386.775882,136.0,0.0,4247.692383,4250.512695,4255.897461,4303.205078,4207.563965,4250.512695,4306.410156,4216.794922,4266.282227,4166.153809,4528.077148,4492.692383,4378.333496,4436.410156,2481.0,1.0,15.0,,,,0.0,4.0,4.0,4.0,4.0,4.0,4.0,4.0,4.0,4.0,4.0,4.0,4.0,4.0,4.0,100.0,,,,,,,,,,,,,,,,,,,,,,,,,,,,,,,,,,,,,,,,,,,,,,,,,,,,,,,,0.0,0.0,1.0,0.0,1.0,0.0,,,,,,,,,,,,,,,,,,,,,,,,,,,,,,,,,,,,,,,,,,,,,,,,,,,,,,,,,,,,,,,,,,,,,,
1725710386.777547,1725710386.779786,137.0,0.0,4247.307617,4249.102539,4252.05127,4303.077148,4204.102539,4250.769043,4303.974121,4218.077148,4267.563965,4166.025879,4524.358887,4492.692383,4372.94873,4435.384766,2555.0,1.0,15.0,,,,0.0,4.0,4.0,4.0,4.0,4.0,4.0,4.0,4.0,4.0,4.0,4.0,4.0,4.0,4.0,100.0,,,,,,,,,,,,,,,,,,,,,,,,,,,,,,,,,,,,,,,,,,,,,,,,,,,,,,,,,,,,,,,,,,,,,,,,,,,,,,,,,,,,,,,,,,,,,,,,,,,,,,,,,,,,,,,,,,,,,,,,,,,,,,,,,,,
1725710386.781451,1725710386.78369,138.0,0.0,4247.436035,4248.461426,4250.0,4302.05127,4202.05127,4251.153809,4302.179688,4218.974121,4268.461426,4170.0,4521.922852,4493.333496,4364.615234,4432.436035,2905.0,1.0,15.0,,,,0.0,4.0,4.0,4.0,4.0,4.0,4.0,4.0,4.0,4.0,4.0,4.0,4.0,4.0,4.0,100.0,,,,,,,,,,,,,,,,,,,,,,,,,,,,,,,,,,,,,,,,,,,,,,,,,,,,,,,,,,,,,,,,,,,,,,,,,,,,,,,,,,,,,,,,,,,,,,,,,,,,,,,,,,,,,,,,,,,,,,,,,,,,,,,,,,,
1725710386.785355,1725710386.787594,139.0,0.0,4247.94873,4248.846191,4250.384766,4300.512695,4201.794922,4251.410156,4299.230957,4219.230957,4269.230957,4174.615234,4522.307617,4494.358887,4358.717773,4428.974121,3144.0,1.0,15.0,,,,0.0,4.0,4.0,4.0,4.0,4.0,4.0,4.0,4.0,4.0,4.0,4.0,4.0,4.0,4.0,100.0,,,,,,,,,,,,,,,,,,,,,,,,,,,,,,,,,,,,,,,,,,,,,,,,,,,,,,,,,,,,,,,,,,,,,,,,,,,,,,,,,,,,,,,,,,,,,,,,,,,,,,,,,,,,,,,,,,,,,,,,,,,,,,,,,,,
1725710386.789259,1725710386.791498,140.0,0.0,4248.461426,4249.230957,4252.179688,4299.487305,4202.563965,4251.410156,4294.487305,4218.589844,4269.230957,4176.794922,4525.641113,4495.0,4358.846191,4427.692383,3430.0,1.0,15.0,,,,0.0,4.0,4.0,4.0,4.0,4.0,4.0,4.0,4.0,4.0,4.0,4.0,4.0,4.0,4.0,100.0,,,,,,,,,,,,,,,,,,,,,,,,,,,,,,,,,,,,,,,,,,,,,,,,,,,,,,,,,,,,,,,,,,,,,,,,,,,,,,,,,,,,,,,,,,,,,,,,,,,,,,,,,,,,,,,,,,,,,,,,,,,,,,,,,,,
1725710386.793163,1725710386.795502,141.0,0.0,4248.333496,4249.358887,4253.461426,4300.128418,4203.077148,4251.153809,4288.461426,4217.307617,4268.461426,4176.153809,4529.743652,4494.743652,4364.615234,4430.0,3927.0,1.0,15.0,,,,0.0,4.0,4.0,4.0,4.0,4.0,4.0,4.0,4.0,4.0,4.0,4.0,4.0,4.0,4.0,100.0,,,,,,,,,,,,,,,,,,,,,,,,,,,,,,,,,,,,,,,,,,,,,,,,,,,,,,,,,,,,,,,,,,,,,,,,,,,,,,,,,,,,,,,,,,,,,,,,,,,,,,,,,,,,,,,,,,,,,,,,,,,,,,,,,,,
1725710386.797068,1725710386.799407,142.0,0.0,4247.94873,4249.230957,4252.94873,4302.94873,4202.692383,4250.769043,4283.205078,4216.538574,4267.307617,4175.128418,4532.307617,4494.230957,4372.307617,4435.769043,2905.0,1.0,15.0,,,,0.0,4.0,4.0,4.0,4.0,4.0,4.0,4.0,4.0,4.0,4.0,4.0,4.0,4.0,4.0,100.0,,,,,,,,,,,,,,,,,,,,,,,,,,,,,,,,,,,,,,,,,,,,,,,,,,,,,,,,,,,,,,,,,,,,,,,,,,,,,,,,,,,,,,,,,,,,,,,,,,,,,,,,,,,,,,,,,,,,,,,,,,,,,,,,,,,
1725710386.800972,1725710386.803311,143.0,0.0,4247.563965,4249.230957,4251.410156,4307.563965,4201.538574,4250.512695,4279.615234,4216.666504,4266.025879,4176.153809,4531.922852,4493.974121,4378.205078,4442.179688,3144.0,1.0,15.0,,,,0.0,4.0,4.0,4.0,4.0,4.0,4.0,4.0,4.0,4.0,4.0,4.0,4.0,4.0,4.0,100.0,,,,,,,,,,,,,,,,,,,,,,,,,,,,,,,,,,,,,,,,,,,,,,,,,,,,,,,,,,,,,,,,,,,,,,,,,,,,,,,,,,,,,,,,,,,,,,,,,,,,,,,,,,,,,,,,,,,,,,,,,,,,,,,,,,,
1725710386.804876,1725710386.807215,144.0,0.0,4247.563965,4249.615234,4250.512695,4311.666504,4200.641113,4250.641113,4277.436035,4217.307617,4265.0,4179.230957,4528.717773,4494.743652,4380.384766,4446.025879,3430.0,1.0,15.0,,,,0.0,4.0,4.0,4.0,4.0,4.0,4.0,4.0,4.0,4.0,4.0,4.0,4.0,4.0,4.0,100.0,1.0,75.0,4.0,4.0,4.0,4.0,4.0,4.0,1.0,4.0,4.0,4.0,4.0,4.0,4.0,4.0,1.0,0.0,0.0,1.0,0.471009,-8.313335,-13.500999,-3.165624,1.0,0.531434,-0.295111,-1.164532,0.468487,1.0,0.218074,4.10708,2.161973,11.081697,0.172802,1.0,0.364511,11.61768,-1821.607062,2893.086389,1.0,0.167104,0.106905,0.073917,0.277717,1.0,0.446578,2.735933,-50.940567,66.54869,1.0,0.395404,0.395404,0.0,1.0,0.0,0.0,1.0,0.0,1.0,0.0,0.771312,0.783361,0.225358,0.115341,0.054058,0.853979,0.801811,0.270423,0.284804,0.187806,0.84911,0.486194,0.195411,0.086351,0.070188,1.575859,0.841799,0.66767,0.359913,0.144776,0.554133,0.358179,0.190403,0.134741,0.121013,0.69133,0.492264,0.138378,0.102765,0.045439,1.580385,1.317428,0.849171,0.166406,0.086422,0.72283,5.821784,0.669534,0.157976,0.096384,0.754685,3.551143,0.316045,0.200133,0.070973,0.788471,2.893079,0.532127,0.278747,0.106401,1.664309,3.11634,0.517687,0.5923,0.340396,2.444814,5.248746,0.541857,0.360316,0.118085,0.956521,1.926002,0.422967,0.299795,0.145291,1.314694,1.785798,0.507471,0.288168,0.107371
1725710386.80878,1725710386.811019,145.0,0.0,4247.820313,4250.256348,4250.897461,4313.333496,4200.512695,4251.025879,4275.384766,4217.563965,4264.358887,4181.794922,4524.615234,4495.641113,4378.589844,4444.871582,3927.0,1.0,15.0,,,,0.0,4.0,4.0,4.0,4.0,4.0,4.0,4.0,4.0,4.0,4.0,4.0,4.0,4.0,4.0,100.0,,,,,,,,,,,,,,,,,,,,,,,,,,,,,,,,,,,,,,,,,,,,,,,,,,,,,,,,,,,,,,,,,,,,,,,,,,,,,,,,,,,,,,,,,,,,,,,,,,,,,,,,,,,,,,,,,,,,,,,,,,,,,,,,,,,
1725710386.812684,1725710386.814923,146.0,0.0,4248.205078,4250.384766,4252.179688,4312.05127,4201.410156,4251.153809,4273.077148,4217.05127,4264.230957,4181.410156,4521.794922,4495.769043,4374.743652,4439.230957,2905.0,1.0,15.0,,,,0.0,4.0,4.0,4.0,4.0,4.0,4.0,4.0,4.0,4.0,4.0,4.0,4.0,4.0,4.0,100.0,,,,,,,,,,,,,,,,,,,,,,,,,,,,,,,,,,,,,,,,,,,,,,,,,,,,,,,,,,,,,,,,,,,,,,,,,,,,,,,,,,,,,,,,,,,,,,,,,,,,,,,,,,,,,,,,,,,,,,,,,,,,,,,,,,,
1725710386.816588,1725710386.818827,147.0,0.0,4248.077148,4250.0,4252.692383,4309.230957,4202.307617,4251.025879,4271.025879,4216.025879,4264.871582,4177.94873,4521.282227,4494.230957,4370.512695,4431.794922,3144.0,1.0,15.0,,,,0.0,4.0,4.0,4.0,4.0,4.0,4.0,4.0,4.0,4.0,4.0,4.0,4.0,4.0,4.0,100.0,,,,,,,,,,,,,,,,,,,,,,,,,,,,,,,,,,,,,,,,,,,,,,,,,,,,,,,,,,,,,,,,,,,,,,,,,,,,,,,,,,,,,,,,,,,,,,,,,,,,,,,,,,,,,,,,,,,,,,,,,,,,,,,,,,,
1725710386.820492,1725710386.822731,148.0,0.0,4247.179688,4249.102539,4251.794922,4306.666504,4202.436035,4250.897461,4268.974121,4215.512695,4266.025879,4173.589844,4522.179688,4491.666504,4367.436035,4426.025879,3430.0,1.0,15.0,,,,0.0,4.0,4.0,4.0,4.0,4.0,4.0,4.0,4.0,4.0,4.0,4.0,4.0,4.0,4.0,100.0,,,,,,,,,,,,,,,,,,,,,,,,,,,,,,,,,,,,,,,,,,,,,,,,,,,,,,,,,,,,,,,,,,,,,,,,,,,,,,,,,,,,,,,,,,,,,,,,,,,,,,,,,,,,,,,,,,,,,,,,,,,,,,,,,,,
1725710386.824396,1725710386.826536,149.0,0.0,4246.153809,4248.333496,4250.128418,4305.512695,4202.307617,4251.025879,4265.897461,4216.538574,4266.538574,4171.025879,4522.692383,4489.615234,4365.897461,4424.358887,3927.0,1.0,15.0,,,,0.0,4.0,4.0,4.0,4.0,4.0,4.0,4.0,4.0,4.0,4.0,4.0,4.0,4.0,4.0,100.0,,,,,,,,,,,,,,,,,,,,,,,,,,,,,,,,,,,,,,,,,,,,,,,,,,,,,,,,,,,,,,,,,,,,,,,,,,,,,,,,,,,,,,,,,,,,,,,,,,,,,,,,,,,,,,,,,,,,,,,,,,,,,,,,,,,
1725710386.8283,1725710386.83044,150.0,0.0,4245.256348,4248.205078,4249.102539,4305.769043,4202.692383,4251.282227,4260.641113,4218.717773,4266.410156,4170.897461,4522.436035,4489.358887,4365.384766,4426.153809,2905.0,1.0,15.0,,,,0.0,4.0,4.0,4.0,4.0,4.0,4.0,4.0,4.0,4.0,4.0,4.0,4.0,4.0,4.0,100.0,,,,,,,,,,,,,,,,,,,,,,,,,,,,,,,,,,,,,,,,,,,,,,,,,,,,,,,,,,,,,,,,,,,,,,,,,,,,,,,,,,,,,,,,,,,,,,,,,,,,,,,,,,,,,,,,,,,,,,,,,,,,,,,,,,,
1725710386.832204,1725710386.834344,151.0,0.0,4245.0,4248.846191,4249.102539,4306.025879,4203.461426,4251.282227,4253.974121,4220.512695,4265.641113,4171.794922,4522.05127,4490.384766,4365.256348,4428.974121,3144.0,1.0,15.0,,,,0.0,4.0,4.0,4.0,4.0,4.0,4.0,4.0,4.0,4.0,4.0,4.0,4.0,4.0,4.0,100.0,,,,,,,,,,,,,,,,,,,,,,,,,,,,,,,,,,,,,,,,,,,,,,,,,,,,,,,,,,,,,,,,,,,,,,,,,,,,,,,,,,,,,,,,,,,,,,,,,,,,,,,,,,,,,,,,,,,,,,,,,,,,,,,,,,,
1725710386.836108,1725710386.838248,152.0,0.0,4245.256348,4249.487305,4249.358887,4305.256348,4203.846191,4251.153809,4247.692383,4220.128418,4265.256348,4172.05127,4522.307617,4490.769043,4365.0,4429.871582,3430.0,1.0,15.0,,,,0.0,4.0,4.0,4.0,4.0,4.0,4.0,4.0,4.0,4.0,4.0,4.0,4.0,4.0,4.0,100.0,,,,,,,,,,,,,,,,,,,,,,,,,,,,,,,,,,,,,,,,,,,,,,,,,,,,,,,,0.0,0.0,1.0,0.0,1.0,0.0,,,,,,,,,,,,,,,,,,,,,,,,,,,,,,,,,,,,,,,,,,,,,,,,,,,,,,,,,,,,,,,,,,,,,,
1725710386.840012,1725710386.842052,153.0,0.0,4245.384766,4249.358887,4248.717773,4303.846191,4203.589844,4251.153809,4243.461426,4216.794922,4266.153809,4172.05127,4522.436035,4489.102539,4364.615234,4427.692383,3927.0,1.0,15.0,,,,0.0,4.0,4.0,4.0,4.0,4.0,4.0,4.0,4.0,4.0,4.0,4.0,4.0,4.0,4.0,100.0,,,,,,,,,,,,,,,,,,,,,,,,,,,,,,,,,,,,,,,,,,,,,,,,,,,,,,,,,,,,,,,,,,,,,,,,,,,,,,,,,,,,,,,,,,,,,,,,,,,,,,,,,,,,,,,,,,,,,,,,,,,,,,,,,,,
1725710386.843917,1725710386.845956,154.0,0.0,4245.512695,4248.205078,4247.307617,4303.589844,4203.077148,4251.153809,4241.282227,4212.94873,4268.846191,4173.461426,4521.666504,4486.666504,4364.102539,4424.743652,2905.0,1.0,15.0,,,,0.0,4.0,4.0,4.0,4.0,4.0,4.0,4.0,4.0,4.0,4.0,4.0,4.0,4.0,4.0,100.0,,,,,,,,,,,,,,,,,,,,,,,,,,,,,,,,,,,,,,,,,,,,,,,,,,,,,,,,,,,,,,,,,,,,,,,,,,,,,,,,,,,,,,,,,,,,,,,,,,,,,,,,,,,,,,,,,,,,,,,,,,,,,,,,,,,
1725710386.847821,1725710386.84986,155.0,0.0,4245.897461,4247.05127,4246.922852,4305.769043,4202.692383,4250.769043,4240.384766,4212.307617,4273.205078,4177.436035,4520.512695,4486.794922,4364.358887,4424.358887,3144.0,1.0,15.0,,,,0.0,4.0,4.0,4.0,4.0,4.0,4.0,4.0,4.0,4.0,4.0,4.0,4.0,4.0,4.0,100.0,,,,,,,,,,,,,,,,,,,,,,,,,,,,,,,,,,,,,,,,,,,,,,,,,,,,,,,,,,,,,,,,,,,,,,,,,,,,,,,,,,,,,,,,,,,,,,,,,,,,,,,,,,,,,,,,,,,,,,,,,,,,,,,,,,,
1725710386.851725,1725710386.853864,156.0,0.0,4246.922852,4247.563965,4249.102539,4310.256348,4202.563965,4250.0,4239.615234,4216.666504,4278.461426,4183.333496,4520.256348,4491.794922,4366.153809,4428.333496,3430.0,1.0,15.0,,,,0.0,4.0,4.0,4.0,4.0,4.0,4.0,4.0,4.0,4.0,4.0,4.0,4.0,4.0,4.0,100.0,,,,,,,,,,,,,,,,,,,,,,,,,,,,,,,,,,,,,,,,,,,,,,,,,,,,,,,,,,,,,,,,,,,,,,,,,,,,,,,,,,,,,,,,,,,,,,,,,,,,,,,,,,,,,,,,,,,,,,,,,,,,,,,,,,,
1725710386.855629,1725710386.857768,157.0,0.0,4248.589844,4250.641113,4253.589844,4315.384766,4202.179688,4248.846191,4237.94873,4224.358887,4283.205078,4188.461426,4522.05127,4500.641113,4369.615234,4435.256348,3927.0,1.0,15.0,,,,0.0,4.0,4.0,4.0,4.0,4.0,4.0,4.0,4.0,4.0,4.0,4.0,4.0,4.0,4.0,100.0,,,,,,,,,,,,,,,,,,,,,,,,,,,,,,,,,,,,,,,,,,,,,,,,,,,,,,,,,,,,,,,,,,,,,,,,,,,,,,,,,,,,,,,,,,,,,,,,,,,,,,,,,,,,,,,,,,,,,,,,,,,,,,,,,,,
1725710386.859533,1725710386.861672,158.0,0.0,4249.743652,4255.641113,4258.846191,4318.846191,4201.666504,4248.205078,4235.512695,4230.769043,4286.025879,4190.384766,4525.256348,4509.487305,4373.974121,4442.05127,2905.0,1.0,15.0,,,,0.0,4.0,4.0,4.0,4.0,4.0,4.0,4.0,4.0,4.0,4.0,4.0,4.0,4.0,4.0,100.0,,,,,,,,,,,,,,,,,,,,,,,,,,,,,,,,,,,,,,,,,,,,,,,,,,,,,,,,,,,,,,,,,,,,,,,,,,,,,,,,,,,,,,,,,,,,,,,,,,,,,,,,,,,,,,,,,,,,,,,,,,,,,,,,,,,
1725710386.863437,1725710386.865577,159.0,0.0,4250.0,4260.512695,4262.692383,4319.615234,4202.05127,4248.717773,4233.333496,4231.922852,4287.307617,4188.974121,4529.487305,4514.487305,4377.820313,4446.282227,3144.0,1.0,15.0,,,,0.0,4.0,4.0,4.0,4.0,4.0,4.0,4.0,4.0,4.0,4.0,4.0,4.0,4.0,4.0,100.0,,,,,,,,,,,,,,,,,,,,,,,,,,,,,,,,,,,,,,,,,,,,,,,,,,,,,,,,,,,,,,,,,,,,,,,,,,,,,,,,,,,,,,,,,,,,,,,,,,,,,,,,,,,,,,,,,,,,,,,,,,,,,,,,,,,
1725710386.867341,1725710386.869581,160.0,0.0,4250.0,4263.077148,4264.487305,4318.461426,4204.102539,4250.641113,4232.94873,4227.94873,4288.077148,4186.538574,4535.128418,4515.128418,4380.512695,4447.94873,3430.0,1.0,15.0,,,,0.0,4.0,4.0,4.0,4.0,4.0,4.0,4.0,4.0,4.0,4.0,4.0,4.0,4.0,4.0,100.0,,,,,,,,,,,,,,,,,,,,,,,,,,,,,,,,,,,,,,,,,,,,,,,,,,,,,,,,0.0,0.0,1.0,0.0,1.0,0.0,,,,,,,,,,,,,,,,,,,,,,,,,,,,,,,,,,,,,,,,,,,,,,,,,,,,,,,,,,,,,,,,,,,,,,
1725710386.871245,1725710386.873485,161.0,0.0,4251.153809,4263.205078,4264.358887,4317.563965,4207.563965,4253.717773,4234.358887,4222.692383,4288.589844,4185.769043,4542.179688,4514.102539,4382.05127,4449.102539,3927.0,1.0,15.0,,,,0.0,4.0,4.0,4.0,4.0,4.0,4.0,4.0,4.0,4.0,4.0,4.0,4.0,4.0,4.0,100.0,,,,,,,,,,,,,,,,,,,,,,,,,,,,,,,,,,,,,,,,,,,,,,,,,,,,,,,,,,,,,,,,,,,,,,,,,,,,,,,,,,,,,,,,,,,,,,,,,,,,,,,,,,,,,,,,,,,,,,,,,,,,,,,,,,,
1725710386.875149,1725710386.877389,162.0,0.0,4254.102539,4261.410156,4263.589844,4318.589844,4211.153809,4256.794922,4236.153809,4220.512695,4288.717773,4187.692383,4548.717773,4515.128418,4383.205078,4451.794922,2905.0,1.0,15.0,,,,0.0,4.0,4.0,4.0,4.0,4.0,4.0,4.0,4.0,4.0,4.0,4.0,4.0,4.0,4.0,100.0,,,,,,,,,,,,,,,,,,,,,,,,,,,,,,,,,,,,,,,,,,,,,,,,,,,,,,,,,,,,,,,,,,,,,,,,,,,,,,,,,,,,,,,,,,,,,,,,,,,,,,,,,,,,,,,,,,,,,,,,,,,,,,,,,,,
1725710386.879053,1725710386.881293,163.0,0.0,4257.692383,4259.358887,4263.461426,4321.922852,4213.461426,4259.487305,4236.538574,4223.846191,4288.205078,4191.282227,4551.794922,4518.974121,4384.615234,4455.384766,3144.0,1.0,15.0,,,,0.0,4.0,4.0,4.0,4.0,4.0,4.0,4.0,4.0,4.0,4.0,4.0,4.0,4.0,4.0,100.0,,,,,,,,,,,,,,,,,,,,,,,,,,,,,,,,,,,,,,,,,,,,,,,,,,,,,,,,,,,,,,,,,,,,,,,,,,,,,,,,,,,,,,,,,,,,,,,,,,,,,,,,,,,,,,,,,,,,,,,,,,,,,,,,,,,
1725710386.882958,1725710386.885197,164.0,0.0,4260.256348,4258.333496,4263.974121,4326.025879,4213.974121,4261.153809,4235.512695,4230.769043,4287.436035,4194.871582,4549.487305,4523.846191,4385.769043,4457.563965,3430.0,1.0,15.0,,,,0.0,4.0,4.0,4.0,4.0,4.0,4.0,4.0,4.0,4.0,4.0,4.0,4.0,4.0,4.0,100.0,,,,,,,,,,,,,,,,,,,,,,,,,,,,,,,,,,,,,,,,,,,,,,,,,,,,,,,,,,,,,,,,,,,,,,,,,,,,,,,,,,,,,,,,,,,,,,,,,,,,,,,,,,,,,,,,,,,,,,,,,,,,,,,,,,,
1725710386.886862,1725710386.889001,165.0,0.0,4260.769043,4259.230957,4264.358887,4328.974121,4213.589844,4261.922852,4234.230957,4236.538574,4287.05127,4197.307617,4543.461426,4526.922852,4386.025879,4456.666504,3927.0,1.0,15.0,,,,0.0,4.0,4.0,4.0,4.0,4.0,4.0,4.0,4.0,4.0,4.0,4.0,4.0,4.0,4.0,100.0,,,,,,,,,,,,,,,,,,,,,,,,,,,,,,,,,,,,,,,,,,,,,,,,,,,,,,,,,,,,,,,,,,,,,,,,,,,,,,,,,,,,,,,,,,,,,,,,,,,,,,,,,,,,,,,,,,,,,,,,,,,,,,,,,,,
1725710386.890766,1725710386.892905,166.0,0.0,4260.128418,4261.666504,4263.974121,4329.487305,4213.205078,4262.436035,4233.717773,4237.820313,4287.307617,4198.717773,4538.333496,4526.410156,4385.384766,4452.692383,2905.0,1.0,15.0,,,,0.0,4.0,4.0,4.0,4.0,4.0,4.0,4.0,4.0,4.0,4.0,4.0,4.0,4.0,4.0,100.0,,,,,,,,,,,,,,,,,,,,,,,,,,,,,,,,,,,,,,,,,,,,,,,,,,,,,,,,,,,,,,,,,,,,,,,,,,,,,,,,,,,,,,,,,,,,,,,,,,,,,,,,,,,,,,,,,,,,,,,,,,,,,,,,,,,
1725710386.89467,1725710386.896909,167.0,0.0,4259.487305,4263.846191,4262.692383,4328.077148,4213.846191,4263.077148,4233.333496,4235.128418,4287.563965,4199.487305,4538.333496,4523.461426,4383.846191,4448.589844,3144.0,1.0,15.0,,,,0.0,4.0,4.0,4.0,4.0,4.0,4.0,4.0,4.0,4.0,4.0,4.0,4.0,4.0,4.0,100.0,,,,,,,,,,,,,,,,,,,,,,,,,,,,,,,,,,,,,,,,,,,,,,,,,,,,,,,,,,,,,,,,,,,,,,,,,,,,,,,,,,,,,,,,,,,,,,,,,,,,,,,,,,,,,,,,,,,,,,,,,,,,,,,,,,,
1725710386.898574,1725710386.900813,168.0,0.0,4259.615234,4263.717773,4261.538574,4326.538574,4215.128418,4264.102539,4232.563965,4232.307617,4286.666504,4200.128418,4544.358887,4521.025879,4382.563965,4446.794922,3430.0,1.0,15.0,,,,0.0,4.0,4.0,4.0,4.0,4.0,4.0,4.0,4.0,4.0,4.0,4.0,4.0,4.0,4.0,100.0,,,,,,,,,,,,,,,,,,,,,,,,,,,,,,,,,,,,,,,,,,,,,,,,,,,,,,,,0.0,0.0,1.0,0.0,1.0,0.0,,,,,,,,,,,,,,,,,,,,,,,,,,,,,,,,,,,,,,,,,,,,,,,,,,,,,,,,,,,,,,,,,,,,,,
1725710386.902478,1725710386.904717,169.0,0.0,4259.871582,4260.769043,4261.282227,4326.153809,4216.025879,4265.641113,4231.538574,4232.436035,4284.615234,4200.256348,4552.820313,4521.282227,4381.922852,4448.461426,3927.0,1.0,15.0,,,,0.0,4.0,4.0,4.0,4.0,4.0,4.0,4.0,4.0,4.0,4.0,4.0,4.0,4.0,4.0,100.0,,,,,,,,,,,,,,,,,,,,,,,,,,,,,,,,,,,,,,,,,,,,,,,,,,,,,,,,,,,,,,,,,,,,,,,,,,,,,,,,,,,,,,,,,,,,,,,,,,,,,,,,,,,,,,,,,,,,,,,,,,,,,,,,,,,
1725710386.906382,1725710386.908622,170.0,0.0,4258.974121,4256.153809,4261.794922,4326.922852,4215.641113,4266.922852,4231.410156,4236.153809,4282.436035,4199.230957,4558.333496,4523.846191,4382.05127,4451.538574,2905.0,1.0,15.0,,,,0.0,4.0,4.0,4.0,4.0,4.0,4.0,4.0,4.0,4.0,4.0,4.0,4.0,4.0,4.0,100.0,,,,,,,,,,,,,,,,,,,,,,,,,,,,,,,,,,,,,,,,,,,,,,,,,,,,,,,,,,,,,,,,,,,,,,,,,,,,,,,,,,,,,,,,,,,,,,,,,,,,,,,,,,,,,,,,,,,,,,,,,,,,,,,,,,,
1725710386.910286,1725710386.912526,171.0,0.0,4256.666504,4251.922852,4261.666504,4327.05127,4214.230957,4267.563965,4232.436035,4240.769043,4281.025879,4196.666504,4557.563965,4526.153809,4383.077148,4453.077148,3144.0,1.0,15.0,,,,0.0,4.0,4.0,4.0,4.0,4.0,4.0,4.0,4.0,4.0,4.0,4.0,4.0,4.0,4.0,100.0,,,,,,,,,,,,,,,,,,,,,,,,,,,,,,,,,,,,,,,,,,,,,,,,,,,,,,,,,,,,,,,,,,,,,,,,,,,,,,,,,,,,,,,,,,,,,,,,,,,,,,,,,,,,,,,,,,,,,,,,,,,,,,,,,,,
1725710386.91419,1725710386.91633,172.0,0.0,4253.717773,4249.487305,4260.256348,4325.384766,4212.820313,4267.179688,4232.820313,4243.205078,4280.769043,4192.692383,4551.153809,4525.641113,4384.358887,4451.410156,3430.0,1.0,15.0,,,,0.0,4.0,4.0,4.0,4.0,4.0,4.0,4.0,4.0,4.0,4.0,4.0,4.0,4.0,4.0,100.0,,,,,,,,,,,,,,,,,,,,,,,,,,,,,,,,,,,,,,,,,,,,,,,,,,,,,,,,,,,,,,,,,,,,,,,,,,,,,,,,,,,,,,,,,,,,,,,,,,,,,,,,,,,,,,,,,,,,,,,,,,,,,,,,,,,
1725710386.918095,1725710386.920234,173.0,0.0,4251.410156,4248.589844,4258.205078,4322.05127,4212.820313,4266.282227,4230.769043,4241.794922,4280.897461,4188.461426,4543.077148,4521.922852,4385.0,4447.692383,3927.0,1.0,15.0,,,,0.0,4.0,4.0,4.0,4.0,4.0,4.0,4.0,4.0,4.0,4.0,4.0,4.0,4.0,4.0,100.0,,,,,,,,,,,,,,,,,,,,,,,,,,,,,,,,,,,,,,,,,,,,,,,,,,,,,,,,,,,,,,,,,,,,,,,,,,,,,,,,,,,,,,,,,,,,,,,,,,,,,,,,,,,,,,,,,,,,,,,,,,,,,,,,,,,
1725710386.921999,1725710386.924138,174.0,0.0,4250.256348,4248.333496,4256.922852,4319.487305,4214.102539,4265.512695,4226.153809,4237.436035,4280.0,4184.743652,4537.563965,4516.794922,4384.487305,4444.358887,2905.0,1.0,15.0,,,,0.0,4.0,4.0,4.0,4.0,4.0,4.0,4.0,4.0,4.0,4.0,4.0,4.0,4.0,4.0,100.0,,,,,,,,,,,,,,,,,,,,,,,,,,,,,,,,,,,,,,,,,,,,,,,,,,,,,,,,,,,,,,,,,,,,,,,,,,,,,,,,,,,,,,,,,,,,,,,,,,,,,,,,,,,,,,,,,,,,,,,,,,,,,,,,,,,
1725710386.925903,1725710386.928042,175.0,0.0,4250.256348,4248.205078,4257.307617,4319.487305,4215.641113,4265.256348,4220.769043,4231.666504,4277.94873,4182.563965,4535.641113,4512.307617,4382.94873,4443.205078,3144.0,1.0,15.0,,,,0.0,4.0,4.0,4.0,4.0,4.0,4.0,4.0,4.0,4.0,4.0,4.0,4.0,4.0,4.0,100.0,,,,,,,,,,,,,,,,,,,,,,,,,,,,,,,,,,,,,,,,,,,,,,,,,,,,,,,,,,,,,,,,,,,,,,,,,,,,,,,,,,,,,,,,,,,,,,,,,,,,,,,,,,,,,,,,,,,,,,,,,,,,,,,,,,,
1725710386.929807,1725710386.931846,176.0,0.0,4251.153809,4248.974121,4259.102539,4322.05127,4216.025879,4265.384766,4217.05127,4225.897461,4275.512695,4182.179688,4535.384766,4509.230957,4381.153809,4444.102539,3430.0,1.0,15.0,,,,0.0,4.0,4.0,4.0,4.0,4.0,4.0,4.0,4.0,4.0,4.0,4.0,4.0,4.0,4.0,100.0,,,,,,,,,,,,,,,,,1.0,0.0,0.0,,,,,,,,,,,,,,,,,,,,,,,,,,,,,,,,,,,,,0.0,0.0,1.0,0.0,1.0,0.0,0.591375,0.723913,0.196352,0.121042,0.052032,0.608777,0.794406,0.279682,0.272506,0.182318,0.760719,0.587839,0.238314,0.103106,0.075915,1.188381,0.864213,0.540362,0.34928,0.147705,0.489406,0.279842,0.15229,0.137252,0.122034,0.687134,0.556287,0.126743,0.122904,0.058703,1.679411,1.028348,0.735105,0.146013,0.087472,0.8072,5.937109,0.7451,0.168315,0.084668,0.767832,4.210588,0.350195,0.208093,0.066997,0.733255,3.613325,0.510231,0.269982,0.098555,1.765823,3.843486,0.491669,0.613299,0.358291,2.53067,6.043051,0.573916,0.367753,0.117784,1.148764,2.172364,0.437467,0.280323,0.173445,1.299876,2.196059,0.637011,0.300374,0.115888
1725710386.933711,1725710386.935751,177.0,0.0,4252.179688,4251.153809,4261.282227,4325.512695,4215.384766,4265.897461,4216.153809,4221.153809,4274.102539,4182.820313,4535.256348,4507.94873,4379.871582,4445.641113,3927.0,1.0,15.0,,,,0.0,4.0,4.0,4.0,4.0,4.0,4.0,4.0,4.0,4.0,4.0,4.0,4.0,4.0,4.0,100.0,,,,,,,,,,,,,,,,,,,,,,,,,,,,,,,,,,,,,,,,,,,,,,,,,,,,,,,,,,,,,,,,,,,,,,,,,,,,,,,,,,,,,,,,,,,,,,,,,,,,,,,,,,,,,,,,,,,,,,,,,,,,,,,,,,,
1725710386.937615,1725710386.939655,178.0,0.0,4252.820313,4254.487305,4262.692383,4327.94873,4214.487305,4266.282227,4217.820313,4218.077148,4274.487305,4183.717773,4535.641113,4508.077148,4380.256348,4446.538574,2905.0,1.0,15.0,,,,0.0,4.0,4.0,4.0,4.0,4.0,4.0,4.0,4.0,4.0,4.0,4.0,4.0,4.0,4.0,100.0,,,,,,,,,,,,,,,,,,,,,,,,,,,,,,,,,,,,,,,,,,,,,,,,,,,,,,,,,,,,,,,,,,,,,,,,,,,,,,,,,,,,,,,,,,,,,,,,,,,,,,,,,,,,,,,,,,,,,,,,,,,,,,,,,,,
1725710386.941519,1725710386.943559,179.0,0.0,4253.077148,4257.563965,4263.077148,4328.974121,4214.102539,4266.025879,4220.384766,4217.692383,4276.410156,4184.743652,4537.05127,4508.846191,4381.922852,4446.538574,3144.0,1.0,15.0,,,,0.0,4.0,4.0,4.0,4.0,4.0,4.0,4.0,4.0,4.0,4.0,4.0,4.0,4.0,4.0,100.0,,,,,,,,,,,,,,,,,,,,,,,,,,,,,,,,,,,,,,,,,,,,,,,,,,,,,,,,,,,,,,,,,,,,,,,,,,,,,,,,,,,,,,,,,,,,,,,,,,,,,,,,,,,,,,,,,,,,,,,,,,,,,,,,,,,
1725710386.945423,1725710386.947363,180.0,0.0,4252.94873,4259.230957,4262.563965,4328.717773,4214.487305,4265.512695,4222.307617,4220.0,4279.102539,4186.025879,4538.846191,4509.743652,4383.589844,4445.897461,3430.0,1.0,15.0,,,,0.0,4.0,4.0,4.0,4.0,4.0,4.0,4.0,4.0,4.0,4.0,4.0,4.0,4.0,4.0,100.0,,,,,,,,,,,,,,,,,,,,,,,,,,,,,,,,,,,,,,,,,,,,,,,,,,,,,,,,,,,,,,,,,,,,,,,,,,,,,,,,,,,,,,,,,,,,,,,,,,,,,,,,,,,,,,,,,,,,,,,,,,,,,,,,,,,
1725710386.949327,1725710386.951267,181.0,0.0,4252.820313,4259.102539,4261.922852,4328.205078,4214.871582,4265.0,4222.436035,4224.230957,4280.897461,4187.692383,4538.717773,4511.538574,4383.846191,4445.384766,3927.0,1.0,15.0,,,,0.0,4.0,4.0,4.0,4.0,4.0,4.0,4.0,4.0,4.0,4.0,4.0,4.0,4.0,4.0,100.0,,,,,,,,,,,,,,,,,,,,,,,,,,,,,,,,,,,,,,,,,,,,,,,,,,,,,,,,,,,,,,,,,,,,,,,,,,,,,,,,,,,,,,,,,,,,,,,,,,,,,,,,,,,,,,,,,,,,,,,,,,,,,,,,,,,
1725710386.953231,1725710386.955171,182.0,0.0,4252.94873,4258.717773,4261.410156,4327.563965,4215.128418,4264.743652,4221.153809,4229.230957,4281.794922,4189.230957,4535.641113,4514.871582,4382.563965,4445.256348,2905.0,1.0,15.0,,,,0.0,4.0,4.0,4.0,4.0,4.0,4.0,4.0,4.0,4.0,4.0,4.0,4.0,4.0,4.0,100.0,,,,,,,,,,,,,,,,,,,,,,,,,,,,,,,,,,,,,,,,,,,,,,,,,,,,,,,,,,,,,,,,,,,,,,,,,,,,,,,,,,,,,,,,,,,,,,,,,,,,,,,,,,,,,,,,,,,,,,,,,,,,,,,,,,,
1725710386.957136,1725710386.959175,183.0,0.0,4254.102539,4259.102539,4261.538574,4327.307617,4215.384766,4264.487305,4219.358887,4233.205078,4281.922852,4190.0,4530.769043,4519.102539,4381.025879,4445.512695,3144.0,1.0,15.0,,,,0.0,4.0,4.0,4.0,4.0,4.0,4.0,4.0,4.0,4.0,4.0,4.0,4.0,4.0,4.0,100.0,,,,,,,,,,,,,,,,,,,,,,,,,,,,,,,,,,,,,,,,,,,,,,,,,,,,,,,,,,,,,,,,,,,,,,,,,,,,,,,,,,,,,,,,,,,,,,,,,,,,,,,,,,,,,,,,,,,,,,,,,,,,,,,,,,,
1725710386.96104,1725710386.963079,184.0,0.0,4255.897461,4260.769043,4261.922852,4326.922852,4216.025879,4264.102539,4218.333496,4234.743652,4281.666504,4189.102539,4527.179688,4521.666504,4380.128418,4445.384766,3430.0,1.0,15.0,,,,0.0,4.0,4.0,4.0,4.0,4.0,4.0,4.0,4.0,4.0,4.0,4.0,4.0,4.0,4.0,100.0,,,,,,,,,,,,,,,,,,,,,,,,,,,,,,,,,,,,,,,,,,,,,,,,,,,,,,,,0.0,0.0,1.0,0.0,1.0,0.0,,,,,,,,,,,,,,,,,,,,,,,,,,,,,,,,,,,,,,,,,,,,,,,,,,,,,,,,,,,,,,,,,,,,,,
1725710386.964944,1725710386.966983,185.0,0.0,4257.307617,4262.820313,4262.179688,4326.410156,4217.179688,4263.974121,4218.333496,4233.333496,4280.384766,4187.05127,4526.666504,4520.641113,4379.615234,4444.358887,3927.0,1.0,15.0,,,,0.0,4.0,4.0,4.0,4.0,4.0,4.0,4.0,4.0,4.0,4.0,4.0,4.0,4.0,4.0,100.0,,,,,,,,,,,,,,,,,,,,,,,,,,,,,,,,,,,,,,,,,,,,,,,,,,,,,,,,,,,,,,,,,,,,,,,,,,,,,,,,,,,,,,,,,,,,,,,,,,,,,,,,,,,,,,,,,,,,,,,,,,,,,,,,,,,
1725710386.968848,1725710386.970987,186.0,0.0,4257.05127,4264.102539,4262.179688,4326.282227,4218.077148,4264.615234,4218.077148,4229.871582,4278.205078,4184.871582,4529.487305,4516.282227,4378.589844,4443.077148,2905.0,1.0,15.0,,,,0.0,4.0,4.0,4.0,4.0,4.0,4.0,4.0,4.0,4.0,4.0,4.0,4.0,4.0,4.0,100.0,,,,,,,,,,,,,,,,,,,,,,,,,,,,,,,,,,,,,,,,,,,,,,,,,,,,,,,,,,,,,,,,,,,,,,,,,,,,,,,,,,,,,,,,,,,,,,,,,,,,,,,,,,,,,,,,,,,,,,,,,,,,,,,,,,,
1725710386.972752,1725710386.974891,187.0,0.0,4255.0,4263.974121,4261.922852,4326.794922,4218.077148,4265.641113,4216.410156,4227.179688,4275.897461,4184.102539,4533.589844,4511.922852,4376.538574,4442.563965,3144.0,1.0,15.0,,,,0.0,4.0,4.0,4.0,4.0,4.0,4.0,4.0,4.0,4.0,4.0,4.0,4.0,4.0,4.0,100.0,,,,,,,,,,,,,,,,,,,,,,,,,,,,,,,,,,,,,,,,,,,,,,,,,,,,,,,,,,,,,,,,,,,,,,,,,,,,,,,,,,,,,,,,,,,,,,,,,,,,,,,,,,,,,,,,,,,,,,,,,,,,,,,,,,,
1725710386.976656,1725710386.978796,188.0,0.0,4252.307617,4262.692383,4261.538574,4327.94873,4216.922852,4266.538574,4213.333496,4227.05127,4274.487305,4184.871582,4536.922852,4511.025879,4374.358887,4443.589844,3430.0,1.0,15.0,,,,0.0,4.0,4.0,4.0,4.0,4.0,4.0,4.0,4.0,4.0,4.0,4.0,4.0,4.0,4.0,100.0,,,,,,,,,,,,,,,,,,,,,,,,,,,,,,,,,,,,,,,,,,,,,,,,,,,,,,,,,,,,,,,,,,,,,,,,,,,,,,,,,,,,,,,,,,,,,,,,,,,,,,,,,,,,,,,,,,,,,,,,,,,,,,,,,,,
1725710386.98056,1725710386.9827,189.0,0.0,4250.769043,4260.641113,4261.153809,4328.974121,4215.0,4266.538574,4208.974121,4228.974121,4274.487305,4185.641113,4538.717773,4514.487305,4372.94873,4445.641113,3927.0,1.0,15.0,,,,0.0,4.0,4.0,4.0,4.0,4.0,4.0,4.0,4.0,4.0,4.0,4.0,4.0,4.0,4.0,100.0,,,,,,,,,,,,,,,,,,,,,,,,,,,,,,,,,,,,,,,,,,,,,,,,,,,,,,,,,,,,,,,,,,,,,,,,,,,,,,,,,,,,,,,,,,,,,,,,,,,,,,,,,,,,,,,,,,,,,,,,,,,,,,,,,,,
1725710386.984464,1725710386.986604,190.0,0.0,4251.025879,4257.820313,4261.025879,4329.102539,4213.461426,4266.282227,4204.487305,4230.897461,4275.128418,4185.256348,4539.230957,4519.358887,4372.820313,4447.179688,2905.0,1.0,15.0,,,,0.0,4.0,4.0,4.0,4.0,4.0,4.0,4.0,4.0,4.0,4.0,4.0,4.0,4.0,4.0,100.0,,,,,,,,,,,,,,,,,,,,,,,,,,,,,,,,,,,,,,,,,,,,,,,,,,,,,,,,,,,,,,,,,,,,,,,,,,,,,,,,,,,,,,,,,,,,,,,,,,,,,,,,,,,,,,,,,,,,,,,,,,,,,,,,,,,
1725710386.988368,1725710386.990408,191.0,0.0,4251.922852,4254.102539,4261.025879,4328.717773,4213.205078,4266.794922,4200.769043,4231.538574,4275.897461,4183.846191,4539.102539,4522.307617,4373.461426,4446.922852,3144.0,1.0,15.0,,,,0.0,4.0,4.0,4.0,4.0,4.0,4.0,4.0,4.0,4.0,4.0,4.0,4.0,4.0,4.0,100.0,,,,,,,,,,,,,,,,,,,,,,,,,,,,,,,,,,,,,,,,,,,,,,,,,,,,,,,,,,,,,,,,,,,,,,,,,,,,,,,,,,,,,,,,,,,,,,,,,,,,,,,,,,,,,,,,,,,,,,,,,,,,,,,,,,,
1725710386.992273,1725710386.994312,192.0,0.0,4251.794922,4250.512695,4261.153809,4328.077148,4214.358887,4268.717773,4198.333496,4230.769043,4276.666504,4183.461426,4539.230957,4521.922852,4374.102539,4445.0,3430.0,1.0,15.0,,,,0.0,4.0,4.0,4.0,4.0,4.0,4.0,4.0,4.0,4.0,4.0,4.0,4.0,4.0,4.0,100.0,,,,,,,,,,,,,,,,,,,,,,,,,,,,,,,,,,,,,,,,,,,,,,,,,,,,,,,,0.0,0.0,1.0,0.0,1.0,0.0,,,,,,,,,,,,,,,,,,,,,,,,,,,,,,,,,,,,,,,,,,,,,,,,,,,,,,,,,,,,,,,,,,,,,,
1725710386.996177,1725710386.998216,193.0,0.0,4250.384766,4248.461426,4261.282227,4326.922852,4215.897461,4271.025879,4197.563965,4229.743652,4277.692383,4185.641113,4539.615234,4519.871582,4374.615234,4443.205078,3927.0,1.0,15.0,,,,0.0,4.0,4.0,4.0,4.0,4.0,4.0,4.0,4.0,4.0,4.0,4.0,4.0,4.0,4.0,100.0,,,,,,,,,,,,,,,,,,,,,,,,,,,,,,,,,,,,,,,,,,,,,,,,,,,,,,,,,,,,,,,,,,,,,,,,,,,,,,,,,,,,,,,,,,,,,,,,,,,,,,,,,,,,,,,,,,,,,,,,,,,,,,,,,,,
1725710387.000081,1725710387.00222,194.0,0.0,4248.974121,4249.102539,4261.025879,4325.512695,4216.538574,4272.179688,4198.333496,4229.615234,4279.102539,4190.0,4539.743652,4518.589844,4375.128418,4443.205078,2905.0,1.0,15.0,,,,0.0,4.0,4.0,4.0,4.0,4.0,4.0,4.0,4.0,4.0,4.0,4.0,4.0,4.0,4.0,100.0,,,,,,,,,,,,,,,,,,,,,,,,,,,,,,,,,,,,,,,,,,,,,,,,,,,,,,,,,,,,,,,,,,,,,,,,,,,,,,,,,,,,,,,,,,,,,,,,,,,,,,,,,,,,,,,,,,,,,,,,,,,,,,,,,,,
1725710387.003985,1725710387.006124,195.0,0.0,4248.974121,4251.794922,4260.641113,4324.358887,4216.153809,4271.025879,4199.871582,4229.487305,4280.256348,4194.358887,4539.230957,4519.358887,4376.153809,4445.0,3144.0,1.0,15.0,,,,0.0,4.0,4.0,4.0,4.0,4.0,4.0,4.0,4.0,4.0,4.0,4.0,4.0,4.0,4.0,100.0,,,,,,,,,,,,,,,,,,,,,,,,,,,,,,,,,,,,,,,,,,,,,,,,,,,,,,,,,,,,,,,,,,,,,,,,,,,,,,,,,,,,,,,,,,,,,,,,,,,,,,,,,,,,,,,,,,,,,,,,,,,,,,,,,,,
1725710387.007889,1725710387.010028,196.0,0.0,4250.512695,4254.871582,4260.769043,4324.358887,4215.128418,4267.94873,4201.025879,4227.94873,4280.641113,4195.897461,4538.205078,4520.897461,4377.307617,4446.922852,3430.0,1.0,15.0,,,,0.0,4.0,4.0,4.0,4.0,4.0,4.0,4.0,4.0,4.0,4.0,4.0,4.0,4.0,4.0,100.0,,,,,,,,,,,,,,,,,,,,,,,,,,,,,,,,,,,,,,,,,,,,,,,,,,,,,,,,,,,,,,,,,,,,,,,,,,,,,,,,,,,,,,,,,,,,,,,,,,,,,,,,,,,,,,,,,,,,,,,,,,,,,,,,,,,
1725710387.011793,1725710387.013933,197.0,0.0,4252.307617,4256.794922,4261.538574,4326.153809,4214.230957,4264.871582,4201.538574,4224.102539,4279.743652,4193.846191,4536.538574,4520.641113,4377.94873,4447.179688,3927.0,1.0,15.0,,,,0.0,4.0,4.0,4.0,4.0,4.0,4.0,4.0,4.0,4.0,4.0,4.0,4.0,4.0,4.0,100.0,,,,,,,,,,,,,,,,,,,,,,,,,,,,,,,,,,,,,,,,,,,,,,,,,,,,,,,,,,,,,,,,,,,,,,,,,,,,,,,,,,,,,,,,,,,,,,,,,,,,,,,,,,,,,,,,,,,,,,,,,,,,,,,,,,,
1725710387.015697,1725710387.017837,198.0,0.0,4252.692383,4257.436035,4262.563965,4329.102539,4214.230957,4263.974121,4201.153809,4219.230957,4278.333496,4189.615234,4533.461426,4516.666504,4378.077148,4445.384766,2905.0,1.0,15.0,,,,0.0,4.0,4.0,4.0,4.0,4.0,4.0,4.0,4.0,4.0,4.0,4.0,4.0,4.0,4.0,100.0,,,,,,,,,,,,,,,,,,,,,,,,,,,,,,,,,,,,,,,,,,,,,,,,,,,,,,,,,,,,,,,,,,,,,,,,,,,,,,,,,,,,,,,,,,,,,,,,,,,,,,,,,,,,,,,,,,,,,,,,,,,,,,,,,,,
1725710387.019601,1725710387.021641,199.0,0.0,4251.794922,4257.94873,4263.333496,4332.05127,4214.871582,4265.384766,4200.128418,4216.153809,4277.05127,4186.025879,4528.333496,4510.256348,4378.077148,4442.563965,3144.0,1.0,15.0,,,,0.0,4.0,4.0,4.0,4.0,4.0,4.0,4.0,4.0,4.0,4.0,4.0,4.0,4.0,4.0,100.0,,,,,,,,,,,,,,,,,,,,,,,,,,,,,,,,,,,,,,,,,,,,,,,,,,,,,,,,,,,,,,,,,,,,,,,,,,,,,,,,,,,,,,,,,,,,,,,,,,,,,,,,,,,,,,,,,,,,,,,,,,,,,,,,,,,
1725710387.023505,1725710387.025545,200.0,0.0,4250.384766,4258.974121,4263.205078,4333.717773,4215.256348,4267.563965,4199.102539,4217.307617,4276.538574,4185.128418,4522.307617,4505.128418,4378.717773,4440.641113,3430.0,1.0,15.0,,,,0.0,4.0,4.0,4.0,4.0,4.0,4.0,4.0,4.0,4.0,4.0,4.0,4.0,4.0,4.0,100.0,,,,,,,,,,,,,,,,,,,,,,,,,,,,,,,,,,,,,,,,,,,,,,,,,,,,,,,,0.0,0.0,1.0,0.0,1.0,0.0,,,,,,,,,,,,,,,,,,,,,,,,,,,,,,,,,,,,,,,,,,,,,,,,,,,,,,,,,,,,,,,,,,,,,,
1725710387.027409,1725710387.029449,201.0,0.0,4249.487305,4260.384766,4262.307617,4334.230957,4215.128418,4268.205078,4198.846191,4222.692383,4276.794922,4186.538574,4519.358887,4504.871582,4380.641113,4440.769043,3927.0,1.0,15.0,,,,0.0,4.0,4.0,4.0,4.0,4.0,4.0,4.0,4.0,4.0,4.0,4.0,4.0,4.0,4.0,100.0,,,,,,,,,,,,,,,,,,,,,,,,,,,,,,,,,,,,,,,,,,,,,,,,,,,,,,,,,,,,,,,,,,,,,,,,,,,,,,,,,,,,,,,,,,,,,,,,,,,,,,,,,,,,,,,,,,,,,,,,,,,,,,,,,,,
1725710387.031314,1725710387.033353,202.0,0.0,4249.102539,4260.897461,4261.282227,4334.230957,4214.615234,4266.794922,4199.487305,4229.615234,4277.307617,4188.333496,4522.820313,4509.615234,4383.077148,4442.692383,2905.0,1.0,15.0,,,,0.0,4.0,4.0,4.0,4.0,4.0,4.0,4.0,4.0,4.0,4.0,4.0,4.0,4.0,4.0,100.0,,,,,,,,,,,,,,,,,,,,,,,,,,,,,,,,,,,,,,,,,,,,,,,,,,,,,,,,,,,,,,,,,,,,,,,,,,,,,,,,,,,,,,,,,,,,,,,,,,,,,,,,,,,,,,,,,,,,,,,,,,,,,,,,,,,
1725710387.035217,1725710387.037157,203.0,0.0,4248.974121,4260.0,4260.897461,4334.743652,4214.358887,4264.743652,4200.897461,4234.743652,4278.077148,4188.717773,4532.307617,4516.153809,4384.615234,4445.128418,3144.0,1.0,15.0,,,,0.0,4.0,4.0,4.0,4.0,4.0,4.0,4.0,4.0,4.0,4.0,4.0,4.0,4.0,4.0,100.0,,,,,,,,,,,,,,,,,,,,,,,,,,,,,,,,,,,,,,,,,,,,,,,,,,,,,,,,,,,,,,,,,,,,,,,,,,,,,,,,,,,,,,,,,,,,,,,,,,,,,,,,,,,,,,,,,,,,,,,,,,,,,,,,,,,
1725710387.039122,1725710387.041061,204.0,0.0,4249.358887,4258.717773,4261.153809,4335.128418,4214.871582,4264.615234,4202.179688,4236.153809,4278.974121,4187.563965,4543.333496,4521.282227,4384.487305,4446.922852,3430.0,1.0,15.0,,,,0.0,4.0,4.0,4.0,4.0,4.0,4.0,4.0,4.0,4.0,4.0,4.0,4.0,4.0,4.0,100.0,,,,,,,,,,,,,,,,,,,,,,,,,,,,,,,,,,,,,,,,,,,,,,,,,,,,,,,,,,,,,,,,,,,,,,,,,,,,,,,,,,,,,,,,,,,,,,,,,,,,,,,,,,,,,,,,,,,,,,,,,,,,,,,,,,,
1725710387.043026,1725710387.044966,205.0,0.0,4250.512695,4258.846191,4261.922852,4334.871582,4216.025879,4267.179688,4202.820313,4234.487305,4280.384766,4186.153809,4550.641113,4523.717773,4382.820313,4447.563965,3927.0,1.0,15.0,,,,0.0,4.0,4.0,4.0,4.0,4.0,4.0,4.0,4.0,4.0,4.0,4.0,4.0,4.0,4.0,100.0,,,,,,,,,,,,,,,,,,,,,,,,,,,,,,,,,,,,,,,,,,,,,,,,,,,,,,,,,,,,,,,,,,,,,,,,,,,,,,,,,,,,,,,,,,,,,,,,,,,,,,,,,,,,,,,,,,,,,,,,,,,,,,,,,,,
1725710387.04693,1725710387.04887,206.0,0.0,4252.692383,4260.897461,4262.94873,4333.846191,4217.307617,4271.025879,4202.94873,4232.692383,4281.922852,4185.897461,4551.666504,4524.358887,4380.897461,4447.436035,2905.0,1.0,15.0,,,,0.0,4.0,4.0,4.0,4.0,4.0,4.0,4.0,4.0,4.0,4.0,4.0,4.0,4.0,4.0,100.0,,,,,,,,,,,,,,,,,,,,,,,,,,,,,,,,,,,,,,,,,,,,,,,,,,,,,,,,,,,,,,,,,,,,,,,,,,,,,,,,,,,,,,,,,,,,,,,,,,,,,,,,,,,,,,,,,,,,,,,,,,,,,,,,,,,
1725710387.050834,1725710387.052674,207.0,0.0,4255.512695,4263.717773,4263.589844,4333.461426,4218.205078,4273.333496,4202.692383,4232.692383,4282.820313,4187.05127,4547.563965,4523.974121,4380.128418,4447.05127,3144.0,1.0,15.0,,,,0.0,4.0,4.0,4.0,4.0,4.0,4.0,4.0,4.0,4.0,4.0,4.0,4.0,4.0,4.0,100.0,,,,,,,,,,,,,,,,,,,,,,,,,,,,,,,,,,,,,,,,,,,,,,,,,,,,,,,,,,,,,,,,,,,,,,,,,,,,,,,,,,,,,,,,,,,,,,,,,,,,,,,,,,,,,,,,,,,,,,,,,,,,,,,,,,,
1725710387.054738,1725710387.056578,208.0,0.0,4258.333496,4265.512695,4264.230957,4335.128418,4218.205078,4272.436035,4201.410156,4234.358887,4282.179688,4187.94873,4541.538574,4523.461426,4380.256348,4446.666504,3430.0,1.0,15.0,,,,0.0,4.0,4.0,4.0,4.0,4.0,4.0,4.0,4.0,4.0,4.0,4.0,4.0,4.0,4.0,100.0,,,,,,,,,,,,,,,,,1.0,0.0,0.0,,,,,,,,,,,,,,,,,,,,,,,,,,,,,,,,,,,,,0.0,0.0,1.0,0.0,1.0,0.0,0.635834,0.945036,0.211777,0.151464,0.05357,0.557338,1.017131,0.353225,0.276508,0.171085,0.72604,0.849873,0.305795,0.129635,0.08427,0.960365,1.078271,0.482211,0.345123,0.146016,0.440154,0.249614,0.132588,0.14417,0.118849,0.605545,0.649822,0.114237,0.136225,0.072176,2.403415,0.810704,0.60042,0.130436,0.087503,0.921335,5.615815,0.735766,0.190047,0.079678,0.848221,4.633624,0.411237,0.241094,0.066094,0.929072,4.36507,0.586026,0.302315,0.095232,2.243437,4.835105,0.579749,0.729748,0.38547,2.965741,7.073487,0.692409,0.433612,0.119823,1.736246,2.786839,0.616559,0.309702,0.203146,1.670162,3.115179,0.831309,0.359647,0.128276
1725710387.058642,1725710387.060482,209.0,0.0,4260.128418,4265.512695,4264.615234,4339.102539,4217.563965,4269.358887,4197.820313,4235.769043,4279.871582,4187.436035,4536.794922,4523.077148,4380.641113,4446.410156,3927.0,1.0,15.0,,,,0.0,4.0,4.0,4.0,4.0,4.0,4.0,4.0,4.0,4.0,4.0,4.0,4.0,4.0,4.0,100.0,,,,,,,,,,,,,,,,,,,,,,,,,,,,,,,,,,,,,,,,,,,,,,,,,,,,,,,,,,,,,,,,,,,,,,,,,,,,,,,,,,,,,,,,,,,,,,,,,,,,,,,,,,,,,,,,,,,,,,,,,,,,,,,,,,,
1725710387.062546,1725710387.064486,210.0,0.0,4260.897461,4264.487305,4265.0,4343.333496,4216.794922,4266.153809,4191.025879,4235.384766,4276.666504,4185.641113,4534.871582,4522.94873,4380.769043,4446.153809,2905.0,1.0,15.0,,,,0.0,4.0,4.0,4.0,4.0,4.0,4.0,4.0,4.0,4.0,4.0,4.0,4.0,4.0,4.0,100.0,,,,,,,,,,,,,,,,,,,,,,,,,,,,,,,,,,,,,,,,,,,,,,,,,,,,,,,,,,,,,,,,,,,,,,,,,,,,,,,,,,,,,,,,,,,,,,,,,,,,,,,,,,,,,,,,,,,,,,,,,,,,,,,,,,,
1725710387.06645,1725710387.06839,211.0,0.0,4260.641113,4263.974121,4264.871582,4344.871582,4216.282227,4264.743652,4182.05127,4233.333496,4273.846191,4183.974121,4535.512695,4522.820313,4380.641113,4446.025879,3144.0,1.0,15.0,,,,0.0,4.0,4.0,4.0,4.0,4.0,4.0,4.0,4.0,4.0,4.0,4.0,4.0,4.0,4.0,100.0,,,,,,,,,,,,,,,,,,,,,,,,,,,,,,,,,,,,,,,,,,,,,,,,,,,,,,,,,,,,,,,,,,,,,,,,,,,,,,,,,,,,,,,,,,,,,,,,,,,,,,,,,,,,,,,,,,,,,,,,,,,,,,,,,,,
1725710387.070354,1725710387.072294,212.0,0.0,4259.871582,4264.615234,4264.230957,4342.307617,4215.897461,4264.871582,4173.461426,4230.512695,4271.538574,4183.589844,4537.692383,4522.436035,4380.641113,4445.641113,3430.0,1.0,15.0,,,,0.0,4.0,4.0,4.0,4.0,4.0,4.0,4.0,4.0,4.0,4.0,4.0,4.0,4.0,4.0,100.0,,,,,,,,,,,,,,,,,,,,,,,,,,,,,,,,,,,,,,,,,,,,,,,,,,,,,,,,,,,,,,,,,,,,,,,,,,,,,,,,,,,,,,,,,,,,,,,,,,,,,,,,,,,,,,,,,,,,,,,,,,,,,,,,,,,
1725710387.074258,1725710387.076298,213.0,0.0,4258.846191,4265.384766,4263.461426,4337.179688,4215.641113,4265.641113,4168.077148,4228.077148,4269.102539,4184.102539,4540.128418,4521.538574,4380.769043,4445.641113,3927.0,1.0,15.0,,,,0.0,4.0,4.0,4.0,4.0,4.0,4.0,4.0,4.0,4.0,4.0,4.0,4.0,4.0,4.0,100.0,,,,,,,,,,,,,,,,,,,,,,,,,,,,,,,,,,,,,,,,,,,,,,,,,,,,,,,,,,,,,,,,,,,,,,,,,,,,,,,,,,,,,,,,,,,,,,,,,,,,,,,,,,,,,,,,,,,,,,,,,,,,,,,,,,,
1725710387.078163,1725710387.080202,214.0,0.0,4258.077148,4265.384766,4262.563965,4333.333496,4215.512695,4265.897461,4166.282227,4226.538574,4266.410156,4184.358887,4541.794922,4520.256348,4380.641113,4446.025879,2905.0,1.0,15.0,,,,0.0,4.0,4.0,4.0,4.0,4.0,4.0,4.0,4.0,4.0,4.0,4.0,4.0,4.0,4.0,100.0,,,,,,,,,,,,,,,,,,,,,,,,,,,,,,,,,,,,,,,,,,,,,,,,,,,,,,,,,,,,,,,,,,,,,,,,,,,,,,,,,,,,,,,,,,,,,,,,,,,,,,,,,,,,,,,,,,,,,,,,,,,,,,,,,,,
1725710387.082067,1725710387.084106,215.0,0.0,4257.692383,4264.358887,4261.922852,4333.589844,4215.641113,4265.512695,4166.794922,4225.897461,4264.230957,4183.846191,4541.410156,4518.974121,4380.128418,4446.666504,3144.0,1.0,15.0,,,,0.0,4.0,4.0,4.0,4.0,4.0,4.0,4.0,4.0,4.0,4.0,4.0,4.0,4.0,4.0,100.0,,,,,,,,,,,,,,,,,,,,,,,,,,,,,,,,,,,,,,,,,,,,,,,,,,,,,,,,,,,,,,,,,,,,,,,,,,,,,,,,,,,,,,,,,,,,,,,,,,,,,,,,,,,,,,,,,,,,,,,,,,,,,,,,,,,
1725710387.085971,1725710387.088011,216.0,0.0,4258.205078,4263.589844,4261.282227,4337.692383,4216.025879,4265.128418,4167.820313,4226.410156,4264.102539,4182.820313,4538.077148,4518.077148,4379.358887,4446.794922,3430.0,1.0,15.0,,,,0.0,4.0,4.0,4.0,4.0,4.0,4.0,4.0,4.0,4.0,4.0,4.0,4.0,4.0,4.0,100.0,,,,,,,,,,,,,,,,,,,,,,,,,,,,,,,,,,,,,,,,,,,,,,,,,,,,,,,,0.0,0.0,1.0,0.0,1.0,0.0,,,,,,,,,,,,,,,,,,,,,,,,,,,,,,,,,,,,,,,,,,,,,,,,,,,,,,,,,,,,,,,,,,,,,,
1725710387.089875,1725710387.091915,217.0,0.0,4259.615234,4263.846191,4261.025879,4342.307617,4216.666504,4265.512695,4168.461426,4227.820313,4265.897461,4182.692383,4532.94873,4518.077148,4379.102539,4445.641113,3927.0,1.0,15.0,,,,0.0,4.0,4.0,4.0,4.0,4.0,4.0,4.0,4.0,4.0,4.0,4.0,4.0,4.0,4.0,100.0,,,,,,,,,,,,,,,,,,,,,,,,,,,,,,,,,,,,,,,,,,,,,,,,,,,,,,,,,,,,,,,,,,,,,,,,,,,,,,,,,,,,,,,,,,,,,,,,,,,,,,,,,,,,,,,,,,,,,,,,,,,,,,,,,,,
1725710387.093779,1725710387.095719,218.0,0.0,4261.282227,4264.743652,4261.410156,4343.974121,4217.307617,4266.538574,4169.743652,4229.871582,4268.333496,4183.461426,4529.358887,4519.102539,4379.871582,4444.358887,2905.0,1.0,15.0,,,,0.0,4.0,4.0,4.0,4.0,4.0,4.0,4.0,4.0,4.0,4.0,4.0,4.0,4.0,4.0,100.0,,,,,,,,,,,,,,,,,,,,,,,,,,,,,,,,,,,,,,,,,,,,,,,,,,,,,,,,,,,,,,,,,,,,,,,,,,,,,,,,,,,,,,,,,,,,,,,,,,,,,,,,,,,,,,,,,,,,,,,,,,,,,,,,,,,
1725710387.097683,1725710387.099623,219.0,0.0,4262.692383,4265.769043,4262.692383,4341.922852,4217.692383,4267.692383,4173.589844,4231.538574,4270.0,4185.0,4530.897461,4521.282227,4381.282227,4444.871582,3144.0,1.0,15.0,,,,0.0,4.0,4.0,4.0,4.0,4.0,4.0,4.0,4.0,4.0,4.0,4.0,4.0,4.0,4.0,100.0,,,,,,,,,,,,,,,,,,,,,,,,,,,,,,,,,,,,,,,,,,,,,,,,,,,,,,,,,,,,,,,,,,,,,,,,,,,,,,,,,,,,,,,,,,,,,,,,,,,,,,,,,,,,,,,,,,,,,,,,,,,,,,,,,,,
1725710387.101587,1725710387.103527,220.0,0.0,4263.461426,4266.538574,4264.230957,4338.077148,4217.820313,4268.077148,4181.282227,4232.692383,4270.641113,4186.025879,4538.589844,4523.846191,4382.692383,4448.205078,3430.0,1.0,15.0,,,,0.0,4.0,4.0,4.0,4.0,4.0,4.0,4.0,4.0,4.0,4.0,4.0,4.0,4.0,4.0,100.0,,,,,,,,,,,,,,,,,,,,,,,,,,,,,,,,,,,,,,,,,,,,,,,,,,,,,,,,,,,,,,,,,,,,,,,,,,,,,,,,,,,,,,,,,,,,,,,,,,,,,,,,,,,,,,,,,,,,,,,,,,,,,,,,,,,
1725710387.105491,1725710387.107531,221.0,0.0,4263.717773,4267.179688,4265.384766,4335.128418,4217.820313,4267.692383,4191.153809,4233.333496,4271.538574,4186.666504,4548.846191,4525.897461,4383.461426,4452.820313,3927.0,1.0,15.0,,,,0.0,4.0,4.0,4.0,4.0,4.0,4.0,4.0,4.0,4.0,4.0,4.0,4.0,4.0,4.0,100.0,,,,,,,,,,,,,,,,,,,,,,,,,,,,,,,,,,,,,,,,,,,,,,,,,,,,,,,,,,,,,,,,,,,,,,,,,,,,,,,,,,,,,,,,,,,,,,,,,,,,,,,,,,,,,,,,,,,,,,,,,,,,,,,,,,,
1725710387.109395,1725710387.111435,222.0,0.0,4263.717773,4267.05127,4265.897461,4334.230957,4217.820313,4267.692383,4199.358887,4233.846191,4273.589844,4187.307617,4555.512695,4526.282227,4383.077148,4455.769043,2905.0,1.0,15.0,,,,0.0,4.0,4.0,4.0,4.0,4.0,4.0,4.0,4.0,4.0,4.0,4.0,4.0,4.0,4.0,100.0,,,,,,,,,,,,,,,,,,,,,,,,,,,,,,,,,,,,,,,,,,,,,,,,,,,,,,,,,,,,,,,,,,,,,,,,,,,,,,,,,,,,,,,,,,,,,,,,,,,,,,,,,,,,,,,,,,,,,,,,,,,,,,,,,,,
1725710387.113299,1725710387.115339,223.0,0.0,4263.461426,4265.384766,4265.769043,4334.358887,4217.692383,4268.846191,4203.205078,4234.487305,4276.153809,4188.974121,4553.974121,4524.230957,4382.05127,4454.743652,3144.0,1.0,15.0,,,,0.0,4.0,4.0,4.0,4.0,4.0,4.0,4.0,4.0,4.0,4.0,4.0,4.0,4.0,4.0,100.0,,,,,,,,,,,,,,,,,,,,,,,,,,,,,,,,,,,,,,,,,,,,,,,,,,,,,,,,,,,,,,,,,,,,,,,,,,,,,,,,,,,,,,,,,,,,,,,,,,,,,,,,,,,,,,,,,,,,,,,,,,,,,,,,,,,
1725710387.117204,1725710387.119243,224.0,0.0,4262.692383,4261.538574,4265.256348,4334.615234,4217.563965,4270.897461,4202.692383,4235.897461,4278.333496,4192.307617,4545.641113,4521.153809,4381.282227,4450.769043,3430.0,1.0,15.0,,,,0.0,4.0,4.0,4.0,4.0,4.0,4.0,4.0,4.0,4.0,4.0,4.0,4.0,4.0,4.0,100.0,,,,,,,,,,,,,,,,,,,,,,,,,,,,,,,,,,,,,,,,,,,,,,,,,,,,,,,,0.0,0.0,1.0,0.0,1.0,0.0,,,,,,,,,,,,,,,,,,,,,,,,,,,,,,,,,,,,,,,,,,,,,,,,,,,,,,,,,,,,,,,,,,,,,,
1725710387.121108,1725710387.123148,225.0,0.0,4261.538574,4256.153809,4265.256348,4334.487305,4217.692383,4272.820313,4201.153809,4238.461426,4280.128418,4196.794922,4537.692383,4520.128418,4381.538574,4447.179688,3927.0,1.0,15.0,,,,0.0,4.0,4.0,4.0,4.0,4.0,4.0,4.0,4.0,4.0,4.0,4.0,4.0,4.0,4.0,100.0,,,,,,,,,,,,,,,,,,,,,,,,,,,,,,,,,,,,,,,,,,,,,,,,,,,,,,,,,,,,,,,,,,,,,,,,,,,,,,,,,,,,,,,,,,,,,,,,,,,,,,,,,,,,,,,,,,,,,,,,,,,,,,,,,,,
1725710387.125012,1725710387.126952,226.0,0.0,4260.641113,4251.153809,4266.025879,4335.0,4217.820313,4274.230957,4201.922852,4242.563965,4283.205078,4201.025879,4537.436035,4523.333496,4382.436035,4446.922852,2905.0,1.0,15.0,,,,0.0,4.0,4.0,4.0,4.0,4.0,4.0,4.0,4.0,4.0,4.0,4.0,4.0,4.0,4.0,100.0,,,,,,,,,,,,,,,,,,,,,,,,,,,,,,,,,,,,,,,,,,,,,,,,,,,,,,,,,,,,,,,,,,,,,,,,,,,,,,,,,,,,,,,,,,,,,,,,,,,,,,,,,,,,,,,,,,,,,,,,,,,,,,,,,,,
1725710387.128916,1725710387.130856,227.0,0.0,4260.769043,4248.717773,4267.179688,4336.794922,4217.94873,4274.743652,4206.410156,4246.922852,4288.205078,4203.333496,4546.025879,4529.230957,4383.333496,4450.769043,3144.0,1.0,15.0,,,,0.0,4.0,4.0,4.0,4.0,4.0,4.0,4.0,4.0,4.0,4.0,4.0,4.0,4.0,4.0,100.0,,,,,,,,,,,,,,,,,,,,,,,,,,,,,,,,,,,,,,,,,,,,,,,,,,,,,,,,,,,,,,,,,,,,,,,,,,,,,,,,,,,,,,,,,,,,,,,,,,,,,,,,,,,,,,,,,,,,,,,,,,,,,,,,,,,
1725710387.13282,1725710387.13476,228.0,0.0,4261.794922,4249.743652,4267.94873,4338.846191,4217.94873,4274.487305,4212.692383,4249.487305,4293.333496,4203.461426,4557.179688,4534.358887,4383.461426,4456.153809,3430.0,1.0,15.0,,,,0.0,4.0,4.0,4.0,4.0,4.0,4.0,4.0,4.0,4.0,4.0,4.0,4.0,4.0,4.0,100.0,,,,,,,,,,,,,,,,,,,,,,,,,,,,,,,,,,,,,,,,,,,,,,,,,,,,,,,,,,,,,,,,,,,,,,,,,,,,,,,,,,,,,,,,,,,,,,,,,,,,,,,,,,,,,,,,,,,,,,,,,,,,,,,,,,,
1725710387.136724,1725710387.138664,229.0,0.0,4262.692383,4253.589844,4267.692383,4339.230957,4217.692383,4273.461426,4217.179688,4249.358887,4296.153809,4202.436035,4562.692383,4535.641113,4382.94873,4459.487305,3927.0,1.0,15.0,,,,0.0,4.0,4.0,4.0,4.0,4.0,4.0,4.0,4.0,4.0,4.0,4.0,4.0,4.0,4.0,100.0,,,,,,,,,,,,,,,,,,,,,,,,,,,,,,,,,,,,,,,,,,,,,,,,,,,,,,,,,,,,,,,,,,,,,,,,,,,,,,,,,,,,,,,,,,,,,,,,,,,,,,,,,,,,,,,,,,,,,,,,,,,,,,,,,,,
1725710387.140628,1725710387.142468,230.0,0.0,4262.820313,4258.077148,4266.666504,4336.922852,4217.179688,4272.179688,4217.820313,4247.563965,4295.256348,4201.538574,4558.589844,4532.820313,4382.692383,4459.102539,2905.0,1.0,15.0,,,,0.0,4.0,4.0,4.0,4.0,4.0,4.0,4.0,4.0,4.0,4.0,4.0,4.0,4.0,4.0,100.0,,,,,,,,,,,,,,,,,,,,,,,,,,,,,,,,,,,,,,,,,,,,,,,,,,,,,,,,,,,,,,,,,,,,,,,,,,,,,,,,,,,,,,,,,,,,,,,,,,,,,,,,,,,,,,,,,,,,,,,,,,,,,,,,,,,
1725710387.144532,1725710387.146372,231.0,0.0,4261.666504,4260.897461,4265.384766,4333.846191,4216.666504,4271.538574,4215.641113,4246.794922,4292.05127,4201.410156,4548.333496,4528.461426,4383.205078,4456.538574,3144.0,1.0,15.0,,,,0.0,4.0,4.0,4.0,4.0,4.0,4.0,4.0,4.0,4.0,4.0,4.0,4.0,4.0,4.0,100.0,,,,,,,,,,,,,,,,,,,,,,,,,,,,,,,,,,,,,,,,,,,,,,,,,,,,,,,,,,,,,,,,,,,,,,,,,,,,,,,,,,,,,,,,,,,,,,,,,,,,,,,,,,,,,,,,,,,,,,,,,,,,,,,,,,,
1725710387.148436,1725710387.150276,232.0,0.0,4260.384766,4261.025879,4264.615234,4333.461426,4216.282227,4272.692383,4214.102539,4248.333496,4288.974121,4201.922852,4538.974121,4526.025879,4384.230957,4454.743652,3430.0,1.0,15.0,,,,0.0,4.0,4.0,4.0,4.0,4.0,4.0,4.0,4.0,4.0,4.0,4.0,4.0,4.0,4.0,100.0,,,,,,,,,,,,,,,,,,,,,,,,,,,,,,,,,,,,,,,,,,,,,,,,,,,,,,,,0.0,0.0,1.0,0.0,1.0,0.0,,,,,,,,,,,,,,,,,,,,,,,,,,,,,,,,,,,,,,,,,,,,,,,,,,,,,,,,,,,,,,,,,,,,,,
1725710387.152341,1725710387.154181,233.0,0.0,4260.0,4260.0,4264.743652,4337.05127,4216.410156,4275.256348,4216.153809,4251.025879,4288.205078,4202.820313,4535.897461,4526.538574,4384.615234,4456.025879,3927.0,1.0,15.0,,,,0.0,4.0,4.0,4.0,4.0,4.0,4.0,4.0,4.0,4.0,4.0,4.0,4.0,4.0,4.0,100.0,,,,,,,,,,,,,,,,,,,,,,,,,,,,,,,,,,,,,,,,,,,,,,,,,,,,,,,,,,,,,,,,,,,,,,,,,,,,,,,,,,,,,,,,,,,,,,,,,,,,,,,,,,,,,,,,,,,,,,,,,,,,,,,,,,,
1725710387.156245,1725710387.157985,234.0,0.0,4260.897461,4259.871582,4265.0,4342.820313,4216.794922,4277.307617,4222.307617,4252.05127,4289.743652,4203.333496,4538.717773,4528.846191,4383.846191,4459.615234,2905.0,1.0,15.0,,,,0.0,4.0,4.0,4.0,4.0,4.0,4.0,4.0,4.0,4.0,4.0,4.0,4.0,4.0,4.0,100.0,,,,,,,,,,,,,,,,,,,,,,,,,,,,,,,,,,,,,,,,,,,,,,,,,,,,,,,,,,,,,,,,,,,,,,,,,,,,,,,,,,,,,,,,,,,,,,,,,,,,,,,,,,,,,,,,,,,,,,,,,,,,,,,,,,,
1725710387.160149,1725710387.161889,235.0,0.0,4262.692383,4261.153809,4264.743652,4346.153809,4217.307617,4277.179688,4230.0,4248.974121,4291.153809,4202.94873,4542.94873,4530.384766,4382.179688,4462.307617,3144.0,1.0,15.0,,,,0.0,4.0,4.0,4.0,4.0,4.0,4.0,4.0,4.0,4.0,4.0,4.0,4.0,4.0,4.0,100.0,,,,,,,,,,,,,,,,,,,,,,,,,,,,,,,,,,,,,,,,,,,,,,,,,,,,,,,,,,,,,,,,,,,,,,,,,,,,,,,,,,,,,,,,,,,,,,,,,,,,,,,,,,,,,,,,,,,,,,,,,,,,,,,,,,,
1725710387.164053,1725710387.165793,236.0,0.0,4263.717773,4262.820313,4263.846191,4343.974121,4217.692383,4274.487305,4235.384766,4242.05127,4289.487305,4201.538574,4544.102539,4529.358887,4381.153809,4461.153809,3430.0,1.0,15.0,,,,0.0,4.0,4.0,4.0,4.0,4.0,4.0,4.0,4.0,4.0,4.0,4.0,4.0,4.0,4.0,100.0,,,,,,,,,,,,,,,,,,,,,,,,,,,,,,,,,,,,,,,,,,,,,,,,,,,,,,,,,,,,,,,,,,,,,,,,,,,,,,,,,,,,,,,,,,,,,,,,,,,,,,,,,,,,,,,,,,,,,,,,,,,,,,,,,,,
